# wavelength flux
3904.61960 8.04693e-18
3905.97300 8.04764e-18
3907.33650 8.05437e-18
3908.68990 7.91304e-18
3910.05340 8.00890e-18
3911.40680 8.10561e-18
3912.77030 8.28444e-18
3914.12370 8.57147e-18
3915.47710 8.44908e-18
3916.84060 8.43427e-18
3918.19400 6.66374e-18
3919.55750 5.45898e-18
3920.91090 4.91370e-18
3922.26430 5.39214e-18
3923.62780 4.63017e-18
3924.98120 6.28347e-18
3926.34470 6.61014e-18
3927.69810 9.68829e-18
3929.05150 9.13293e-18
3930.41500 5.27639e-18
3931.76840 6.65014e-18
3933.13190 7.45566e-18
3934.48530 5.54126e-18
3935.83870 2.36875e-18
3937.20220 5.01882e-19
3938.55560 8.98450e-18
3939.91910 5.52559e-18
3941.27250 5.22745e-18
3942.62590 7.48841e-18
3943.98940 5.84922e-18
3945.34280 5.53025e-18
3946.70630 3.48433e-18
3948.05970 7.43900e-18
3949.42320 7.53669e-18
3950.77660 3.87014e-18
3952.13000 2.23598e-18
3953.49350 5.07264e-18
3954.84690 7.60955e-18
3956.21040 4.49037e-18
3957.56380 5.89556e-18
3958.91720 9.47370e-18
3960.28070 6.55261e-18
3961.63410 5.10164e-18
3962.99760 5.26782e-18
3964.35100 6.43575e-18
3965.70440 7.06643e-18
3967.06790 6.23896e-18
3968.42130 4.80527e-18
3969.78480 6.79069e-18
3971.13820 3.13359e-18
3972.49160 2.55123e-18
3973.85510 4.57192e-18
3975.20850 7.84145e-18
3976.57200 5.45356e-18
3977.92540 3.64696e-18
3979.27880 5.45166e-18
3980.64230 4.54679e-18
3981.99570 4.99320e-18
3983.35920 5.62723e-18
3984.71260 8.58701e-18
3986.07610 6.40837e-18
3987.42950 9.15037e-18
3988.78290 4.79520e-18
3990.14640 7.81867e-18
3991.49980 5.80674e-18
3992.86330 4.05059e-18
3994.21670 2.52428e-18
3995.57010 3.72318e-18
3996.93360 3.77397e-18
3998.28700 4.15209e-18
3999.65050 6.64186e-18
4001.00390 6.13521e-18
4002.35730 8.10533e-18
4003.72080 6.32144e-18
4005.07420 4.21103e-18
4006.43770 6.42000e-18
4007.79110 7.96686e-18
4009.14450 6.99433e-18
4010.50800 8.06613e-18
4011.86140 7.97783e-18
4013.22490 8.24575e-18
4014.57830 5.72206e-18
4015.93170 5.18994e-18
4017.29520 5.61464e-18
4018.64860 7.59772e-18
4020.01210 7.40947e-18
4021.36550 3.50725e-18
4022.72900 7.48817e-18
4024.08240 8.24464e-18
4025.43580 4.54974e-18
4026.79930 6.77927e-18
4028.15270 9.62909e-18
4029.51620 6.76035e-18
4030.86960 3.85041e-18
4032.22300 6.48457e-18
4033.58650 2.91677e-18
4034.93990 5.00119e-18
4036.30340 6.01723e-18
4037.65680 6.62963e-18
4039.01020 6.27394e-18
4040.37370 6.72306e-18
4041.72710 6.63611e-18
4043.09060 5.07090e-18
4044.44400 8.42663e-18
4045.79740 6.23652e-18
4047.16090 4.86289e-18
4048.51430 5.13822e-18
4049.87780 4.75768e-18
4051.23120 5.81409e-18
4052.59470 6.11629e-18
4053.94810 5.04951e-18
4055.30150 5.42513e-18
4056.66500 6.38227e-18
4058.01840 6.86678e-18
4059.38190 5.40357e-18
4060.73530 5.89009e-18
4062.08870 5.92760e-18
4063.45220 5.53567e-18
4064.80560 7.92684e-18
4066.16910 6.03007e-18
4067.52250 5.02086e-18
4068.87590 7.82203e-18
4070.23940 3.82517e-18
4071.59280 4.39901e-18
4072.95630 5.09224e-18
4074.30970 6.42047e-18
4075.66310 5.94490e-18
4077.02660 5.50653e-18
4078.38000 5.31881e-18
4079.74350 5.03967e-18
4081.09690 8.14950e-18
4082.45030 7.63481e-18
4083.81380 6.26280e-18
4085.16720 6.26664e-18
4086.53070 5.32514e-18
4087.88410 4.60877e-18
4089.23750 5.78869e-18
4090.60100 4.66691e-18
4091.95440 5.43973e-18
4093.31790 4.11380e-18
4094.67130 6.23705e-18
4096.03480 5.52529e-18
4097.38820 3.57744e-18
4098.74160 5.17248e-18
4100.10510 5.23893e-18
4101.45850 4.65902e-18
4102.82200 5.56973e-18
4104.17540 5.13476e-18
4105.52880 5.87349e-18
4106.89230 5.93358e-18
4108.24570 5.91099e-18
4109.60920 6.10207e-18
4110.96260 4.33295e-18
4112.31600 5.74637e-18
4113.67950 7.55625e-18
4115.03290 5.22162e-18
4116.39640 3.76106e-18
4117.74980 5.54762e-18
4119.10320 5.16370e-18
4120.46670 6.00946e-18
4121.82010 7.21095e-18
4123.18360 6.30411e-18
4124.53700 5.82433e-18
4125.89040 6.71818e-18
4127.25390 7.45599e-18
4128.60730 7.93570e-18
4129.97080 6.63913e-18
4131.32420 6.78818e-18
4132.67760 8.30456e-18
4134.04110 6.34236e-18
4135.39450 6.37450e-18
4136.75800 6.36433e-18
4138.11140 5.72610e-18
4139.47490 6.71794e-18
4140.82830 9.32520e-18
4142.18170 9.58487e-18
4143.54520 9.89237e-18
4144.89860 9.45433e-18
4146.26210 8.13654e-18
4147.61550 7.08780e-18
4148.96890 6.39151e-18
4150.33240 6.87441e-18
4151.68580 5.34743e-18
4153.04930 5.61908e-18
4154.40270 5.84570e-18
4155.75610 4.60975e-18
4157.11960 4.56556e-18
4158.47300 5.41178e-18
4159.83650 5.40392e-18
4161.18990 5.76262e-18
4162.54330 5.67065e-18
4163.90680 4.71191e-18
4165.26020 5.61911e-18
4166.62370 4.80021e-18
4167.97710 6.89921e-18
4169.34060 5.81148e-18
4170.69400 5.36823e-18
4172.04740 5.11352e-18
4173.41090 6.12258e-18
4174.76430 5.89417e-18
4176.12780 5.62210e-18
4177.48120 5.59046e-18
4178.83460 6.33146e-18
4180.19810 5.64200e-18
4181.55150 7.11509e-18
4182.91500 7.34579e-18
4184.26840 6.02369e-18
4185.62180 6.17095e-18
4186.98530 7.02324e-18
4188.33870 5.93907e-18
4189.70220 5.59265e-18
4191.05560 5.41161e-18
4192.40900 5.75033e-18
4193.77250 5.51625e-18
4195.12590 5.38055e-18
4196.48940 6.72447e-18
4197.84280 6.63923e-18
4199.19620 5.16075e-18
4200.55970 6.23724e-18
4201.91310 6.01122e-18
4203.27660 5.41264e-18
4204.63000 4.99173e-18
4205.98340 6.45538e-18
4207.34690 7.14076e-18
4208.70030 6.10446e-18
4210.06380 7.25032e-18
4211.41720 8.31214e-18
4212.78070 7.14979e-18
4214.13410 5.45455e-18
4215.48750 5.39916e-18
4216.85100 6.12834e-18
4218.20440 6.55530e-18
4219.56790 5.60842e-18
4220.92130 7.48292e-18
4222.27470 6.16430e-18
4223.63820 6.60484e-18
4224.99160 5.57639e-18
4226.35510 6.58493e-18
4227.70850 5.79380e-18
4229.06190 6.42683e-18
4230.42540 5.72510e-18
4231.77880 6.31807e-18
4233.14230 5.84503e-18
4234.49570 6.52755e-18
4235.84910 6.04735e-18
4237.21260 6.79848e-18
4238.56600 6.59598e-18
4239.92950 6.14045e-18
4241.28290 6.26437e-18
4242.63630 6.29240e-18
4243.99980 6.00168e-18
4245.35320 6.06805e-18
4246.71670 6.20372e-18
4248.07010 6.34720e-18
4249.42350 5.95976e-18
4250.78700 6.15052e-18
4252.14040 7.35142e-18
4253.50390 7.37916e-18
4254.85730 6.38396e-18
4256.22080 5.19827e-18
4257.57420 5.18606e-18
4258.92760 6.01076e-18
4260.29110 5.67544e-18
4261.64450 6.52078e-18
4263.00800 6.76121e-18
4264.36140 6.60481e-18
4265.71480 5.69756e-18
4267.07830 5.51446e-18
4268.43170 6.22842e-18
4269.79520 5.23674e-18
4271.14860 4.77597e-18
4272.50200 7.97598e-18
4273.86550 5.41540e-18
4275.21890 5.57177e-18
4276.58240 5.46030e-18
4277.93580 6.39651e-18
4279.28920 7.10627e-18
4280.65270 6.30083e-18
4282.00610 5.95795e-18
4283.36960 5.86731e-18
4284.72300 6.32994e-18
4286.08650 6.22772e-18
4287.43990 4.98292e-18
4288.79330 6.18315e-18
4290.15680 6.33113e-18
4291.51020 6.12555e-18
4292.87370 5.83877e-18
4294.22710 6.18504e-18
4295.58050 6.24104e-18
4296.94400 6.26433e-18
4298.29740 5.89514e-18
4299.66090 5.66041e-18
4301.01430 5.67840e-18
4302.36770 5.62218e-18
4303.73120 5.50273e-18
4305.08460 6.33803e-18
4306.44810 6.14536e-18
4307.80150 5.83525e-18
4309.15490 6.04298e-18
4310.51840 5.29790e-18
4311.87180 5.78129e-18
4313.23530 7.00171e-18
4314.58870 6.43518e-18
4315.94210 6.65079e-18
4317.30560 6.43314e-18
4318.65900 7.08427e-18
4320.02250 6.00450e-18
4321.37590 6.29034e-18
4322.73940 5.99622e-18
4324.09280 5.52582e-18
4325.44620 5.92031e-18
4326.80970 4.81761e-18
4328.16310 5.49991e-18
4329.52660 6.71973e-18
4330.88000 6.42714e-18
4332.23340 7.01138e-18
4333.59690 6.17866e-18
4334.95030 6.62511e-18
4336.31380 6.09001e-18
4337.66720 6.02754e-18
4339.02060 6.17540e-18
4340.38410 6.51283e-18
4341.73750 5.86038e-18
4343.10100 6.56241e-18
4344.45440 6.64483e-18
4345.80780 6.01647e-18
4347.17130 6.03312e-18
4348.52470 6.47136e-18
4349.88820 6.40614e-18
4351.24160 6.22359e-18
4352.59500 6.57421e-18
4353.95850 6.99945e-18
4355.31190 7.01889e-18
4356.67540 6.09362e-18
4358.02880 6.32156e-18
4359.39230 6.42390e-18
4360.74570 6.27880e-18
4362.09910 5.98640e-18
4363.46260 6.30990e-18
4364.81600 6.45706e-18
4366.17950 6.08617e-18
4367.53290 7.06803e-18
4368.88630 6.47007e-18
4370.24980 6.47493e-18
4371.60320 6.81598e-18
4372.96670 6.59124e-18
4374.32010 7.25536e-18
4375.67350 6.50261e-18
4377.03700 6.53611e-18
4378.39040 6.56958e-18
4379.75390 6.60305e-18
4381.10730 6.63651e-18
4382.46070 6.66996e-18
4383.82420 6.70341e-18
4385.17760 6.73686e-18
4386.54110 6.77028e-18
4387.89450 6.80371e-18
4389.24790 6.83711e-18
4390.61140 6.87054e-18
4391.96480 6.90393e-18
4393.32830 6.93732e-18
4394.68170 6.97070e-18
4396.04520 7.00408e-18
4397.39860 7.03744e-18
4398.75200 7.07082e-18
4400.11550 7.10416e-18
4401.46890 7.13750e-18
4402.83240 7.17084e-18
4404.18580 7.20417e-18
4405.53920 7.23751e-18
4406.90270 7.27081e-18
4408.25610 7.30412e-18
4409.61960 7.33741e-18
4410.97300 7.37071e-18
4412.32640 7.40398e-18
4413.68990 7.43728e-18
4415.04330 7.47054e-18
4416.40680 7.50380e-18
4417.76020 7.53704e-18
4419.11360 7.57029e-18
4420.47710 7.60353e-18
4421.83050 7.63677e-18
4423.19400 7.66998e-18
4424.54740 7.70319e-18
4425.90080 7.73639e-18
4427.26430 7.76959e-18
4428.61770 7.80279e-18
4429.98120 7.83596e-18
4431.33460 7.86914e-18
4432.68800 7.90229e-18
4434.05150 7.93546e-18
4435.40490 7.96861e-18
4436.76840 8.00176e-18
4438.12180 8.03488e-18
4439.48530 7.86991e-18
4440.83870 7.18479e-18
4442.19210 7.08385e-18
4443.55560 7.93483e-18
4444.90900 7.66662e-18
4446.27250 7.72507e-18
4447.62590 7.72571e-18
4448.97930 7.20175e-18
4450.34280 7.68090e-18
4451.69620 7.44371e-18
4453.05970 8.12863e-18
4454.41310 8.35253e-18
4455.76650 8.38986e-18
4457.13000 8.44619e-18
4458.48340 8.10380e-18
4459.84690 7.29215e-18
4461.20030 7.25028e-18
4462.55370 7.80777e-18
4463.91720 7.99558e-18
4465.27060 7.66697e-18
4466.63410 7.43405e-18
4467.98750 7.71776e-18
4469.34090 7.65287e-18
4470.70440 7.72772e-18
4472.05780 7.81666e-18
4473.42130 7.90997e-18
4474.77470 7.53102e-18
4476.13820 7.37508e-18
4477.49160 8.00417e-18
4478.84500 7.70012e-18
4480.20850 7.81215e-18
4481.56190 8.11892e-18
4482.92540 7.95310e-18
4484.27880 7.91130e-18
4485.63220 7.99014e-18
4486.99570 8.50471e-18
4488.34910 8.38260e-18
4489.71260 8.08785e-18
4491.06600 7.81846e-18
4492.41940 7.95230e-18
4493.78290 8.33372e-18
4495.13630 8.80464e-18
4496.49980 8.23720e-18
4497.85320 8.37666e-18
4499.20660 8.57826e-18
4500.57010 8.72015e-18
4501.92350 7.93986e-18
4503.28700 8.80310e-18
4504.64040 8.37150e-18
4505.99380 8.34201e-18
4507.35730 7.27018e-18
4508.71070 8.61044e-18
4510.07420 8.30242e-18
4511.42760 8.60955e-18
4512.78100 8.46078e-18
4514.14450 9.14303e-18
4515.49790 8.85453e-18
4516.86140 8.91538e-18
4518.21480 9.09392e-18
4519.57830 9.04035e-18
4520.93170 8.65244e-18
4522.28510 8.76409e-18
4523.64860 8.51119e-18
4525.00200 8.33781e-18
4526.36550 8.53075e-18
4527.71890 8.70338e-18
4529.07230 8.91827e-18
4530.43580 8.75475e-18
4531.78920 8.47119e-18
4533.15270 8.91288e-18
4534.50610 8.67254e-18
4535.85950 8.32564e-18
4537.22300 8.62510e-18
4538.57640 8.57192e-18
4539.93990 8.78479e-18
4541.29330 8.52621e-18
4542.64670 8.54176e-18
4544.01020 8.71777e-18
4545.36360 8.44161e-18
4546.72710 8.52920e-18
4548.08050 8.36590e-18
4549.44400 8.44720e-18
4550.79740 8.73814e-18
4552.15080 8.67244e-18
4553.51430 8.70077e-18
4554.86770 8.79719e-18
4556.23120 8.70600e-18
4557.58460 8.06597e-18
4558.93800 8.12697e-18
4560.30150 8.30057e-18
4561.65490 8.54320e-18
4563.01840 8.66413e-18
4564.37180 8.52447e-18
4565.72520 8.83135e-18
4567.08870 8.54933e-18
4568.44210 8.76901e-18
4569.80560 9.00200e-18
4571.15900 8.61097e-18
4572.51240 9.10744e-18
4573.87590 8.44531e-18
4575.22930 8.23801e-18
4576.59280 8.24178e-18
4577.94620 8.28527e-18
4579.29960 8.07315e-18
4580.66310 8.77531e-18
4582.01650 8.35178e-18
4583.38000 8.76938e-18
4584.73340 8.80022e-18
4586.09690 8.56930e-18
4587.45030 8.71842e-18
4588.80370 8.36262e-18
4590.16720 8.47570e-18
4591.52060 8.44097e-18
4592.88410 8.49858e-18
4594.23750 8.40579e-18
4595.59090 8.29633e-18
4596.95440 8.30504e-18
4598.30780 8.47614e-18
4599.67130 8.31000e-18
4601.02470 7.98649e-18
4602.37810 8.16153e-18
4603.74160 8.19208e-18
4605.09500 8.01551e-18
4606.45850 8.35287e-18
4607.81190 8.16172e-18
4609.16530 8.03779e-18
4610.52880 8.14280e-18
4611.88220 7.88149e-18
4613.24570 8.01342e-18
4614.59910 8.67801e-18
4615.95250 8.15917e-18
4617.31600 8.27507e-18
4618.66940 8.26248e-18
4620.03290 8.22035e-18
4621.38630 7.83604e-18
4622.74980 8.04707e-18
4624.10320 8.37777e-18
4625.45660 8.51191e-18
4626.82010 8.13345e-18
4628.17350 8.62894e-18
4629.53700 7.88005e-18
4630.89040 8.50613e-18
4632.24380 7.99723e-18
4633.60730 7.56471e-18
4634.96070 7.89109e-18
4636.32420 8.30043e-18
4637.67760 8.01461e-18
4639.03100 8.21845e-18
4640.39450 8.06149e-18
4641.74790 7.67706e-18
4643.11140 8.05763e-18
4644.46480 7.81544e-18
4645.81820 7.79558e-18
4647.18170 8.04951e-18
4648.53510 7.55930e-18
4649.89860 7.88379e-18
4651.25200 7.96399e-18
4652.60540 8.06950e-18
4653.96890 8.28645e-18
4655.32230 7.78452e-18
4656.68580 8.29682e-18
4658.03920 8.17154e-18
4659.39260 8.04799e-18
4660.75610 7.91700e-18
4662.10950 8.23279e-18
4663.47300 7.84433e-18
4664.82640 7.63303e-18
4666.18990 7.85872e-18
4667.54330 7.77466e-18
4668.89670 7.42943e-18
4670.26020 7.65162e-18
4671.61360 7.89046e-18
4672.97710 7.91752e-18
4674.33050 7.98001e-18
4675.68390 7.96287e-18
4677.04740 7.79729e-18
4678.40080 7.95550e-18
4679.76430 7.77957e-18
4681.11770 7.76024e-18
4682.47110 7.73517e-18
4683.83460 7.65826e-18
4685.18800 7.54363e-18
4686.55150 7.61992e-18
4687.90490 7.90694e-18
4689.25830 7.63814e-18
4690.62180 7.55930e-18
4691.97520 7.56452e-18
4693.33870 7.53859e-18
4694.69210 7.48248e-18
4696.04550 7.65407e-18
4697.40900 7.50020e-18
4698.76240 7.61435e-18
4700.12590 7.66372e-18
4701.47930 7.46248e-18
4702.84280 7.66263e-18
4704.19620 7.34219e-18
4705.54960 7.82752e-18
4706.91310 7.21394e-18
4708.26650 7.29365e-18
4709.63000 7.81287e-18
4710.98340 7.86774e-18
4712.33680 7.73569e-18
4713.70030 7.88824e-18
4715.05370 7.58842e-18
4716.41720 7.49552e-18
4717.77060 7.80056e-18
4719.12400 7.54673e-18
4720.48750 7.46709e-18
4721.84090 7.23123e-18
4723.20440 7.75419e-18
4724.55780 7.85816e-18
4725.91120 7.72482e-18
4727.27470 7.76303e-18
4728.62810 7.50590e-18
4729.99160 7.58525e-18
4731.34500 7.51004e-18
4732.69840 7.50317e-18
4734.06190 7.83023e-18
4735.41530 7.98663e-18
4736.77880 7.84935e-18
4738.13220 7.76989e-18
4739.48560 7.84887e-18
4740.84910 7.56171e-18
4742.20250 7.68897e-18
4743.56600 7.74102e-18
4744.91940 7.91023e-18
4746.28290 7.73010e-18
4747.63630 7.40295e-18
4748.98970 7.64705e-18
4750.35320 7.82858e-18
4751.70660 7.59064e-18
4753.07010 7.72260e-18
4754.42350 7.70079e-18
4755.77690 7.73508e-18
4757.14040 7.73972e-18
4758.49380 7.93025e-18
4759.85730 7.63944e-18
4761.21070 7.42315e-18
4762.56410 7.52048e-18
4763.92760 7.89838e-18
4765.28100 7.93029e-18
4766.64450 7.70150e-18
4767.99790 7.86358e-18
4769.35130 7.97535e-18
4770.71480 7.87534e-18
4772.06820 8.05218e-18
4773.43170 7.47383e-18
4774.78510 7.52849e-18
4776.13850 7.93404e-18
4777.50200 7.71528e-18
4778.85540 7.78054e-18
4780.21890 7.80362e-18
4781.57230 8.13209e-18
4782.93580 7.45293e-18
4784.28920 7.77682e-18
4785.64260 8.01148e-18
4787.00610 7.84452e-18
4788.35950 7.79161e-18
4789.72300 7.77980e-18
4791.07640 7.80400e-18
4792.42980 7.72526e-18
4793.79330 7.68484e-18
4795.14670 8.13125e-18
4796.51020 7.31914e-18
4797.86360 7.75268e-18
4799.21700 7.70568e-18
4800.58050 7.13720e-18
4801.93390 7.73257e-18
4803.29740 7.29952e-18
4804.65080 7.49310e-18
4806.00420 7.74942e-18
4807.36770 7.50140e-18
4808.72110 7.14003e-18
4810.08460 7.64616e-18
4811.43800 7.62081e-18
4812.80150 7.43631e-18
4814.15490 7.82856e-18
4815.50830 7.84438e-18
4816.87180 7.64907e-18
4818.22520 7.35370e-18
4819.58870 7.50876e-18
4820.94210 7.77040e-18
4822.29550 7.50216e-18
4823.65900 7.48180e-18
4825.01240 7.42500e-18
4826.37590 7.22267e-18
4827.72930 7.49172e-18
4829.08270 7.08999e-18
4830.44620 7.21691e-18
4831.79960 7.48970e-18
4833.16310 7.45980e-18
4834.51650 7.48001e-18
4835.86990 7.49086e-18
4837.23340 7.50106e-18
4838.58680 7.62193e-18
4839.95030 7.50425e-18
4841.30370 7.54408e-18
4842.65710 7.40878e-18
4844.02060 7.50678e-18
4845.37400 7.43165e-18
4846.73750 7.43439e-18
4848.09090 7.18361e-18
4849.45440 7.04871e-18
4850.80780 7.46829e-18
4852.16120 7.42251e-18
4853.52470 7.45527e-18
4854.87810 7.37523e-18
4856.24160 7.36895e-18
4857.59500 7.50728e-18
4858.94840 7.48047e-18
4860.31190 7.92001e-18
4861.66530 7.29952e-18
4863.02880 7.77865e-18
4864.38220 8.00046e-18
4865.73560 7.69996e-18
4867.09910 7.48255e-18
4868.45250 7.63909e-18
4869.81600 7.54434e-18
4871.16940 7.64743e-18
4872.52280 7.56603e-18
4873.88630 7.83373e-18
4875.23970 7.91650e-18
4876.60320 7.80730e-18
4877.95660 7.65458e-18
4879.31000 7.45776e-18
4880.67350 7.70466e-18
4882.02690 7.90886e-18
4883.39040 8.39573e-18
4884.74380 7.71475e-18
4886.09720 7.60563e-18
4887.46070 8.15224e-18
4888.81410 7.41642e-18
4890.17760 7.49094e-18
4891.53100 8.08387e-18
4892.89450 8.09014e-18
4894.24790 8.09641e-18
4895.60130 8.10268e-18
4896.96480 8.10894e-18
4898.31820 8.11521e-18
4899.68170 8.12147e-18
4901.03510 8.12773e-18
4902.38850 8.13399e-18
4903.75200 8.14025e-18
4905.10540 8.14651e-18
4906.46890 8.15277e-18
4907.82230 8.15902e-18
4909.17570 8.16527e-18
4910.53920 8.17152e-18
4911.89260 8.17777e-18
4913.25610 8.18402e-18
4914.60950 8.19027e-18
4915.96290 8.19652e-18
4917.32640 8.20276e-18
4918.67980 8.20900e-18
4920.04330 8.21525e-18
4921.39670 8.22148e-18
4922.75010 8.22772e-18
4924.11360 8.23396e-18
4925.46700 8.24020e-18
4926.83050 8.24643e-18
4928.18390 8.25266e-18
4929.54740 8.35772e-18
4930.90080 8.43182e-18
4932.25420 8.20089e-18
4933.61770 8.21394e-18
4934.97110 8.29763e-18
4936.33460 8.14576e-18
4937.68800 8.27707e-18
4939.04140 8.34770e-18
4940.40490 8.25326e-18
4941.75830 8.09748e-18
4943.12180 7.89521e-18
4944.47520 7.95209e-18
4945.82860 8.05783e-18
4947.19210 8.37427e-18
4948.54550 8.48040e-18
4949.90900 8.39920e-18
4951.26240 8.51899e-18
4952.61580 8.30016e-18
4953.97930 8.29943e-18
4955.33270 8.22030e-18
4956.69620 7.73363e-18
4958.04960 8.03191e-18
4959.40300 8.12480e-18
4960.76650 8.21105e-18
4962.11990 8.24410e-18
4963.48340 8.62989e-18
4964.83680 8.24353e-18
4966.19020 8.55091e-18
4967.55370 8.10568e-18
4968.90710 8.72827e-18
4970.27060 8.60681e-18
4971.62400 8.38206e-18
4972.98750 8.59218e-18
4974.34090 8.28110e-18
4975.69430 8.27528e-18
4977.05780 8.51527e-18
4978.41120 8.11763e-18
4979.77470 8.10169e-18
4981.12810 8.36830e-18
4982.48150 8.23277e-18
4983.84500 8.64135e-18
4985.19840 8.49777e-18
4986.56190 8.01018e-18
4987.91530 8.02157e-18
4989.26870 8.15690e-18
4990.63220 8.17837e-18
4991.98560 8.19982e-18
4993.34910 8.22127e-18
4994.70250 8.24272e-18
4996.05590 8.26416e-18
4997.41940 8.28560e-18
4998.77280 8.30704e-18
5000.13630 8.32846e-18
5001.48970 8.34988e-18
5002.84310 8.37130e-18
5004.20660 8.39271e-18
5005.56000 8.41412e-18
5006.92350 8.43553e-18
5008.27690 8.45692e-18
5009.64040 8.47832e-18
5010.99380 8.49970e-18
5012.34720 8.52110e-18
5013.71070 8.54247e-18
5015.06410 8.56384e-18
5016.42760 8.58521e-18
5017.78100 8.60657e-18
5019.13440 8.62794e-18
5020.49790 8.64929e-18
5021.85130 8.67065e-18
5023.21480 8.69199e-18
5024.56820 8.71333e-18
5025.92160 8.73466e-18
5027.28510 8.75601e-18
5028.63850 8.65545e-18
5030.00200 8.61587e-18
5031.35540 8.55182e-18
5032.70880 8.50651e-18
5034.07230 8.41872e-18
5035.42570 8.55139e-18
5036.78920 8.68060e-18
5038.14260 8.58601e-18
5039.49600 8.60288e-18
5040.85950 8.61975e-18
5042.21290 8.63661e-18
5043.57640 8.65347e-18
5044.92980 8.67033e-18
5046.29330 8.68718e-18
5047.64670 8.70403e-18
5049.00010 8.72088e-18
5050.36360 8.73773e-18
5051.71700 8.75456e-18
5053.08050 8.77140e-18
5054.43390 8.78823e-18
5055.78730 8.80507e-18
5057.15080 8.82189e-18
5058.50420 8.83871e-18
5059.86770 8.85553e-18
5061.22110 8.87235e-18
5062.57450 8.88915e-18
5063.93800 8.90597e-18
5065.29140 8.92277e-18
5066.65490 8.93956e-18
5068.00830 8.95636e-18
5069.36170 8.97315e-18
5070.72520 8.98995e-18
5072.07860 9.00673e-18
5073.44210 9.02352e-18
5074.79550 9.04029e-18
5076.15900 9.05707e-18
5077.51240 9.30894e-18
5078.86580 9.63207e-18
5080.22930 9.22808e-18
5081.58270 9.49470e-18
5082.94620 9.65378e-18
5084.29960 9.80200e-18
5085.65300 9.42098e-18
5087.01650 9.25406e-18
5088.36990 9.48503e-18
5089.73340 9.80377e-18
5091.08680 9.66516e-18
5092.44020 9.84651e-18
5093.80370 9.48484e-18
5095.15710 1.00990e-17
5096.52060 9.82701e-18
5097.87400 9.64137e-18
5099.22740 9.66543e-18
5100.59090 9.76197e-18
5101.94430 9.76326e-18
5103.30780 1.01318e-17
5104.66120 9.91633e-18
5106.01460 9.56627e-18
5107.37810 1.00647e-17
5108.73150 9.98733e-18
5110.09500 1.00239e-17
5111.44840 9.94437e-18
5112.81190 1.00177e-17
5114.16530 1.00910e-17
5115.51870 1.02050e-17
5116.88220 1.01116e-17
5118.23560 1.02614e-17
5119.59910 1.00426e-17
5120.95250 1.00141e-17
5122.30590 1.01041e-17
5123.66940 1.02349e-17
5125.02280 1.04478e-17
5126.38630 1.04260e-17
5127.73970 1.05071e-17
5129.09310 1.05240e-17
5130.45660 1.06289e-17
5131.81000 1.02863e-17
5133.17350 1.03821e-17
5134.52690 1.06494e-17
5135.88030 1.06490e-17
5137.24380 1.06640e-17
5138.59720 1.05262e-17
5139.96070 1.05333e-17
5141.31410 1.04805e-17
5142.66750 1.06371e-17
5144.03100 1.06448e-17
5145.38440 1.05012e-17
5146.74790 1.06530e-17
5148.10130 1.07776e-17
5149.45470 1.08448e-17
5150.81820 1.08814e-17
5152.17160 1.07809e-17
5153.53510 1.07656e-17
5154.88850 1.07657e-17
5156.25200 1.07256e-17
5157.60540 1.08166e-17
5158.95880 1.07516e-17
5160.32230 1.09677e-17
5161.67570 1.10676e-17
5163.03920 1.10488e-17
5164.39260 1.09072e-17
5165.74600 1.08891e-17
5167.10950 1.10383e-17
5168.46290 1.10158e-17
5169.82640 1.09524e-17
5171.17980 1.09537e-17
5172.53320 1.11586e-17
5173.89670 1.12594e-17
5175.25010 1.13572e-17
5176.61360 1.10365e-17
5177.96700 1.10230e-17
5179.32040 1.13995e-17
5180.68390 1.14477e-17
5182.03730 1.14111e-17
5183.40080 1.12728e-17
5184.75420 1.13355e-17
5186.10760 1.12603e-17
5187.47110 1.15096e-17
5188.82450 1.14672e-17
5190.18800 1.14299e-17
5191.54140 1.14974e-17
5192.89480 1.13770e-17
5194.25830 1.12326e-17
5195.61170 1.16979e-17
5196.97520 1.17325e-17
5198.32860 1.16995e-17
5199.69210 1.17887e-17
5201.04550 1.17158e-17
5202.39890 1.19319e-17
5203.76240 1.19881e-17
5205.11580 1.21183e-17
5206.47930 1.19557e-17
5207.83270 1.23056e-17
5209.18610 1.20902e-17
5210.54960 1.20806e-17
5211.90300 1.19697e-17
5213.26650 1.20731e-17
5214.61990 1.19986e-17
5215.97330 1.22078e-17
5217.33680 1.20591e-17
5218.69020 1.18568e-17
5220.05370 1.18766e-17
5221.40710 1.23565e-17
5222.76050 1.20907e-17
5224.12400 1.21105e-17
5225.47740 1.24453e-17
5226.84090 1.23172e-17
5228.19430 1.24658e-17
5229.54770 1.23345e-17
5230.91120 1.24453e-17
5232.26460 1.26224e-17
5233.62810 1.25306e-17
5234.98150 1.27656e-17
5236.34500 1.22533e-17
5237.69840 1.23300e-17
5239.05180 1.25520e-17
5240.41530 1.22605e-17
5241.76870 1.24682e-17
5243.13220 1.25686e-17
5244.48560 1.27602e-17
5245.83900 1.27792e-17
5247.20250 1.30492e-17
5248.55590 1.30851e-17
5249.91940 1.30499e-17
5251.27280 1.33246e-17
5252.62620 1.34089e-17
5253.98970 1.35905e-17
5255.34310 1.33756e-17
5256.70660 1.31260e-17
5258.06000 1.30818e-17
5259.41340 1.33031e-17
5260.77690 1.32813e-17
5262.13030 1.31477e-17
5263.49380 1.30093e-17
5264.84720 1.29754e-17
5266.20060 1.33653e-17
5267.56410 1.31886e-17
5268.91750 1.30374e-17
5270.28100 1.31052e-17
5271.63440 1.31789e-17
5272.99790 1.32053e-17
5274.35130 1.36378e-17
5275.70470 8.49660e-18
5277.06820 -3.15336e-21
5278.42160 2.18990e-22
5279.78510 5.07703e-21
5281.13850 6.48744e-27
5282.49190 -1.18163e-25
5283.85540 -1.96878e-25
5285.20880 1.25680e-26
5286.57230 -9.27115e-26
5287.92570 -2.62332e-26
5289.27910 1.49125e-25
5290.64260 6.74157e-27
5291.99600 -6.51081e-22
5293.35950 -1.05233e-20
5294.71290 -2.86593e-20
5296.06630 -2.38847e-20
5297.42980 -6.50343e-22
5298.78320 5.04027e-20
5300.14670 9.39279e-20
5301.50010 8.53930e-20
5302.85350 -2.87569e-20
5304.21700 7.20831e-18
5305.57040 1.22039e-17
5306.93390 1.22129e-17
5308.28730 1.24477e-17
5309.65080 1.27232e-17
5311.00420 1.27896e-17
5312.35760 1.29485e-17
5313.72110 1.28234e-17
5315.07450 1.28581e-17
5316.43800 1.29922e-17
5317.79140 1.30722e-17
5319.14480 1.33181e-17
5320.50830 1.32909e-17
5321.86170 1.36547e-17
5323.22520 1.35295e-17
5324.57860 1.31929e-17
5325.93200 1.33897e-17
5327.29550 1.33157e-17
5328.64890 1.34362e-17
5330.01240 1.38210e-17
5331.36580 1.38351e-17
5332.71920 1.38026e-17
5334.08270 1.38594e-17
5335.43610 1.39599e-17
5336.79960 1.40124e-17
5338.15300 1.40105e-17
5339.51650 1.41604e-17
5340.86990 1.44753e-17
5342.22330 1.42554e-17
5343.58680 1.44629e-17
5344.94020 1.45269e-17
5346.30370 1.42855e-17
5347.65710 1.47726e-17
5349.01050 1.49605e-17
5350.37400 1.46383e-17
5351.72740 1.46590e-17
5353.09090 1.47184e-17
5354.44430 1.52120e-17
5355.79770 1.53045e-17
5357.16120 1.50941e-17
5358.51460 1.50996e-17
5359.87810 1.52852e-17
5361.23150 1.55462e-17
5362.58490 1.52631e-17
5363.94840 1.48727e-17
5365.30180 1.55332e-17
5366.66530 1.53861e-17
5368.01870 1.55992e-17
5369.37210 1.60617e-17
5370.73560 1.56744e-17
5372.08900 1.58529e-17
5373.45250 1.55993e-17
5374.80590 1.55970e-17
5376.15930 1.63424e-17
5377.52280 1.59136e-17
5378.87620 1.60291e-17
5380.23970 1.63804e-17
5381.59310 1.58973e-17
5382.95660 1.61260e-17
5384.31000 1.57505e-17
5385.66340 1.58858e-17
5387.02690 1.67081e-17
5388.38030 1.66642e-17
5389.74380 1.66060e-17
5391.09720 1.66929e-17
5392.45060 1.65539e-17
5393.81410 1.58718e-17
5395.16750 1.52839e-17
5396.53100 1.71884e-17
5397.88440 1.70438e-17
5399.23780 1.68579e-17
5400.60130 1.71021e-17
5401.95470 1.68986e-17
5403.31820 1.75145e-17
5404.67160 1.69132e-17
5406.02500 1.73173e-17
5407.38850 1.68880e-17
5408.74190 1.75872e-17
5410.10540 1.75805e-17
5411.45880 1.73748e-17
5412.81220 1.74691e-17
5414.17570 1.74808e-17
5415.52910 1.72631e-17
5416.89260 1.73100e-17
5418.24600 1.75167e-17
5419.60950 1.76244e-17
5420.96290 1.79871e-17
5422.31630 1.79077e-17
5423.67980 1.74205e-17
5425.03320 1.71613e-17
5426.39670 1.77989e-17
5427.75010 1.77171e-17
5429.10350 1.76057e-17
5430.46700 1.75038e-17
5431.82040 1.77198e-17
5433.18390 1.77882e-17
5434.53730 1.75947e-17
5435.89070 1.77743e-17
5437.25420 1.80681e-17
5438.60760 1.79566e-17
5439.97110 1.77521e-17
5441.32450 1.76523e-17
5442.67790 1.79122e-17
5444.04140 1.80898e-17
5445.39480 1.83409e-17
5446.75830 1.78961e-17
5448.11170 1.78738e-17
5449.46510 1.79085e-17
5450.82860 1.79874e-17
5452.18200 1.79895e-17
5453.54550 1.80893e-17
5454.89890 1.82013e-17
5456.25230 1.80956e-17
5457.61580 1.82089e-17
5458.96920 1.81872e-17
5460.33270 1.83310e-17
5461.68610 1.83164e-17
5463.04960 1.84126e-17
5464.40300 1.86700e-17
5465.75640 1.83814e-17
5467.11990 1.80824e-17
5468.47330 1.80567e-17
5469.83680 1.81404e-17
5471.19020 1.82804e-17
5472.54360 1.84052e-17
5473.90710 1.83212e-17
5475.26050 1.83364e-17
5476.62400 1.84035e-17
5477.97740 1.85954e-17
5479.33080 1.84933e-17
5480.69430 1.86699e-17
5482.04770 1.90352e-17
5483.41120 1.87239e-17
5484.76460 1.85461e-17
5486.11800 1.85292e-17
5487.48150 1.85473e-17
5488.83490 1.86997e-17
5490.19840 1.83911e-17
5491.55180 1.82291e-17
5492.90520 1.84808e-17
5494.26870 1.85089e-17
5495.62210 1.82896e-17
5496.98560 1.80782e-17
5498.33900 1.82471e-17
5499.70250 1.83181e-17
5501.05590 1.82062e-17
5502.40930 1.83077e-17
5503.77280 1.82232e-17
5505.12620 1.81417e-17
5506.48970 1.81289e-17
5507.84310 1.80287e-17
5509.19650 1.80722e-17
5510.56000 1.79131e-17
5511.91340 1.79869e-17
5513.27690 1.80644e-17
5514.63030 1.81642e-17
5515.98370 1.79498e-17
5517.34720 1.74714e-17
5518.70060 1.76156e-17
5520.06410 1.75826e-17
5521.41750 1.74588e-17
5522.77090 1.72254e-17
5524.13440 1.70880e-17
5525.48780 1.74271e-17
5526.85130 1.72167e-17
5528.20470 1.72088e-17
5529.55810 1.73883e-17
5530.92160 1.73640e-17
5532.27500 1.71416e-17
5533.63850 1.69093e-17
5534.99190 1.71028e-17
5536.35540 1.69392e-17
5537.70880 1.67666e-17
5539.06220 1.69055e-17
5540.42570 1.68581e-17
5541.77910 1.66073e-17
5543.14260 1.64377e-17
5544.49600 1.64070e-17
5545.84940 1.64485e-17
5547.21290 1.65807e-17
5548.56630 1.65699e-17
5549.92980 1.66072e-17
5551.28320 1.64295e-17
5552.63660 1.65909e-17
5554.00010 1.64311e-17
5555.35350 1.64998e-17
5556.71700 1.63314e-17
5558.07040 1.61555e-17
5559.42380 1.63794e-17
5560.78730 1.63042e-17
5562.14070 1.60542e-17
5563.50420 1.61566e-17
5564.85760 1.57447e-17
5566.21100 1.58816e-17
5567.57450 1.57655e-17
5568.92790 1.55637e-17
5570.29140 1.54562e-17
5571.64480 1.50797e-17
5573.00830 1.61191e-17
5574.36170 1.49535e-17
5575.71510 1.52155e-17
5577.07860 1.55805e-17
5578.43200 1.53522e-17
5579.79550 1.54008e-17
5581.14890 1.52719e-17
5582.50230 1.52342e-17
5583.86580 1.51746e-17
5585.21920 1.51567e-17
5586.58270 1.50573e-17
5587.93610 1.47652e-17
5589.28950 1.48346e-17
5590.65300 1.44604e-17
5592.00640 1.44433e-17
5593.36990 1.47227e-17
5594.72330 1.47115e-17
5596.07670 1.44165e-17
5597.44020 1.44337e-17
5598.79360 1.43351e-17
5600.15710 1.42649e-17
5601.51050 1.43936e-17
5602.86390 1.39975e-17
5604.22740 1.43788e-17
5605.58080 1.41233e-17
5606.94430 1.42184e-17
5608.29770 1.41956e-17
5609.66120 1.38610e-17
5611.01460 1.39673e-17
5612.36800 1.39073e-17
5613.73150 1.40451e-17
5615.08490 1.41930e-17
5616.44840 1.40980e-17
5617.80180 1.37541e-17
5619.15520 1.40719e-17
5620.51870 1.40123e-17
5621.87210 1.38790e-17
5623.23560 1.37293e-17
5624.58900 1.40109e-17
5625.94240 1.37870e-17
5627.30590 1.35093e-17
5628.65930 1.36705e-17
5630.02280 1.39872e-17
5631.37620 1.35964e-17
5632.72960 1.34335e-17
5634.09310 1.34763e-17
5635.44650 1.36144e-17
5636.81000 1.33952e-17
5638.16340 1.34839e-17
5639.51680 1.34578e-17
5640.88030 1.35397e-17
5642.23370 1.32424e-17
5643.59720 1.32705e-17
5644.95060 1.34071e-17
5646.31410 1.33259e-17
5647.66750 1.33661e-17
5649.02090 1.32470e-17
5650.38440 1.31329e-17
5651.73780 1.31230e-17
5653.10130 1.31621e-17
5654.45470 1.30153e-17
5655.80810 1.30900e-17
5657.17160 1.33560e-17
5658.52500 1.30336e-17
5659.88850 1.31347e-17
5661.24190 1.29230e-17
5662.59530 1.31366e-17
5663.95880 1.32090e-17
5665.31220 1.31034e-17
5666.67570 1.28758e-17
5668.02910 1.30097e-17
5669.38250 1.29939e-17
5670.74600 1.29242e-17
5672.09940 1.31616e-17
5673.46290 1.29877e-17
5674.81630 1.28792e-17
5676.16970 1.27701e-17
5677.53320 1.27429e-17
5678.88660 1.28777e-17
5680.25010 1.29013e-17
5681.60350 1.31167e-17
5682.95690 1.31253e-17
5684.32040 1.30896e-17
5685.67380 1.32096e-17
5687.03730 1.31284e-17
5688.39070 1.31391e-17
5689.75420 1.29607e-17
5691.10760 1.29654e-17
5692.46100 1.29370e-17
5693.82450 1.30404e-17
5695.17790 1.32536e-17
5696.54140 1.28828e-17
5697.89480 1.33658e-17
5699.24820 1.32633e-17
5700.61170 1.31429e-17
5701.96510 1.29788e-17
5703.32860 1.25415e-17
5704.68200 1.28493e-17
5706.03540 1.30812e-17
5707.39890 1.30344e-17
5708.75230 1.30277e-17
5710.11580 1.31918e-17
5711.46920 1.30230e-17
5712.82260 1.31826e-17
5714.18610 1.31947e-17
5715.53950 1.32776e-17
5716.90300 1.32116e-17
5718.25640 1.32328e-17
5719.60980 1.34459e-17
5720.97330 1.34121e-17
5722.32670 1.33154e-17
5723.69020 1.30557e-17
5725.04360 1.31356e-17
5726.40710 1.33312e-17
5727.76050 1.33380e-17
5729.11390 1.34482e-17
5730.47740 1.34903e-17
5731.83080 1.32756e-17
5733.19430 1.35930e-17
5734.54770 1.34409e-17
5735.90110 1.35122e-17
5737.26460 1.34208e-17
5738.61800 1.34582e-17
5739.98150 1.36482e-17
5741.33490 1.35299e-17
5742.68830 1.34768e-17
5744.05180 1.37450e-17
5745.40520 1.37627e-17
5746.76870 1.32588e-17
5748.12210 1.38427e-17
5749.47550 1.38986e-17
5750.83900 1.37502e-17
5752.19240 1.38680e-17
5753.55590 1.39340e-17
5754.90930 1.38953e-17
5756.26270 1.39092e-17
5757.62620 1.38809e-17
5758.97960 1.40050e-17
5760.34310 1.39762e-17
5761.69650 1.37669e-17
5763.06000 1.38024e-17
5764.41340 1.39128e-17
5765.76680 1.40808e-17
5767.13030 1.39695e-17
5768.48370 1.40329e-17
5769.84720 1.41364e-17
5771.20060 1.43005e-17
5772.55400 1.46510e-17
5773.91750 1.43874e-17
5775.27090 1.44062e-17
5776.63440 1.45998e-17
5777.98780 1.47331e-17
5779.34120 1.45913e-17
5780.70470 1.45750e-17
5782.05810 1.47193e-17
5783.42160 1.46627e-17
5784.77500 1.47016e-17
5786.12840 1.48792e-17
5787.49190 1.50301e-17
5788.84530 1.50897e-17
5790.20880 1.50900e-17
5791.56220 1.49293e-17
5792.91560 1.49572e-17
5794.27910 1.51655e-17
5795.63250 1.52003e-17
5796.99600 1.53180e-17
5798.34940 1.51498e-17
5799.71290 1.51955e-17
5801.06630 1.54718e-17
5802.41970 1.54207e-17
5803.78320 1.54441e-17
5805.13660 1.55389e-17
5806.50010 1.55178e-17
5807.85350 1.56724e-17
5809.20690 1.56796e-17
5810.57040 1.58312e-17
5811.92380 1.60833e-17
5813.28730 1.60791e-17
5814.64070 1.63264e-17
5815.99410 1.65641e-17
5817.35760 1.64169e-17
5818.71100 1.63622e-17
5820.07450 1.62923e-17
5821.42790 1.62806e-17
5822.78130 1.62894e-17
5824.14480 1.63003e-17
5825.49820 1.62550e-17
5826.86170 1.61949e-17
5828.21510 1.64240e-17
5829.56850 1.64605e-17
5830.93200 1.67457e-17
5832.28540 1.64749e-17
5833.64890 1.63362e-17
5835.00230 1.65890e-17
5836.36580 1.62878e-17
5837.71920 1.62707e-17
5839.07260 1.62303e-17
5840.43610 1.61955e-17
5841.78950 1.62618e-17
5843.15300 1.67951e-17
5844.50640 1.67123e-17
5845.85980 1.66374e-17
5847.22330 1.69801e-17
5848.57670 1.71902e-17
5849.94020 1.74502e-17
5851.29360 1.70791e-17
5852.64700 1.70576e-17
5854.01050 1.71732e-17
5855.36390 1.69302e-17
5856.72740 1.73777e-17
5858.08080 1.73664e-17
5859.43420 1.74550e-17
5860.79770 1.76305e-17
5862.15110 1.78023e-17
5863.51460 1.78948e-17
5864.86800 1.77974e-17
5866.22140 1.73658e-17
5867.58490 1.74268e-17
5868.93830 1.77069e-17
5870.30180 1.76377e-17
5871.65520 1.76932e-17
5873.01870 1.79197e-17
5874.37210 1.78269e-17
5875.72550 1.77749e-17
5877.08900 1.78329e-17
5878.44240 1.78970e-17
5879.80590 1.83334e-17
5881.15930 1.82056e-17
5882.51270 1.81989e-17
5883.87620 1.79797e-17
5885.22960 1.77599e-17
5886.59310 1.80175e-17
5887.94650 1.74718e-17
5889.29990 1.70851e-17
5890.66340 1.73453e-17
5892.01680 1.74646e-17
5893.38030 1.79416e-17
5894.73370 1.80261e-17
5896.08710 1.76404e-17
5897.45060 1.78238e-17
5898.80400 1.78505e-17
5900.16750 1.83812e-17
5901.52090 1.84864e-17
5902.87430 1.83350e-17
5904.23780 1.83339e-17
5905.59120 1.83329e-17
5906.95470 1.83319e-17
5908.30810 1.83309e-17
5909.66150 1.83298e-17
5911.02500 1.83288e-17
5912.37840 1.83278e-17
5913.74190 1.83268e-17
5915.09530 1.83257e-17
5916.45880 1.83247e-17
5917.81220 1.83237e-17
5919.16560 1.83227e-17
5920.52910 1.83217e-17
5921.88250 1.83207e-17
5923.24600 1.83197e-17
5924.59940 1.83186e-17
5925.95280 1.83176e-17
5927.31630 1.83166e-17
5928.66970 1.83156e-17
5930.03320 1.83146e-17
5931.38660 1.83136e-17
5932.74000 1.83126e-17
5934.10350 1.83116e-17
5935.45690 1.83106e-17
5936.82040 1.83096e-17
5938.17380 1.83086e-17
5939.53730 1.83076e-17
5940.89070 1.83066e-17
5942.24410 1.83056e-17
5943.60760 1.83046e-17
5944.96100 1.83036e-17
5946.31440 1.83027e-17
5947.67790 1.83017e-17
5949.03130 1.83007e-17
5950.39480 1.82997e-17
5951.74820 1.82987e-17
5953.11170 1.82977e-17
5954.46510 1.82967e-17
5955.81850 1.82957e-17
5957.18200 1.82948e-17
5958.53540 1.82938e-17
5959.89890 1.82928e-17
5961.25230 1.82918e-17
5962.60570 1.82909e-17
5963.96920 1.82899e-17
5965.32260 1.82889e-17
5966.68610 1.81654e-17
5968.03950 1.81334e-17
5969.39290 1.78321e-17
5970.75640 1.81394e-17
5972.10980 1.77998e-17
5973.47330 1.81890e-17
5974.82670 1.78922e-17
5976.19020 1.78228e-17
5977.54360 1.75777e-17
5978.89700 1.76173e-17
5980.26050 1.76954e-17
5981.61390 1.74061e-17
5982.96730 1.71110e-17
5984.33080 1.73975e-17
5985.68420 1.76837e-17
5987.04770 1.72650e-17
5988.40110 1.71340e-17
5989.76460 1.70956e-17
5991.11800 1.71840e-17
5992.47140 1.72077e-17
5993.83490 1.72378e-17
5995.18830 1.69628e-17
5996.55180 1.68654e-17
5997.90520 1.68809e-17
5999.25860 1.71333e-17
6000.62210 1.69943e-17
6001.97550 1.66187e-17
6003.33900 1.68234e-17
6004.69240 1.66975e-17
6006.04580 1.65854e-17
6007.40930 1.67447e-17
6008.76270 1.66914e-17
6010.12620 1.64940e-17
6011.47960 1.66916e-17
6012.83300 1.65817e-17
6014.19650 1.62387e-17
6015.54990 1.63145e-17
6016.91340 1.61873e-17
6018.26680 1.63573e-17
6019.62020 1.64189e-17
6020.98370 1.61439e-17
6022.33710 1.60459e-17
6023.70060 1.60308e-17
6025.05400 1.59554e-17
6026.41750 1.59525e-17
6027.77090 1.56887e-17
6029.12430 1.58166e-17
6030.48780 1.56949e-17
6031.84120 1.58990e-17
6033.20470 1.57993e-17
6034.55810 1.55498e-17
6035.91150 1.56479e-17
6037.27500 1.53731e-17
6038.62840 1.55331e-17
6039.99190 1.53170e-17
6041.34530 1.53107e-17
6042.69870 1.54642e-17
6044.06220 1.52443e-17
6045.41560 1.51664e-17
6046.77910 1.50471e-17
6048.13250 1.50753e-17
6049.48590 1.50126e-17
6050.84940 1.48829e-17
6052.20280 1.50579e-17
6053.56630 1.49002e-17
6054.91970 1.46311e-17
6056.27310 1.46892e-17
6057.63660 1.45955e-17
6058.99000 1.46123e-17
6060.35350 1.41347e-17
6061.70690 1.42661e-17
6063.07040 1.43475e-17
6064.42380 1.42968e-17
6065.77720 1.43561e-17
6067.14070 1.40005e-17
6068.49410 1.40798e-17
6069.85760 1.38636e-17
6071.21100 1.39776e-17
6072.56440 1.40070e-17
6073.92790 1.36159e-17
6075.28130 1.36579e-17
6076.64480 1.37066e-17
6077.99820 1.37147e-17
6079.35160 1.35789e-17
6080.71510 1.34907e-17
6082.06850 1.34964e-17
6083.43200 1.36512e-17
6084.78540 1.37353e-17
6086.13880 1.35577e-17
6087.50230 1.36401e-17
6088.85570 1.34401e-17
6090.21920 1.35250e-17
6091.57260 1.38125e-17
6092.92600 1.32029e-17
6094.28950 1.34520e-17
6095.64290 1.33138e-17
6097.00640 1.32851e-17
6098.35980 1.33149e-17
6099.72330 1.31330e-17
6101.07670 1.30424e-17
6102.43010 1.31174e-17
6103.79360 1.31825e-17
6105.14700 1.29621e-17
6106.51050 1.31539e-17
6107.86390 1.28970e-17
6109.21730 1.30535e-17
6110.58080 1.29497e-17
6111.93420 1.31701e-17
6113.29770 1.31017e-17
6114.65110 1.30591e-17
6116.00450 1.32731e-17
6117.36800 1.32061e-17
6118.72140 1.34398e-17
6120.08490 1.33046e-17
6121.43830 1.31769e-17
6122.79170 1.30714e-17
6124.15520 1.32093e-17
6125.50860 1.31662e-17
6126.87210 1.31653e-17
6128.22550 1.29418e-17
6129.58900 1.30169e-17
6130.94240 1.32001e-17
6132.29580 1.29910e-17
6133.65930 1.32274e-17
6135.01270 1.31951e-17
6136.37620 1.31667e-17
6137.72960 1.32503e-17
6139.08300 1.33849e-17
6140.44650 1.29379e-17
6141.79990 1.28576e-17
6143.16340 1.29306e-17
6144.51680 1.31592e-17
6145.87020 1.29320e-17
6147.23370 1.29724e-17
6148.58710 1.30763e-17
6149.95060 1.30488e-17
6151.30400 1.29645e-17
6152.65740 1.31376e-17
6154.02090 1.30015e-17
6155.37430 1.28117e-17
6156.73780 1.28926e-17
6158.09120 1.28751e-17
6159.44460 1.28495e-17
6160.80810 1.27914e-17
6162.16150 1.30599e-17
6163.52500 1.27208e-17
6164.87840 1.29195e-17
6166.24190 1.28097e-17
6167.59530 1.26472e-17
6168.94870 1.26118e-17
6170.31220 1.26758e-17
6171.66560 1.28320e-17
6173.01900 1.26865e-17
6174.38250 1.27265e-17
6175.73590 1.27556e-17
6177.09940 1.27351e-17
6178.45280 1.26792e-17
6179.81630 1.27482e-17
6181.16970 1.27611e-17
6182.52310 1.29760e-17
6183.88660 1.29422e-17
6185.24000 1.29033e-17
6186.60350 1.26959e-17
6187.95690 1.25724e-17
6189.31030 1.27783e-17
6190.67380 1.27249e-17
6192.02720 1.27325e-17
6193.39070 1.26636e-17
6194.74410 1.26457e-17
6196.09750 1.26721e-17
6197.46100 1.26558e-17
6198.81440 1.27235e-17
6200.17790 1.29861e-17
6201.53130 1.28666e-17
6202.89480 1.26532e-17
6204.24820 1.26164e-17
6205.60160 1.26453e-17
6206.96510 1.25306e-17
6208.31850 1.26509e-17
6209.67190 1.27086e-17
6211.03540 1.27090e-17
6212.38880 1.26825e-17
6213.75230 1.24741e-17
6215.10570 1.23720e-17
6216.46920 1.24722e-17
6217.82260 1.24634e-17
6219.17600 1.27396e-17
6220.53950 1.27530e-17
6221.89290 1.25957e-17
6223.25640 1.26453e-17
6224.60980 1.27082e-17
6225.96320 1.25043e-17
6227.32670 1.23983e-17
6228.68010 1.26169e-17
6230.04360 1.25155e-17
6231.39700 1.24892e-17
6232.75040 1.25962e-17
6234.11390 1.26862e-17
6235.46730 1.24803e-17
6236.83080 1.24953e-17
6238.18420 1.24606e-17
6239.53760 1.24720e-17
6240.90110 1.25540e-17
6242.25450 1.25567e-17
6243.61800 1.26463e-17
6244.97140 1.27505e-17
6246.32480 1.26308e-17
6247.68830 1.24843e-17
6249.04170 1.24175e-17
6250.40520 1.24391e-17
6251.75860 1.26231e-17
6253.12210 1.26391e-17
6254.47550 1.25192e-17
6255.82890 1.28052e-17
6257.19240 1.27795e-17
6258.54580 1.26253e-17
6259.90930 1.26682e-17
6261.26270 1.27214e-17
6262.61610 1.27270e-17
6263.97960 1.26531e-17
6265.33300 1.28640e-17
6266.69650 1.25797e-17
6268.04990 1.25385e-17
6269.40330 1.26965e-17
6270.76680 1.29808e-17
6272.12020 1.30611e-17
6273.48370 1.29317e-17
6274.83710 1.28069e-17
6276.19050 1.26524e-17
6277.55400 1.24127e-17
6278.90740 1.23659e-17
6280.27090 1.24530e-17
6281.62430 1.24688e-17
6282.98780 1.27501e-17
6284.34120 1.29037e-17
6285.69460 1.29303e-17
6287.05810 1.31263e-17
6288.41150 1.31117e-17
6289.77500 1.30751e-17
6291.12840 1.31850e-17
6292.48180 1.32415e-17
6293.84530 1.31668e-17
6295.19870 1.32922e-17
6296.56220 1.30941e-17
6297.91560 1.34173e-17
6299.26900 1.34320e-17
6300.63250 1.32627e-17
6301.98590 1.33945e-17
6303.34940 1.35222e-17
6304.70280 1.38961e-17
6306.05620 1.34857e-17
6307.41970 1.35485e-17
6308.77310 1.36336e-17
6310.13660 1.34950e-17
6311.49000 1.37917e-17
6312.84340 1.37423e-17
6314.20690 1.38000e-17
6315.56030 1.38632e-17
6316.92380 1.39359e-17
6318.27720 1.40727e-17
6319.63060 1.43023e-17
6320.99410 1.42281e-17
6322.34750 1.42566e-17
6323.71100 1.42764e-17
6325.06440 1.41352e-17
6326.42790 1.43384e-17
6327.78130 1.41675e-17
6329.13470 1.42272e-17
6330.49820 1.42662e-17
6331.85160 1.45018e-17
6333.21510 1.43048e-17
6334.56850 1.43852e-17
6335.92190 1.44702e-17
6337.28540 1.46478e-17
6338.63880 1.46158e-17
6340.00230 1.44871e-17
6341.35570 1.44820e-17
6342.70910 1.46544e-17
6344.07260 1.44308e-17
6345.42600 1.42551e-17
6346.78950 1.41954e-17
6348.14290 1.39357e-17
6349.49630 1.37430e-17
6350.85980 1.39539e-17
6352.21320 1.43995e-17
6353.57670 1.44391e-17
6354.93010 1.48482e-17
6356.28350 1.48397e-17
6357.64700 1.46006e-17
6359.00040 1.48390e-17
6360.36390 1.53781e-17
6361.71730 1.56349e-17
6363.08080 1.57997e-17
6364.43420 1.56729e-17
6365.78760 1.62715e-17
6367.15110 1.62657e-17
6368.50450 1.61399e-17
6369.86800 1.57587e-17
6371.22140 1.55915e-17
6372.57480 1.55379e-17
6373.93830 1.52593e-17
6375.29170 1.55251e-17
6376.65520 1.55270e-17
6378.00860 1.58327e-17
6379.36200 1.57015e-17
6380.72550 1.59091e-17
6382.07890 1.56200e-17
6383.44240 1.58004e-17
6384.79580 1.49808e-17
6386.14920 1.61753e-17
6387.51270 1.56686e-17
6388.86610 1.59844e-17
6390.22960 1.57674e-17
6391.58300 1.61840e-17
6392.94650 1.57245e-17
6394.29990 1.57758e-17
6395.65330 1.52987e-17
6397.01680 1.60987e-17
6398.37020 1.61336e-17
6399.72360 1.63081e-17
6401.08710 1.64210e-17
6402.44050 1.63088e-17
6403.80400 1.64696e-17
6405.15740 1.66220e-17
6406.52090 1.65362e-17
6407.87430 1.63893e-17
6409.22770 1.64357e-17
6410.59120 1.63572e-17
6411.94460 1.64376e-17
6413.30810 1.65868e-17
6414.66150 1.66314e-17
6416.01490 1.65180e-17
6417.37840 1.68349e-17
6418.73180 1.60902e-17
6420.09530 1.60423e-17
6421.44870 1.64288e-17
6422.80210 1.67557e-17
6424.16560 1.61434e-17
6425.51900 1.69925e-17
6426.88250 1.68495e-17
6428.23590 1.70754e-17
6429.59940 1.71765e-17
6430.95280 1.73554e-17
6432.30620 1.72882e-17
6433.66970 1.69358e-17
6435.02310 1.67392e-17
6436.38660 1.69286e-17
6437.74000 1.70489e-17
6439.09340 1.64795e-17
6440.45690 1.66813e-17
6441.81030 1.65046e-17
6443.17380 1.66891e-17
6444.52720 1.68145e-17
6445.88060 1.68392e-17
6447.24410 1.69355e-17
6448.59750 1.65885e-17
6449.96100 1.61423e-17
6451.31440 1.67244e-17
6452.66780 1.69187e-17
6454.03130 1.69086e-17
6455.38470 1.69988e-17
6456.74820 1.64649e-17
6458.10160 1.63394e-17
6459.45500 1.64883e-17
6460.81850 1.68623e-17
6462.17190 1.69332e-17
6463.53540 1.60588e-17
6464.88880 1.58190e-17
6466.25230 1.63296e-17
6467.60570 1.62132e-17
6468.95910 1.67148e-17
6470.32260 1.61534e-17
6471.67600 1.67737e-17
6473.03950 1.69912e-17
6474.39290 1.70747e-17
6475.74630 1.64534e-17
6477.10980 1.63211e-17
6478.46320 1.61140e-17
6479.82670 1.61273e-17
6481.18010 1.63368e-17
6482.53350 1.62885e-17
6483.89700 1.62737e-17
6485.25040 1.56922e-17
6486.61390 1.59257e-17
6487.96730 1.61640e-17
6489.32070 1.62615e-17
6490.68420 1.62347e-17
6492.03760 1.65129e-17
6493.40110 1.61611e-17
6494.75450 1.56685e-17
6496.10790 1.62273e-17
6497.47140 1.56652e-17
6498.82480 1.55690e-17
6500.18830 1.59972e-17
6501.54170 1.62746e-17
6502.89510 1.62709e-17
6504.25860 1.60261e-17
6505.61200 1.60486e-17
6506.97550 1.64880e-17
6508.32890 1.63350e-17
6509.69240 1.57357e-17
6511.04580 1.63592e-17
6512.39920 1.59595e-17
6513.76270 1.55587e-17
6515.11610 1.59175e-17
6516.47960 1.60103e-17
6517.83300 1.58121e-17
6519.18640 1.58859e-17
6520.54990 1.60592e-17
6521.90330 1.55056e-17
6523.26680 1.56886e-17
6524.62020 1.58692e-17
6525.97360 1.60109e-17
6527.33710 1.69034e-17
6528.69050 1.59799e-17
6530.05400 1.60972e-17
6531.40740 1.59044e-17
6532.76080 1.59858e-17
6534.12430 1.59444e-17
6535.47770 1.55663e-17
6536.84120 1.58730e-17
6538.19460 1.54938e-17
6539.54800 1.56664e-17
6540.91150 1.55287e-17
6542.26490 1.57930e-17
6543.62840 1.52460e-17
6544.98180 1.53584e-17
6546.33520 1.51105e-17
6547.69870 1.55078e-17
6549.05210 1.55768e-17
6550.41560 1.60708e-17
6551.76900 1.50858e-17
6553.13250 1.59410e-17
6554.48590 1.54917e-17
6555.83930 1.54219e-17
6557.20280 1.53343e-17
6558.55620 1.50268e-17
6559.91970 1.51172e-17
6561.27310 1.50169e-17
6562.62650 1.43553e-17
6563.99000 1.49444e-17
6565.34340 1.45177e-17
6566.70690 1.44603e-17
6568.06030 1.52489e-17
6569.41370 1.51754e-17
6570.77720 1.56422e-17
6572.13060 1.52443e-17
6573.49410 1.48399e-17
6574.84750 1.47525e-17
6576.20090 1.46951e-17
6577.56440 1.49863e-17
6578.91780 1.48933e-17
6580.28130 1.48757e-17
6581.63470 1.48670e-17
6582.98810 1.48513e-17
6584.35160 1.44126e-17
6585.70500 1.55084e-17
6587.06850 1.42411e-17
6588.42190 1.48134e-17
6589.78540 1.47694e-17
6591.13880 1.49007e-17
6592.49220 1.45457e-17
6593.85570 1.46959e-17
6595.20910 1.45837e-17
6596.57260 1.45753e-17
6597.92600 1.45669e-17
6599.27940 1.45585e-17
6600.64290 1.45502e-17
6601.99630 1.45418e-17
6603.35980 1.45334e-17
6604.71320 1.45250e-17
6606.06660 1.45166e-17
6607.43010 1.45082e-17
6608.78350 1.44999e-17
6610.14700 1.44915e-17
6611.50040 1.44831e-17
6612.85380 1.44747e-17
6614.21730 1.44663e-17
6615.57070 1.44580e-17
6616.93420 1.44496e-17
6618.28760 1.44412e-17
6619.64100 1.44328e-17
6621.00450 1.44245e-17
6622.35790 1.44161e-17
6623.72140 1.44077e-17
6625.07480 1.43993e-17
6626.43830 1.43910e-17
6627.79170 1.43826e-17
6629.14510 1.43742e-17
6630.50860 1.43659e-17
6631.86200 1.43575e-17
6633.22550 1.43438e-17
6634.57890 1.43301e-17
6635.93230 1.43164e-17
6637.29580 1.43027e-17
6638.64920 1.42891e-17
6640.01270 1.42754e-17
6641.36610 1.42617e-17
6642.71950 1.42480e-17
6644.08300 1.42343e-17
6645.43640 1.42207e-17
6646.79990 1.42070e-17
6648.15330 1.41933e-17
6649.50670 1.41796e-17
6650.87020 1.41660e-17
6652.22360 1.41523e-17
6653.58710 1.41386e-17
6654.94050 1.41250e-17
6656.30400 1.41113e-17
6657.65740 1.40976e-17
6659.01080 1.40840e-17
6660.37430 1.40703e-17
6661.72770 1.40567e-17
6663.09120 1.40430e-17
6664.44460 1.40293e-17
6665.79800 1.40157e-17
6667.16150 1.40020e-17
6668.51490 1.39884e-17
6669.87840 1.37166e-17
6671.23180 1.37782e-17
6672.58520 1.36562e-17
6673.94870 1.35963e-17
6675.30210 1.35702e-17
6676.66560 1.34821e-17
6678.01900 1.38398e-17
6679.37240 1.36895e-17
6680.73590 1.33280e-17
6682.08930 1.42988e-17
6683.45280 1.36290e-17
6684.80620 1.37457e-17
6686.15960 1.34492e-17
6687.52310 1.33174e-17
6688.87650 1.32083e-17
6690.24000 1.29579e-17
6691.59340 1.31930e-17
6692.95690 1.29017e-17
6694.31030 1.36536e-17
6695.66370 1.30618e-18
6697.02720 4.33262e-20
6698.38060 -1.48638e-26
6699.74410 -5.21469e-27
6701.09750 6.84760e-28
6702.45090 -1.05491e-27
6703.81440 3.35531e-27
6705.16780 -1.30891e-27
6706.52120 1.01732e-27
6707.88470 4.82461e-27
6709.23810 -1.44202e-23
6710.60160 -8.87482e-22
6711.95500 -1.31276e-20
6713.31850 -2.45990e-20
6714.67190 -1.86163e-20
6716.02530 1.53819e-20
6717.38880 6.51504e-20
6718.74220 9.38409e-20
6720.10570 6.42643e-20
6721.45910 -4.25876e-20
6722.81250 9.79100e-18
6724.17600 1.38230e-17
6725.52940 1.40045e-17
6726.89290 1.44682e-17
6728.24630 1.40020e-17
6729.59970 1.40719e-17
6730.96320 1.42210e-17
6732.31660 1.46008e-17
6733.68010 1.49980e-17
6735.03350 1.40105e-17
6736.39700 1.39412e-17
6737.75040 1.42966e-17
6739.10380 1.41778e-17
6740.46730 1.43026e-17
6741.82070 1.49530e-17
6743.18420 1.53067e-17
6744.53760 1.57492e-17
6745.89100 1.60030e-17
6747.25450 1.58896e-17
6748.60790 1.56199e-17
6749.97140 1.58129e-17
6751.32480 1.58099e-17
6752.67820 1.48093e-17
6754.04170 1.45188e-17
6755.39510 1.47337e-17
6756.75860 1.46599e-17
6758.11200 1.44323e-17
6759.46540 1.44805e-17
6760.82890 1.46361e-17
6762.18230 1.42898e-17
6763.54580 1.45213e-17
6764.89920 1.49733e-17
6766.25260 1.51207e-17
6767.61610 1.52681e-17
6768.96950 1.54154e-17
6770.33300 1.55628e-17
6771.68640 1.57101e-17
6773.04990 1.58574e-17
6774.40330 1.60047e-17
6775.75670 1.61520e-17
6777.12020 1.62993e-17
6778.47360 1.64465e-17
6779.83710 1.65938e-17
6781.19050 1.65035e-17
6782.54390 1.64132e-17
6783.90740 1.63229e-17
6785.26080 1.62326e-17
6786.62430 1.61423e-17
6787.97770 1.60520e-17
6789.33110 1.59617e-17
6790.69460 1.58714e-17
6792.04800 1.57812e-17
6793.41150 1.56909e-17
6794.76490 1.56007e-17
6796.11830 1.55105e-17
6797.48180 1.54203e-17
6798.83520 1.53300e-17
6800.19870 1.52399e-17
6801.55210 1.51497e-17
6802.90550 1.50595e-17
6804.26900 1.49693e-17
6805.62240 1.48792e-17
6806.98590 1.47890e-17
6808.33930 1.46989e-17
6809.69270 1.46087e-17
6811.05620 1.45186e-17
6812.40960 1.44285e-17
6813.77310 1.43384e-17
6815.12650 1.42483e-17
6816.49000 1.41582e-17
6817.84340 1.44666e-17
6819.19680 1.45644e-17
6820.56030 1.45670e-17
6821.91370 1.46757e-17
6823.27720 1.46547e-17
6824.63060 1.42835e-17
6825.98400 1.44127e-17
6827.34750 1.40899e-17
6828.70090 1.44388e-17
6830.06440 1.46157e-17
6831.41780 1.40332e-17
6832.77120 1.42716e-17
6834.13470 1.44129e-17
6835.48810 1.43805e-17
6836.85160 1.44142e-17
6838.20500 1.41442e-17
6839.55840 1.40849e-17
6840.92190 1.41939e-17
6842.27530 1.40769e-17
6843.63880 1.43608e-17
6844.99220 1.44618e-17
6846.34560 1.44642e-17
6847.70910 1.44666e-17
6849.06250 1.44689e-17
6850.42600 1.44713e-17
6851.77940 1.44737e-17
6853.14290 1.44761e-17
6854.49630 1.44785e-17
6855.84970 1.44809e-17
6857.21320 1.44833e-17
6858.56660 1.44857e-17
6859.93010 1.44881e-17
6861.28350 1.44904e-17
6862.63690 1.44928e-17
6864.00040 1.44952e-17
6865.35380 1.44976e-17
6866.71730 1.45000e-17
6868.07070 1.45024e-17
6869.42410 1.45048e-17
6870.78760 1.45071e-17
6872.14100 1.45095e-17
6873.50450 1.45119e-17
6874.85790 1.45143e-17
6876.21130 1.45167e-17
6877.57480 1.45191e-17
6878.92820 1.45215e-17
6880.29170 1.45238e-17
6881.64510 1.45262e-17
6882.99850 1.45286e-17
6884.36200 1.45310e-17
6885.71540 1.45334e-17
6887.07890 1.45357e-17
6888.43230 1.45381e-17
6889.79580 1.45405e-17
6891.14920 1.45429e-17
6892.50260 1.45453e-17
6893.86610 1.45476e-17
6895.21950 1.45500e-17
6896.58300 1.45524e-17
6897.93640 1.45548e-17
6899.28980 1.45572e-17
6900.65330 1.45595e-17
6902.00670 1.45619e-17
6903.37020 1.45643e-17
6904.72360 1.45667e-17
6906.07700 1.45690e-17
6907.44050 1.45714e-17
6908.79390 1.45738e-17
6910.15740 1.45762e-17
6911.51080 1.45785e-17
6912.86420 1.45809e-17
6914.22770 1.45833e-17
6915.58110 1.45857e-17
6916.94460 1.45880e-17
6918.29800 1.45904e-17
6919.66150 1.45928e-17
6921.01490 1.45951e-17
6922.36830 1.45975e-17
6923.73180 1.45999e-17
6925.08520 1.46023e-17
6926.44870 1.46046e-17
6927.80210 1.46070e-17
6929.15550 1.46094e-17
6930.51900 1.46117e-17
6931.87240 1.46141e-17
6933.22580 1.46165e-17
6934.58930 1.46188e-17
6935.94270 1.46212e-17
6937.30620 1.44096e-17
6938.65960 1.46587e-17
6940.02310 1.44943e-17
6941.37650 1.45977e-17
6942.72990 1.45810e-17
6944.09340 1.47310e-17
6945.44680 1.51339e-17
6946.81030 1.50295e-17
6948.16370 1.50031e-17
6949.51710 1.48947e-17
6950.88060 1.50546e-17
6952.23400 1.50808e-17
6953.59750 1.51820e-17
6954.95090 1.52476e-17
6956.30430 1.53032e-17
6957.66780 1.54605e-17
6959.02120 1.54706e-17
6960.38470 1.55096e-17
6961.73810 1.56101e-17
6963.10160 1.54789e-17
6964.45500 1.55184e-17
6965.80840 1.56588e-17
6967.17190 1.57427e-17
6968.52530 1.58135e-17
6969.88880 1.56610e-17
6971.24220 1.55838e-17
6972.59560 1.56408e-17
6973.95910 1.57753e-17
6975.31250 1.56000e-17
6976.67600 1.54219e-17
6978.02940 1.54119e-17
6979.38280 1.55955e-17
6980.74630 1.55907e-17
6982.09970 1.54945e-17
6983.46320 1.56559e-17
6984.81660 1.53735e-17
6986.17000 1.51745e-17
6987.53350 1.52224e-17
6988.88690 1.52617e-17
6990.25040 1.52051e-17
6991.60380 1.52586e-17
6992.95720 1.52656e-17
6994.32070 1.52629e-17
6995.67410 1.52462e-17
6997.03760 1.55349e-17
6998.39100 1.54546e-17
6999.75450 1.55645e-17
7001.10790 1.56109e-17
7002.46130 1.53732e-17
7003.82480 1.54594e-17
7005.17820 1.52127e-17
7006.54170 1.52173e-17
7007.89510 1.51642e-17
7009.24850 1.51630e-17
7010.61200 1.56232e-17
7011.96540 1.54432e-17
7013.32890 1.53037e-17
7014.68230 1.53143e-17
7016.03570 1.52670e-17
7017.39920 1.52075e-17
7018.75260 1.55300e-17
7020.11610 1.53958e-17
7021.46950 1.53545e-17
7022.82290 1.51545e-17
7024.18640 1.49341e-17
7025.53980 1.49191e-17
7026.90330 1.48544e-17
7028.25670 1.48636e-17
7029.61010 1.50314e-17
7030.97360 1.51001e-17
7032.32700 1.50715e-17
7033.69050 1.47479e-17
7035.04390 1.49856e-17
7036.39730 1.47924e-17
7037.76080 1.49950e-17
7039.11420 1.49945e-17
7040.47770 1.50742e-17
7041.83110 1.51306e-17
7043.19460 1.50208e-17
7044.54800 1.51481e-17
7045.90140 1.52474e-17
7047.26490 1.51005e-17
7048.61830 1.50722e-17
7049.98180 1.51445e-17
7051.33520 1.52678e-17
7052.68860 1.51205e-17
7054.05210 1.50515e-17
7055.40550 1.52248e-17
7056.76900 1.51938e-17
7058.12240 1.51718e-17
7059.47580 1.51840e-17
7060.83930 1.50882e-17
7062.19270 1.49734e-17
7063.55620 1.48426e-17
7064.90960 1.49029e-17
7066.26300 1.49486e-17
7067.62650 1.50613e-17
7068.97990 1.51237e-17
7070.34340 1.50996e-17
7071.69680 1.51840e-17
7073.05020 1.52216e-17
7074.41370 1.52569e-17
7075.76710 1.51846e-17
7077.13060 1.51525e-17
7078.48400 1.52025e-17
7079.84750 1.51732e-17
7081.20090 1.55204e-17
7082.55430 1.58586e-17
7083.91780 1.57842e-17
7085.27120 1.56665e-17
7086.63470 1.56299e-17
7087.98810 1.55108e-17
7089.34150 1.54647e-17
7090.70500 1.56267e-17
7092.05840 1.57429e-17
7093.42190 1.58270e-17
7094.77530 1.60080e-17
7096.12870 1.61624e-17
7097.49220 1.61099e-17
7098.84560 1.62686e-17
7100.20910 1.62602e-17
7101.56250 1.60423e-17
7102.91590 1.58585e-17
7104.27940 1.62059e-17
7105.63280 1.59585e-17
7106.99630 1.62086e-17
7108.34970 1.61681e-17
7109.70310 1.60338e-17
7111.06660 1.59226e-17
7112.42000 1.62450e-17
7113.78350 1.62706e-17
7115.13690 1.64469e-17
7116.50040 1.65492e-17
7117.85380 1.64872e-17
7119.20720 1.63167e-17
7120.57070 1.61280e-17
7121.92410 1.61657e-17
7123.28760 1.60307e-17
7124.64100 1.60827e-17
7125.99440 1.62525e-17
7127.35790 1.59111e-17
7128.71130 1.59011e-17
7130.07480 1.62925e-17
7131.42820 1.62677e-17
7132.78160 1.62718e-17
7134.14510 1.65929e-17
7135.49850 1.65856e-17
7136.86200 1.66128e-17
7138.21540 1.67153e-17
7139.56880 1.65058e-17
7140.93230 1.60120e-17
7142.28570 1.57807e-17
7143.64920 1.58014e-17
7145.00260 1.55687e-17
7146.35600 1.55888e-17
7147.71950 1.57854e-17
7149.07290 1.57147e-17
7150.43640 1.59329e-17
7151.78980 1.60536e-17
7153.15330 1.60870e-17
7154.50670 1.61531e-17
7155.86010 1.62052e-17
7157.22360 1.60397e-17
7158.57700 1.57265e-17
7159.94050 1.57387e-17
7161.29390 1.57467e-17
7162.64730 1.55756e-17
7164.01080 1.54575e-17
7165.36420 1.54610e-17
7166.72770 1.55242e-17
7168.08110 1.53428e-17
7169.43450 1.53781e-17
7170.79800 1.53863e-17
7172.15140 1.53940e-17
7173.51490 1.54418e-17
7174.86830 1.52300e-17
7176.22170 1.49322e-17
7177.58520 1.45722e-17
7178.93860 1.48421e-17
7180.30210 1.50517e-17
7181.65550 1.47543e-17
7183.01900 1.44968e-17
7184.37240 1.43553e-17
7185.72580 1.42188e-17
7187.08930 1.41835e-17
7188.44270 1.43660e-17
7189.80620 1.48087e-17
7191.15960 1.48127e-17
7192.51300 1.47420e-17
7193.87650 1.47793e-17
7195.22990 1.48880e-17
7196.59340 1.52839e-17
7197.94680 1.52815e-17
7199.30020 1.51345e-17
7200.66370 1.48218e-17
7202.01710 1.45241e-17
7203.38060 1.46278e-17
7204.73400 1.47831e-17
7206.08740 1.47122e-17
7207.45090 1.52043e-17
7208.80430 1.57475e-17
7210.16780 1.54235e-17
7211.52120 1.64343e-17
7212.87460 1.61256e-17
7214.23810 1.61125e-17
7215.59150 1.56913e-17
7216.95500 1.56921e-17
7218.30840 1.58009e-17
7219.66180 1.58050e-17
7221.02530 1.57768e-17
7222.37870 1.57319e-17
7223.74220 1.55834e-17
7225.09560 1.54728e-17
7226.45910 1.55938e-17
7227.81250 1.56385e-17
7229.16590 1.57122e-17
7230.52940 1.56109e-17
7231.88280 1.52211e-17
7233.24630 1.45247e-17
7234.59970 1.44913e-17
7235.95310 1.44598e-17
7237.31660 1.44150e-17
7238.67000 1.45578e-17
7240.03350 1.44061e-17
7241.38690 1.41692e-17
7242.74030 1.42787e-17
7244.10380 1.42581e-17
7245.45720 1.45292e-17
7246.82070 1.48279e-17
7248.17410 1.49293e-17
7249.52750 1.48820e-17
7250.89100 1.45104e-17
7252.24440 1.41629e-17
7253.60790 1.39469e-17
7254.96130 1.41934e-17
7256.31470 1.44235e-17
7257.67820 1.46751e-17
7259.03160 1.47388e-17
7260.39510 1.47344e-17
7261.74850 1.47567e-17
7263.10190 1.48061e-17
7264.46540 1.46224e-17
7265.81880 1.43212e-17
7267.18230 1.43032e-17
7268.53570 1.47135e-17
7269.89920 1.49842e-17
7271.25260 1.49110e-17
7272.60600 1.43632e-17
7273.96950 1.42678e-17
7275.32290 1.41587e-17
7276.68640 1.36618e-17
7278.03980 1.35652e-17
7279.39320 1.40351e-17
7280.75670 1.41643e-17
7282.11010 1.38857e-17
7283.47360 1.40711e-17
7284.82700 1.39614e-17
7286.18040 1.38156e-17
7287.54390 1.40450e-17
7288.89730 1.38267e-17
7290.26080 1.39298e-17
7291.61420 1.39865e-17
7292.96760 1.39403e-17
7294.33110 1.39754e-17
7295.68450 1.38072e-17
7297.04800 1.37645e-17
7298.40140 1.36878e-17
7299.75480 1.37967e-17
7301.11830 1.36624e-17
7302.47170 1.34857e-17
7303.83520 1.34926e-17
7305.18860 1.37460e-17
7306.55210 1.39575e-17
7307.90550 1.38297e-17
7309.25890 1.41644e-17
7310.62240 1.39360e-17
7311.97580 1.39921e-17
7313.33930 1.37257e-17
7314.69270 1.41788e-17
7316.04610 1.41551e-17
7317.40960 1.41809e-17
7318.76300 1.38643e-17
7320.12650 1.35327e-17
7321.47990 1.40643e-17
7322.83330 1.38377e-17
7324.19680 1.39826e-17
7325.55020 1.38342e-17
7326.91370 1.39716e-17
7328.26710 1.39259e-17
7329.62050 1.38087e-17
7330.98400 1.37713e-17
7332.33740 1.37408e-17
7333.70090 1.41008e-17
7335.05430 1.39533e-17
7336.40770 1.38748e-17
7337.77120 1.39249e-17
7339.12460 1.40243e-17
7340.48810 1.40754e-17
7341.84150 1.41228e-17
7343.20500 1.39087e-17
7344.55840 1.37974e-17
7345.91180 1.37260e-17
7347.27530 1.36662e-17
7348.62870 1.36026e-17
7349.99220 1.36213e-17
7351.34560 1.36362e-17
7352.69900 1.39292e-17
7354.06250 1.39288e-17
7355.41590 1.40512e-17
7356.77940 1.39517e-17
7358.13280 1.41627e-17
7359.48620 1.40739e-17
7360.84970 1.41999e-17
7362.20310 1.39752e-17
7363.56660 1.39174e-17
7364.92000 1.36384e-17
7366.27340 1.41091e-17
7367.63690 1.40407e-17
7368.99030 1.40611e-17
7370.35380 1.40069e-17
7371.70720 1.41738e-17
7373.06060 1.42730e-17
7374.42410 1.38901e-17
7375.77750 1.40149e-17
7377.14100 1.35091e-17
7378.49440 1.35023e-17
7379.85790 1.34176e-17
7381.21130 1.33318e-17
7382.56470 1.34088e-17
7383.92820 1.34383e-17
7385.28160 1.32253e-17
7386.64510 1.32617e-17
7387.99850 1.33115e-17
7389.35190 1.32034e-17
7390.71540 1.34879e-17
7392.06880 1.36273e-17
7393.43230 1.37869e-17
7394.78570 1.38392e-17
7396.13910 1.38022e-17
7397.50260 1.40292e-17
7398.85600 1.39081e-17
7400.21950 1.39874e-17
7401.57290 1.36767e-17
7402.92630 1.35308e-17
7404.28980 1.35105e-17
7405.64320 1.33837e-17
7407.00670 1.34797e-17
7408.36010 1.32118e-17
7409.71350 1.31724e-17
7411.07700 1.29879e-17
7412.43040 1.28775e-17
7413.79390 1.28700e-17
7415.14730 1.28053e-17
7416.51080 1.27852e-17
7417.86420 1.30397e-17
7419.21760 1.32400e-17
7420.58110 1.31292e-17
7421.93450 1.32156e-17
7423.29800 1.28651e-17
7424.65140 1.30582e-17
7426.00480 1.29828e-17
7427.36830 1.26716e-17
7428.72170 1.24908e-17
7430.08520 1.24352e-17
7431.43860 1.23824e-17
7432.79200 1.21332e-17
7434.15550 1.24342e-17
7435.50890 1.25106e-17
7436.87240 1.24383e-17
7438.22580 1.23168e-17
7439.57920 1.24227e-17
7440.94270 1.20770e-17
7442.29610 1.22398e-17
7443.65960 1.21382e-17
7445.01300 1.22341e-17
7446.36640 1.23072e-17
7447.72990 1.26451e-17
7449.08330 1.28512e-17
7450.44680 1.29827e-17
7451.80020 1.28731e-17
7453.16370 1.29576e-17
7454.51710 1.28111e-17
7455.87050 1.27759e-17
7457.23400 1.27940e-17
7458.58740 1.27253e-17
7459.95090 1.26188e-17
7461.30430 1.25822e-17
7462.65770 1.26821e-17
7464.02120 1.26826e-17
7465.37460 1.25943e-17
7466.73810 1.22639e-17
7468.09150 1.21772e-17
7469.44490 1.23672e-17
7470.80840 1.21601e-17
7472.16180 1.19597e-17
7473.52530 1.19294e-17
7474.87870 1.19143e-17
7476.23210 1.16760e-17
7477.59560 1.15308e-17
7478.94900 1.17750e-17
7480.31250 1.16141e-17
7481.66590 1.19878e-17
7483.01930 1.16831e-17
7484.38280 1.16966e-17
7485.73620 1.15011e-17
7487.09970 1.15431e-17
7488.45310 1.18703e-17
7489.81660 1.17664e-17
7491.17000 1.19910e-17
7492.52340 1.20679e-17
7493.88690 1.20943e-17
7495.24030 1.21756e-17
7496.60380 1.19335e-17
7497.95720 1.21119e-17
7499.31060 1.21245e-17
7500.67410 1.20696e-17
7502.02750 1.20353e-17
7503.39100 1.18744e-17
7504.74440 1.18135e-17
7506.09780 1.19531e-17
7507.46130 1.21017e-17
7508.81470 1.20868e-17
7510.17820 1.21623e-17
7511.53160 1.17889e-17
7512.88500 1.19198e-17
7514.24850 1.18646e-17
7515.60190 1.19784e-17
7516.96540 1.20713e-17
7518.31880 1.18296e-17
7519.67220 1.15685e-17
7521.03570 1.14849e-17
7522.38910 1.16383e-17
7523.75260 1.16740e-17
7525.10600 1.12684e-17
7526.45940 1.15516e-17
7527.82290 1.13750e-17
7529.17630 1.16827e-17
7530.53980 1.18284e-17
7531.89320 1.18460e-17
7533.25670 1.20777e-17
7534.61010 1.18158e-17
7535.96350 1.15847e-17
7537.32700 1.16060e-17
7538.68040 1.17480e-17
7540.04390 1.19051e-17
7541.39730 1.19115e-17
7542.75070 1.18015e-17
7544.11420 1.17567e-17
7545.46760 1.18719e-17
7546.83110 1.19212e-17
7548.18450 1.19905e-17
7549.53790 1.20176e-17
7550.90140 1.20265e-17
7552.25480 1.20354e-17
7553.61830 1.20443e-17
7554.97170 1.20531e-17
7556.32510 1.20620e-17
7557.68860 1.20709e-17
7559.04200 1.20798e-17
7560.40550 1.20887e-17
7561.75890 1.20976e-17
7563.11230 1.21065e-17
7564.47580 1.21153e-17
7565.82920 1.21242e-17
7567.19270 1.21331e-17
7568.54610 1.21420e-17
7569.90960 1.21508e-17
7571.26300 1.21597e-17
7572.61640 1.21686e-17
7573.97990 1.21775e-17
7575.33330 1.21863e-17
7576.69680 1.21952e-17
7578.05020 1.22041e-17
7579.40360 1.22129e-17
7580.76710 1.22218e-17
7582.12050 1.22307e-17
7583.48400 1.22395e-17
7584.83740 1.22484e-17
7586.19080 1.22573e-17
7587.55430 1.22661e-17
7588.90770 1.22750e-17
7590.27120 1.22838e-17
7591.62460 1.22927e-17
7592.97800 1.23016e-17
7594.34150 1.23104e-17
7595.69490 1.23193e-17
7597.05840 1.23281e-17
7598.41180 1.23370e-17
7599.76520 1.23458e-17
7601.12870 1.23547e-17
7602.48210 1.23635e-17
7603.84560 1.23724e-17
7605.19900 1.23812e-17
7606.56250 1.23901e-17
7607.91590 1.23989e-17
7609.26930 1.24077e-17
7610.63280 1.24166e-17
7611.98620 1.24254e-17
7613.34970 1.24343e-17
7614.70310 1.24431e-17
7616.05650 1.24519e-17
7617.42000 1.24608e-17
7618.77340 1.24696e-17
7620.13690 1.24784e-17
7621.49030 1.24873e-17
7622.84370 1.24961e-17
7624.20720 1.25049e-17
7625.56060 1.25138e-17
7626.92410 1.25226e-17
7628.27750 1.25314e-17
7629.63090 1.25402e-17
7630.99440 1.25491e-17
7632.34780 1.25579e-17
7633.71130 1.25667e-17
7635.06470 1.25755e-17
7636.41810 1.25843e-17
7637.78160 1.25932e-17
7639.13500 1.26020e-17
7640.49850 1.26108e-17
7641.85190 1.26196e-17
7643.21540 1.26284e-17
7644.56880 1.26372e-17
7645.92220 1.26460e-17
7647.28570 1.26549e-17
7648.63910 1.26637e-17
7650.00260 1.26725e-17
7651.35600 1.26813e-17
7652.70940 1.26901e-17
7654.07290 1.26989e-17
7655.42630 1.27077e-17
7656.78980 1.27165e-17
7658.14320 1.27253e-17
7659.49660 1.27341e-17
7660.86010 1.27429e-17
7662.21350 1.27517e-17
7663.57700 1.27605e-17
7664.93040 1.27693e-17
7666.28380 1.27781e-17
7667.64730 1.27869e-17
7669.00070 1.27957e-17
7670.36420 1.28045e-17
7671.71760 1.28132e-17
7673.07100 1.28220e-17
7674.43450 1.28308e-17
7675.78790 1.28396e-17
7677.15140 1.28484e-17
7678.50480 1.28572e-17
7679.86830 1.28660e-17
7681.22170 1.28747e-17
7682.57510 1.29145e-17
7683.93860 1.29947e-17
7685.29200 1.32397e-17
7686.65550 1.32603e-17
7688.00890 1.32434e-17
7689.36230 1.32741e-17
7690.72580 1.32678e-17
7692.07920 1.35993e-17
7693.44270 1.39152e-17
7694.79610 1.37125e-17
7696.14950 1.33721e-17
7697.51300 1.35938e-17
7698.86640 1.39347e-17
7700.22990 1.40047e-17
7701.58330 1.38209e-17
7702.93670 1.34470e-17
7704.30020 1.35468e-17
7705.65360 1.37915e-17
7707.01710 1.39343e-17
7708.37050 1.37476e-17
7709.72390 1.38235e-17
7711.08740 1.38067e-17
7712.44080 1.37117e-17
7713.80430 1.35570e-17
7715.15770 1.30209e-17
7716.52120 1.28035e-17
7717.87460 1.26833e-17
7719.22800 1.27454e-17
7720.59150 1.25582e-17
7721.94490 1.24347e-17
7723.30840 1.26629e-17
7724.66180 1.28467e-17
7726.01520 1.25624e-17
7727.37870 1.24420e-17
7728.73210 1.24016e-17
7730.09560 1.23195e-17
7731.44900 1.25524e-17
7732.80240 1.25891e-17
7734.16590 1.24736e-17
7735.51930 1.23824e-17
7736.88280 1.24867e-17
7738.23620 1.25477e-17
7739.58960 1.25319e-17
7740.95310 1.26602e-17
7742.30650 1.27953e-17
7743.67000 1.29048e-17
7745.02340 1.30095e-17
7746.37680 1.29193e-17
7747.74030 1.28646e-17
7749.09370 1.28529e-17
7750.45720 1.28780e-17
7751.81060 1.28474e-17
7753.16400 1.28297e-17
7754.52750 1.27142e-17
7755.88090 1.21856e-17
7757.24440 1.19846e-17
7758.59780 1.18643e-17
7759.96130 1.19792e-17
7761.31470 1.18107e-17
7762.66810 1.16764e-17
7764.03160 1.18673e-17
7765.38500 1.13595e-17
7766.74850 1.14722e-17
7768.10190 1.18537e-17
7769.45530 1.21705e-17
7770.81880 1.24292e-17
7772.17220 1.25588e-17
7773.53570 1.25194e-17
7774.88910 1.19134e-17
7776.24250 1.15267e-17
7777.60600 1.12084e-17
7778.95940 1.11550e-17
7780.32290 1.13226e-17
7781.67630 1.12453e-17
7783.02970 1.10556e-17
7784.39320 1.10896e-17
7785.74660 1.12349e-17
7787.11010 1.12751e-17
7788.46350 1.10824e-17
7789.81690 1.14657e-17
7791.18040 1.14479e-17
7792.53380 1.15520e-17
7793.89730 1.14590e-17
7795.25070 1.13516e-17
7796.61420 1.13581e-17
7797.96760 1.09705e-17
7799.32100 1.16902e-17
7800.68450 1.15598e-17
7802.03790 1.15280e-17
7803.40140 1.15646e-17
7804.75480 1.14080e-17
7806.10820 1.14401e-17
7807.47170 1.13626e-17
7808.82510 1.10508e-17
7810.18860 1.07397e-17
7811.54200 1.06097e-17
7812.89540 1.08458e-17
7814.25890 1.07725e-17
7815.61230 1.07231e-17
7816.97580 1.02834e-17
7818.32920 9.99439e-18
7819.68260 1.00355e-17
7821.04610 1.02789e-17
7822.39950 1.05157e-17
7823.76300 1.03225e-17
7825.11640 1.00619e-17
7826.46980 9.57901e-18
7827.83330 9.77461e-18
7829.18670 9.67154e-18
7830.55020 9.61138e-18
7831.90360 9.66854e-18
7833.26710 9.66546e-18
7834.62050 9.69792e-18
7835.97390 9.53708e-18
7837.33740 9.76147e-18
7838.69080 9.44986e-18
7840.05430 9.19512e-18
7841.40770 9.10680e-18
7842.76110 8.93274e-18
7844.12460 9.03106e-18
7845.47800 9.20317e-18
7846.84150 9.25882e-18
7848.19490 9.04263e-18
7849.54830 9.13593e-18
7850.91180 8.64649e-18
7852.26520 8.76524e-18
7853.62870 8.51626e-18
7854.98210 8.48319e-18
7856.33550 8.57516e-18
7857.69900 8.59012e-18
7859.05240 8.85123e-18
7860.41590 8.59804e-18
7861.76930 8.85513e-18
7863.12270 9.22995e-18
7864.48620 9.06373e-18
7865.83960 9.40358e-18
7867.20310 8.96057e-18
7868.55650 9.16829e-18
7869.92000 9.13867e-18
7871.27340 9.05116e-18
7872.62680 9.15490e-18
7873.99030 8.99009e-18
7875.34370 9.04075e-18
7876.70720 8.88362e-18
7878.06060 8.71582e-18
7879.41400 8.67987e-18
7880.77750 8.35852e-18
7882.13090 8.16427e-18
7883.49440 8.25033e-18
7884.84780 8.16962e-18
7886.20120 8.08535e-18
7887.56470 7.85240e-18
7888.91810 7.79495e-18
7890.28160 7.70753e-18
7891.63500 7.65578e-18
7892.98840 7.65453e-18
7894.35190 7.89162e-18
7895.70530 8.17356e-18
7897.06880 7.84923e-18
7898.42220 7.90178e-18
7899.77560 7.94875e-18
7901.13910 7.70078e-18
7902.49250 7.42779e-18
7903.85600 7.60262e-18
7905.20940 7.63899e-18
7906.57290 7.70378e-18
7907.92630 7.69176e-18
7909.27970 7.73766e-18
7910.64320 7.58113e-18
7911.99660 7.67834e-18
7913.36010 7.54007e-18
7914.71350 7.74673e-18
7916.06690 8.00283e-18
7917.43040 7.24447e-18
7918.78380 7.44375e-18
7920.14730 7.19263e-18
7921.50070 7.21379e-18
7922.85410 7.14375e-18
7924.21760 6.79478e-18
7925.57100 6.65864e-18
7926.93450 6.65587e-18
7928.28790 6.51632e-18
7929.64130 6.50029e-18
7931.00480 6.37051e-18
7932.35820 6.42912e-18
7933.72170 6.62552e-18
7935.07510 6.84043e-18
7936.42850 7.06094e-18
7937.79200 6.88521e-18
7939.14540 6.55762e-18
7940.50890 6.52151e-18
7941.86230 6.73738e-18
7943.22580 6.50589e-18
7944.57920 6.39942e-18
7945.93260 6.51272e-18
7947.29610 6.20066e-18
7948.64950 6.09247e-18
7950.01300 6.31192e-18
7951.36640 6.07074e-18
7952.71980 6.19795e-18
7954.08330 6.12208e-18
7955.43670 6.24956e-18
7956.80020 6.18778e-18
7958.15360 6.19024e-18
7959.50700 5.56160e-18
7960.87050 6.16490e-18
7962.22390 5.99739e-18
7963.58740 6.53638e-18
7964.94080 6.55045e-18
7966.29420 6.52294e-18
7967.65770 6.47975e-18
7969.01110 6.27839e-18
7970.37460 6.79777e-18
7971.72800 6.54567e-18
7973.08140 6.36221e-18
7974.44490 6.30188e-18
7975.79830 6.28449e-18
7977.16180 6.08589e-18
7978.51520 6.25464e-18
7979.86860 5.98964e-18
7981.23210 5.71192e-18
7982.58550 5.71303e-18
7983.94900 5.82653e-18
7985.30240 6.05405e-18
7986.66590 6.12554e-18
7988.01930 6.42372e-18
7989.37270 6.15631e-18
7990.73620 6.33442e-18
7992.08960 6.18343e-18
7993.45310 5.98688e-18
7994.80650 6.09392e-18
7996.15990 6.18873e-18
7997.52340 6.43229e-18
7998.87680 5.90795e-18
8000.24030 6.15470e-18
8001.59370 6.11552e-18
8002.94710 5.84697e-18
8004.31060 5.69459e-18
8005.66400 5.72300e-18
8007.02750 5.77974e-18
8008.38090 5.58894e-18
8009.73430 5.57582e-18
8011.09780 5.71731e-18
8012.45120 5.49752e-18
8013.81470 5.27995e-18
8015.16810 5.35897e-18
8016.52150 5.26039e-18
8017.88500 5.39016e-18
8019.23840 5.50217e-18
8020.60190 5.17148e-18
8021.95530 5.72169e-18
8023.31880 5.59042e-18
8024.67220 5.72034e-18
8026.02560 5.72848e-18
8027.38910 5.66355e-18
8028.74250 5.70562e-18
8030.10600 5.52328e-18
8031.45940 6.04968e-18
8032.81280 5.96724e-18
8034.17630 6.03470e-18
8035.52970 6.06572e-18
8036.89320 6.01721e-18
8038.24660 5.97472e-18
8039.60000 5.98561e-18
8040.96350 5.81960e-18
8042.31690 5.59011e-18
8043.68040 5.57345e-18
8045.03380 5.48014e-18
8046.38720 5.31479e-18
8047.75070 5.28590e-18
8049.10410 5.23406e-18
8050.46760 5.19447e-18
8051.82100 5.21808e-18
8053.17440 5.21466e-18
8054.53790 5.23292e-18
8055.89130 5.18312e-18
8057.25480 5.23972e-18
8058.60820 5.26683e-18
8059.97170 5.22802e-18
8061.32510 5.34235e-18
8062.67850 5.43583e-18
8064.04200 5.38479e-18
8065.39540 5.78989e-18
8066.75890 5.63549e-18
8068.11230 5.66427e-18
8069.46570 5.81190e-18
8070.82920 5.73853e-18
8072.18260 5.74968e-18
8073.54610 5.79637e-18
8074.89950 5.63938e-18
8076.25290 5.64877e-18
8077.61640 5.61220e-18
8078.96980 5.66883e-18
8080.33330 5.57391e-18
8081.68670 5.57210e-18
8083.04010 5.49609e-18
8084.40360 5.49792e-18
8085.75700 5.34568e-18
8087.12050 5.14506e-18
8088.47390 5.12536e-18
8089.82730 5.23679e-18
8091.19080 5.26604e-18
8092.54420 5.35224e-18
8093.90770 5.30601e-18
8095.26110 5.13159e-18
8096.62460 5.11645e-18
8097.97800 5.14225e-18
8099.33140 5.09949e-18
8100.69490 5.17621e-18
8102.04830 5.15674e-18
8103.41180 5.10962e-18
8104.76520 4.98719e-18
8106.11860 4.86520e-18
8107.48210 4.87035e-18
8108.83550 4.93032e-18
8110.19900 4.96970e-18
8111.55240 4.88572e-18
8112.90580 4.83746e-18
8114.26930 4.91747e-18
8115.62270 4.93301e-18
8116.98620 4.73773e-18
8118.33960 4.52899e-18
8119.69300 4.45923e-18
8121.05650 4.59979e-18
8122.40990 4.44647e-18
