# wavelength flux
3359.99730 9.06055e-18
3363.02730 1.09835e-17
3366.06740 9.47133e-18
3369.09740 7.81238e-18
3372.12740 9.02775e-18
3375.15740 1.01407e-17
3378.19750 8.80968e-18
3381.22750 1.06418e-17
3384.25750 9.73511e-18
3387.28750 8.83964e-18
3390.31750 9.56008e-18
3393.35760 8.38156e-18
3396.38760 9.07052e-18
3399.41760 1.05979e-17
3402.44760 1.02762e-17
3405.48770 1.01599e-17
3408.51770 8.96722e-18
3411.54770 7.61642e-18
3414.57770 9.48253e-18
3417.61780 9.45961e-18
3420.64780 9.58917e-18
3423.67780 9.52114e-18
3426.70780 8.63556e-18
3429.73780 9.18364e-18
3432.77790 9.35839e-18
3435.80790 9.60469e-18
3438.83790 9.09766e-18
3441.86790 1.02195e-17
3444.90800 1.03273e-17
3447.93800 9.58134e-18
3450.96800 9.03165e-18
3453.99800 9.91016e-18
3457.02800 1.02163e-17
3460.06810 9.46295e-18
3463.09810 1.02223e-17
3466.12810 1.01420e-17
3469.15810 9.64572e-18
3472.18810 9.21555e-18
3475.22820 9.53285e-18
3478.25820 9.89129e-18
3481.28820 9.30387e-18
3484.31820 9.15008e-18
3487.35830 1.08038e-17
3490.38830 1.02278e-17
3493.41830 8.65256e-18
3496.44830 9.19569e-18
3499.47830 1.03883e-17
3502.51840 8.58879e-18
3505.54840 8.72880e-18
3508.57840 8.58380e-18
3511.60840 9.40817e-18
3514.64850 9.24365e-18
3517.67850 9.59120e-18
3520.70850 1.03577e-17
3523.73850 9.64654e-18
3526.77860 7.98038e-18
3529.80860 9.95201e-18
3532.83860 9.65159e-18
3535.86860 1.05751e-17
3538.89860 9.74023e-18
3541.93870 1.01153e-17
3544.96870 9.92796e-18
3547.99870 8.96183e-18
3551.02870 8.47701e-18
3554.06880 9.33511e-18
3557.09880 9.98806e-18
3560.12880 1.07505e-17
3563.15880 1.07193e-17
3566.18880 9.23024e-18
3569.22890 9.85205e-18
3572.25890 1.01024e-17
3575.28890 9.41556e-18
3578.31890 9.42412e-18
3581.35900 1.01871e-17
3584.38900 9.34710e-18
3587.41900 9.80805e-18
3590.44900 1.00313e-17
3593.47900 8.72119e-18
3596.51910 9.53739e-18
3599.54910 8.85083e-18
3602.57910 9.31661e-18
3605.60910 1.04186e-17
3608.64920 9.10845e-18
3611.67920 9.98717e-18
3614.70920 1.01108e-17
3617.73920 1.06731e-17
3620.76920 9.68240e-18
3623.80930 9.18844e-18
3626.83930 1.04557e-17
3629.86930 1.05469e-17
3632.89930 8.75846e-18
3635.93940 9.21182e-18
3638.96940 9.26607e-18
3641.99940 1.07241e-17
3645.02940 1.15177e-17
3648.05940 9.77830e-18
3651.09950 1.02479e-17
3654.12950 1.07637e-17
3657.15950 1.02753e-17
3660.18950 1.06937e-17
3663.22960 9.25563e-18
3666.25960 9.96667e-18
3669.28960 1.00791e-17
3672.31960 1.06498e-17
3675.34960 1.02034e-17
3678.38970 1.10756e-17
3681.41970 1.02490e-17
3684.44970 9.39709e-18
3687.47970 8.31484e-18
3690.51980 9.68106e-18
3693.54980 9.10182e-18
3696.57980 8.70736e-18
3699.60980 8.61521e-18
3702.63980 9.16586e-18
3705.67990 7.42800e-18
3708.70990 8.27758e-18
3711.73990 8.65873e-18
3714.76990 9.74574e-18
3717.81000 9.22539e-18
3720.84000 8.43589e-18
3723.87000 9.51311e-18
3726.90000 1.00550e-17
3729.93000 9.10977e-18
3732.97010 8.75815e-18
3736.00010 9.22098e-18
3739.03010 9.19355e-18
3742.06010 9.21706e-18
3745.10020 9.16892e-18
3748.13020 9.20130e-18
3751.16020 9.23367e-18
3754.19020 9.26603e-18
3757.22020 9.29839e-18
3760.26030 9.33074e-18
3763.29030 9.36308e-18
3766.32030 9.39542e-18
3769.35030 9.42775e-18
3772.39040 9.46007e-18
3775.42040 9.49239e-18
3778.45040 9.52470e-18
3781.48040 9.55701e-18
3784.51040 9.58931e-18
3787.55050 9.42978e-18
3790.58050 9.54053e-18
3793.61050 1.03599e-17
3796.64050 9.03688e-18
3799.68060 8.54598e-18
3802.71060 8.61467e-18
3805.74060 8.63439e-18
3808.77060 9.69086e-18
3811.80060 9.83186e-18
3814.84070 9.39352e-18
3817.87070 1.05358e-17
3820.90070 1.03772e-17
3823.93070 9.53508e-18
3826.97080 9.42412e-18
3830.00080 9.18738e-18
3833.03080 9.40141e-18
3836.06080 9.94731e-18
3839.09080 9.94156e-18
3842.13090 9.45902e-18
3845.16090 9.38299e-18
3848.19090 9.56480e-18
3851.22090 9.58954e-18
3854.26100 1.01541e-17
3857.29100 1.07354e-17
3860.32100 9.94359e-18
3863.35100 9.74314e-18
3866.38100 9.34476e-18
3869.42110 9.50347e-18
3872.45110 1.08568e-17
3875.48110 1.09874e-17
3878.51110 1.03608e-17
3881.55120 9.30986e-18
3884.58120 1.00953e-17
3887.61120 9.06660e-18
3890.64120 9.81085e-18
3893.67120 1.01068e-17
3896.71130 9.06903e-18
3899.74130 1.03208e-17
3902.77130 1.01157e-17
3905.80130 9.91769e-18
3908.84140 1.04012e-17
3911.87140 1.03191e-17
3914.90140 9.23013e-18
3917.93140 9.65729e-18
3920.96140 1.01810e-17
3924.00150 1.15692e-17
3927.03150 1.39766e-17
3930.06150 1.44440e-17
3933.09150 1.15584e-17
3936.13160 9.02380e-18
3939.16160 9.60008e-18
3942.19160 9.71202e-18
3945.22160 9.55582e-18
3948.25160 9.98015e-18
3951.29170 1.05579e-17
3954.32170 9.96165e-18
3957.35170 9.42166e-18
3960.38170 9.17555e-18
3963.42180 9.43090e-18
3966.45180 8.88576e-18
3969.48180 8.63769e-18
3972.51180 9.59822e-18
3975.54180 1.02072e-17
3978.58190 9.68967e-18
3981.61190 9.68269e-18
3984.64190 9.92848e-18
3987.67190 9.95475e-18
3990.71200 1.02353e-17
3993.74200 9.96074e-18
3996.77200 1.02195e-17
3999.80200 1.00964e-17
4002.83200 9.97786e-18
4005.87210 1.17790e-17
4008.90210 1.34468e-17
4011.93210 1.40253e-17
4014.96210 1.15945e-17
4018.00220 9.91887e-18
4021.03220 9.13333e-18
4024.06220 9.36696e-18
4027.09220 9.67900e-18
4030.12220 9.45573e-18
4033.16230 9.59224e-18
4036.19230 9.43009e-18
4039.22230 8.86108e-18
4042.25230 9.54188e-18
4045.29240 9.45475e-18
4048.32240 9.28110e-18
4051.35240 9.48130e-18
4054.38240 9.57319e-18
4057.41240 9.83610e-18
4060.45250 9.27068e-18
4063.48250 9.17767e-18
4066.51250 1.00522e-17
4069.54250 8.85463e-18
4072.58260 8.89216e-18
4075.61260 9.19234e-18
4078.64260 9.37530e-18
4081.67260 9.10365e-18
4084.70260 8.97937e-18
4087.74270 9.35902e-18
4090.77270 9.70059e-18
4093.80270 9.52338e-18
4096.83270 8.95180e-18
4099.87280 9.29246e-18
4102.90280 9.25089e-18
4105.93280 9.03261e-18
4108.96280 9.18585e-18
4111.99280 9.92415e-18
4115.03290 8.99413e-18
4118.06290 9.08118e-18
4121.09290 8.97850e-18
4124.12290 8.75257e-18
4127.16300 8.90873e-18
4130.19300 8.85782e-18
4133.22300 8.86420e-18
4136.25300 9.95741e-18
4139.29310 1.27717e-17
4142.32310 1.67971e-17
4145.35310 1.67310e-17
4148.38310 1.28964e-17
4151.41310 9.81927e-18
4154.45320 9.43841e-18
4157.48320 9.40945e-18
4160.51320 8.23629e-18
4163.54320 8.45049e-18
4166.57320 8.93749e-18
4169.61330 8.71751e-18
4172.64330 8.99749e-18
4175.67330 9.18741e-18
4178.70330 9.70260e-18
4181.74340 8.81419e-18
4184.77340 8.66383e-18
4187.80340 8.13206e-18
4190.83340 8.23007e-18
4193.86340 8.77047e-18
4196.90350 9.09426e-18
4199.93350 9.12777e-18
4202.96350 8.58890e-18
4205.99350 8.90597e-18
4209.03360 9.18470e-18
4212.06360 8.46184e-18
4215.09360 8.94733e-18
4218.12360 8.64652e-18
4221.16370 9.27017e-18
4224.19370 8.94112e-18
4227.22370 8.57058e-18
4230.25370 8.12525e-18
4233.28370 8.60845e-18
4236.32380 8.49317e-18
4239.35380 8.71021e-18
4242.38380 9.05291e-18
4245.41380 9.06578e-18
4248.44380 9.19678e-18
4251.48390 8.83420e-18
4254.51390 9.21724e-18
4257.54390 8.55853e-18
4260.57390 7.78667e-18
4263.61400 8.49123e-18
4266.64400 9.06374e-18
4269.67400 8.70217e-18
4272.70400 8.89379e-18
4275.74410 8.73935e-18
4278.77410 8.50304e-18
4281.80410 8.14362e-18
4284.83410 8.47562e-18
4287.86410 8.48769e-18
4290.90420 8.91008e-18
4293.93420 8.41128e-18
4296.96420 8.47357e-18
4299.99420 8.30264e-18
4303.03430 8.73909e-18
4306.06430 8.41933e-18
4309.09430 8.34572e-18
4312.12430 8.84023e-18
4315.15430 8.69786e-18
4318.19440 8.93780e-18
4321.22440 9.52215e-18
4324.25440 9.22255e-18
4327.28440 8.49658e-18
4330.31440 8.74234e-18
4333.35450 9.13669e-18
4336.38450 9.00767e-18
4339.41450 8.92708e-18
4342.44450 8.54733e-18
4345.48460 8.75463e-18
4348.51460 8.61584e-18
4351.54460 8.97464e-18
4354.57460 9.39021e-18
4357.61470 8.95044e-18
4360.64470 9.68199e-18
4363.67470 9.20633e-18
4366.70470 8.85095e-18
4369.73470 8.89983e-18
4372.77480 8.38960e-18
4375.80480 8.80706e-18
4378.83480 8.84666e-18
4381.86480 8.88624e-18
4384.89480 8.92579e-18
4387.93490 8.96533e-18
4390.96490 9.00483e-18
4393.99490 9.04432e-18
4397.02490 9.08379e-18
4400.06500 9.12323e-18
4403.09500 9.16265e-18
4406.12500 9.20205e-18
4409.15500 9.24142e-18
4412.19510 9.28077e-18
4415.22510 9.32010e-18
4418.25510 9.35940e-18
4421.28510 9.39868e-18
4424.31510 9.43794e-18
4427.35520 9.47718e-18
4430.38520 9.51638e-18
4433.41520 9.55558e-18
4436.44520 9.59474e-18
4439.48530 9.63388e-18
4442.51530 9.60430e-18
4445.54530 9.05768e-18
4448.57530 9.84248e-18
4451.60530 1.00282e-17
4454.64540 9.11342e-18
4457.67540 9.07934e-18
4460.70540 8.96919e-18
4463.73540 9.49572e-18
4466.76540 9.21534e-18
4469.80550 9.39186e-18
4472.83550 9.32545e-18
4475.86550 9.57908e-18
4478.89550 9.25514e-18
4481.93560 9.36652e-18
4484.96560 1.05109e-17
4487.99560 1.00470e-17
4491.02560 9.31561e-18
4494.06570 1.00601e-17
4497.09570 9.79974e-18
4500.12570 9.67050e-18
4503.15570 9.76529e-18
4506.18570 9.60657e-18
4509.22580 1.00422e-17
4512.25580 1.01600e-17
4515.28580 1.00729e-17
4518.31580 1.07817e-17
4521.35590 9.59698e-18
4524.38590 1.00041e-17
4527.41590 9.60719e-18
4530.44590 9.84060e-18
4533.47590 9.42090e-18
4536.51600 9.84768e-18
4539.54600 9.83860e-18
4542.57600 9.53577e-18
4545.60600 9.13305e-18
4548.64610 9.27808e-18
4551.67610 9.45043e-18
4554.70610 9.93386e-18
4557.73610 1.01911e-17
4560.76610 9.56952e-18
4563.80620 9.57929e-18
4566.83620 9.57367e-18
4569.86620 9.18514e-18
4572.89620 9.28987e-18
4575.93630 9.27850e-18
4578.96630 9.70984e-18
4581.99630 9.68698e-18
4585.02630 9.69180e-18
4588.05630 9.13240e-18
4591.09640 9.76471e-18
4594.12640 9.17839e-18
4597.15640 9.54506e-18
4600.18640 9.74224e-18
4603.22650 9.21661e-18
4606.25650 9.04731e-18
4609.28650 9.49701e-18
4612.31650 9.39443e-18
4615.34650 8.85462e-18
4618.38660 9.21414e-18
4621.41660 9.22924e-18
4624.44660 8.89236e-18
4627.47660 9.60145e-18
4630.51670 9.24867e-18
4633.54670 8.95785e-18
4636.57670 8.76631e-18
4639.60670 9.16073e-18
4642.63670 8.89442e-18
4645.67680 8.63917e-18
4648.70680 8.88720e-18
4651.73680 9.22187e-18
4654.76680 8.79921e-18
4657.80690 8.30694e-18
4660.83690 8.94369e-18
4663.86690 8.76721e-18
4666.89690 8.30211e-18
4669.92690 8.58613e-18
4672.96700 8.82380e-18
4675.99700 8.90266e-18
4679.02700 9.09874e-18
4682.05700 8.89565e-18
4685.09710 9.17045e-18
4688.12710 9.52719e-18
4691.15710 8.66801e-18
4694.18710 8.30960e-18
4697.21710 8.52578e-18
4700.25720 8.21195e-18
4703.28720 9.17228e-18
4706.31720 9.12092e-18
4709.34720 8.75550e-18
4712.38730 8.78654e-18
4715.41730 8.60474e-18
4718.44730 8.68238e-18
4721.47730 8.72587e-18
4724.50730 8.51475e-18
4727.54740 8.51754e-18
4730.57740 8.75054e-18
4733.60740 8.54047e-18
4736.63740 8.46391e-18
4739.67750 8.35450e-18
4742.70750 8.49326e-18
4745.73750 8.63533e-18
4748.76750 9.19412e-18
4751.79750 8.84094e-18
4754.83760 9.22757e-18
4757.86760 8.97138e-18
4760.89760 9.03756e-18
4763.92760 8.98078e-18
4766.96770 8.40034e-18
4769.99770 8.15683e-18
4773.02770 8.30801e-18
4776.05770 9.12532e-18
4779.08770 9.06856e-18
4782.12780 8.64194e-18
4785.15780 8.71434e-18
4788.18780 9.09994e-18
4791.21780 8.43519e-18
4794.25790 8.41477e-18
4797.28790 8.33080e-18
4800.31790 8.24754e-18
4803.34790 8.27182e-18
4806.37790 8.05832e-18
4809.41800 8.33759e-18
4812.44800 7.72595e-18
4815.47800 8.19041e-18
4818.50800 8.13513e-18
4821.54810 7.81075e-18
4824.57810 7.97871e-18
4827.60810 8.65305e-18
4830.63810 8.77870e-18
4833.66810 8.55915e-18
4836.70820 7.80277e-18
4839.73820 7.86149e-18
4842.76820 8.00985e-18
4845.79820 8.12996e-18
4848.83830 8.18019e-18
4851.86830 8.16040e-18
4854.89830 8.29537e-18
4857.92830 7.84197e-18
4860.95830 7.97991e-18
4863.99840 8.41516e-18
4867.02840 8.48716e-18
4870.05840 8.36590e-18
4873.08840 8.40203e-18
4876.12850 8.28567e-18
4879.15850 8.29059e-18
4882.18850 8.37215e-18
4885.21850 8.70585e-18
4888.24850 8.29545e-18
4891.28860 8.20273e-18
4894.31860 8.24023e-18
4897.34860 8.27769e-18
4900.37860 8.31515e-18
4903.41870 8.35258e-18
4906.44870 8.38999e-18
4909.47870 8.42738e-18
4912.50870 8.46475e-18
4915.54880 8.50211e-18
4918.57880 8.53944e-18
4921.60880 8.57675e-18
4924.63880 8.61404e-18
4927.66880 8.65132e-18
4930.70890 8.68857e-18
4933.73890 8.85838e-18
4936.76890 8.56403e-18
4939.79890 8.40729e-18
4942.83900 8.36434e-18
4945.86900 8.11041e-18
4948.89900 8.47861e-18
4951.92900 8.50349e-18
4954.95900 8.56653e-18
4957.99910 8.40189e-18
4961.02910 8.57053e-18
4964.05910 8.27002e-18
4967.08910 8.02295e-18
4970.12920 8.05663e-18
4973.15920 8.50421e-18
4976.18920 8.91698e-18
4979.21920 8.60216e-18
4982.24920 8.40217e-18
4985.28930 8.59766e-18
4988.31930 8.33485e-18
4991.34930 8.37767e-18
4994.37930 8.42048e-18
4997.40930 8.46327e-18
5000.44940 8.50603e-18
5003.47940 8.54877e-18
5006.50940 8.59149e-18
5009.53940 8.63420e-18
5012.57950 8.67688e-18
5015.60950 8.71954e-18
5018.63950 8.76217e-18
5021.66950 8.80479e-18
5024.70960 8.84738e-18
5027.73960 8.88996e-18
5030.76960 8.76644e-18
5033.79960 9.02278e-18
5036.82960 9.72106e-18
5039.86970 9.70414e-18
5042.89970 9.68723e-18
5045.92970 9.67034e-18
5048.95970 9.65345e-18
5051.99980 9.63657e-18
5055.02980 9.61971e-18
5058.05980 9.60285e-18
5061.08980 9.58600e-18
5064.11980 9.56917e-18
5067.15990 9.55234e-18
5070.18990 9.53553e-18
5073.21990 9.51873e-18
5076.24990 9.50193e-18
5079.29000 9.57691e-18
5082.32000 9.78137e-18
5085.35000 9.28097e-18
5088.38000 9.20622e-18
5091.41000 9.88810e-18
5094.45010 9.50181e-18
5097.48010 9.98600e-18
5100.51010 9.20086e-18
5103.54010 9.97377e-18
5106.58020 1.00502e-17
5109.61020 9.92828e-18
5112.64020 9.66989e-18
5115.67020 9.74849e-18
5118.70020 9.85604e-18
5121.74030 1.01430e-17
5124.77030 9.80830e-18
5127.80030 1.01635e-17
5130.83030 1.04304e-17
5133.87040 1.05406e-17
5136.90040 9.89085e-18
5139.93040 1.04455e-17
5142.96040 1.07989e-17
5145.99040 1.08826e-17
5149.03050 1.10510e-17
5152.06050 1.09007e-17
5155.09050 1.05165e-17
5158.12050 1.07663e-17
5161.16060 1.10588e-17
5164.19060 1.10414e-17
5167.22060 1.09922e-17
5170.25060 1.09095e-17
5173.28060 1.09894e-17
5176.32070 1.09365e-17
5179.35070 1.16476e-17
5182.38070 1.07280e-17
5185.41070 1.09452e-17
5188.45080 1.09127e-17
5191.48080 1.09546e-17
5194.51080 1.12374e-17
5197.54080 1.11690e-17
5200.57080 1.15753e-17
5203.61090 1.14117e-17
5206.64090 1.15564e-17
5209.67090 1.13068e-17
5212.70090 1.13431e-17
5215.74100 1.15963e-17
5218.77100 1.10914e-17
5221.80100 1.16193e-17
5224.83100 1.21649e-17
5227.86100 1.22846e-17
5230.90110 1.21870e-17
5233.93110 1.19653e-17
5236.96110 1.21929e-17
5239.99110 1.22064e-17
5243.03120 1.22786e-17
5246.06120 1.21540e-17
5249.09120 1.18614e-17
5252.12120 1.31196e-17
5255.15120 1.30366e-17
5258.19130 1.25964e-17
5261.22130 1.25520e-17
5264.25130 1.23716e-17
5267.28130 1.28806e-17
5270.32140 1.28740e-17
5273.35140 1.31050e-17
5276.38140 1.24671e-17
5279.41140 1.24272e-17
5282.44140 1.30684e-17
5285.48150 1.31332e-17
5288.51150 1.31456e-17
5291.54150 1.32276e-17
5294.57150 1.35400e-17
5297.61160 1.35688e-17
5300.64160 1.29545e-17
5303.67160 1.29324e-17
5306.70160 1.33399e-17
5309.73160 1.37561e-17
5312.77170 1.39541e-17
5315.80170 1.38486e-17
5318.83170 1.38721e-17
5321.86170 1.42545e-17
5324.90180 1.38562e-17
5327.93180 1.40455e-17
5330.96180 1.38432e-17
5333.99180 1.38956e-17
5337.02180 1.43044e-17
5340.06190 1.47415e-17
5343.09190 1.43130e-17
5346.12190 1.43045e-17
5349.15190 1.44493e-17
5352.19200 1.44202e-17
5355.22200 1.45105e-17
5358.25200 1.41426e-17
5361.28200 1.43007e-17
5364.31200 1.51010e-17
5367.35210 1.56982e-17
5370.38210 1.55088e-17
5373.41210 1.51538e-17
5376.44210 1.46000e-17
5379.48220 1.53894e-17
5382.51220 1.54800e-17
5385.54220 1.56434e-17
5388.57220 1.52544e-17
5391.60220 1.58086e-17
5394.64230 1.57723e-17
5397.67230 1.56746e-17
5400.70230 1.55832e-17
5403.73230 1.54748e-17
5406.77240 1.56297e-17
5409.80240 1.59564e-17
5412.83240 1.58943e-17
5415.86240 1.52932e-17
5418.89240 1.53024e-17
5421.93250 1.53420e-17
5424.96250 1.54553e-17
5427.99250 1.56327e-17
5431.02250 1.62378e-17
5434.06260 1.58118e-17
5437.09260 1.58759e-17
5440.12260 1.59274e-17
5443.15260 1.60574e-17
5446.18260 1.63270e-17
5449.22270 1.59230e-17
5452.25270 1.57767e-17
5455.28270 1.63044e-17
5458.31270 1.58471e-17
5461.35280 1.62259e-17
5464.38280 1.56764e-17
5467.41280 1.60911e-17
5470.44280 1.62578e-17
5473.47280 1.57124e-17
5476.51290 1.65166e-17
5479.54290 1.63893e-17
5482.57290 1.58639e-17
5485.60290 1.63145e-17
5488.64300 1.58422e-17
5491.67300 1.59223e-17
5494.70300 1.60730e-17
5497.73300 1.65785e-17
5500.76300 1.65001e-17
5503.80310 1.59548e-17
5506.83310 1.63793e-17
5509.86310 1.59940e-17
5512.89310 1.62933e-17
5515.93320 1.62490e-17
5518.96320 1.58413e-17
5521.99320 1.57174e-17
5525.02320 1.57859e-17
5528.05320 1.56294e-17
5531.09330 1.58210e-17
5534.12330 1.60603e-17
5537.15330 1.58457e-17
5540.18330 1.61870e-17
5543.22340 1.63015e-17
5546.25340 1.56962e-17
5549.28340 1.59429e-17
5552.31340 1.55343e-17
5555.34340 1.56531e-17
5558.38350 1.52947e-17
5561.41350 1.53048e-17
5564.44350 1.54705e-17
5567.47350 1.52252e-17
5570.51360 1.53667e-17
5573.54360 1.56425e-17
5576.57360 1.53085e-17
5579.60360 1.63613e-17
5582.63360 1.54769e-17
5585.67370 1.52120e-17
5588.70370 1.48233e-17
5591.73370 1.44545e-17
5594.76370 1.43897e-17
5597.80380 1.43938e-17
5600.83380 1.48757e-17
5603.86380 1.47130e-17
5606.89380 1.43123e-17
5609.92380 1.39435e-17
5612.96390 1.42092e-17
5615.99390 1.45139e-17
5619.02390 1.45795e-17
5622.05390 1.38039e-17
5625.09400 1.43550e-17
5628.12400 1.44658e-17
5631.15400 1.42866e-17
5634.18400 1.45192e-17
5637.21400 1.42399e-17
5640.25410 1.40294e-17
5643.28410 1.39214e-17
5646.31410 1.39273e-17
5649.34410 1.37020e-17
5652.38420 1.37038e-17
5655.41420 1.43859e-17
5658.44420 1.41660e-17
5661.47420 1.37326e-17
5664.50420 1.41519e-17
5667.54430 1.39782e-17
5670.57430 1.38585e-17
5673.60430 1.38853e-17
5676.63430 1.39700e-17
5679.67440 1.42391e-17
5682.70440 1.42897e-17
5685.73440 1.43276e-17
5688.76440 1.40925e-17
5691.79440 1.43007e-17
5694.83450 1.38876e-17
5697.86450 1.44077e-17
5700.89450 1.38022e-17
5703.92450 1.43522e-17
5706.96460 1.40933e-17
5709.99460 1.44529e-17
5713.02460 1.44343e-17
5716.05460 1.44981e-17
5719.08460 1.44084e-17
5722.12470 1.44522e-17
5725.15470 1.47076e-17
5728.18470 1.44456e-17
5731.21470 1.46760e-17
5734.25480 1.45880e-17
5737.28480 1.45053e-17
5740.31480 1.49728e-17
5743.34480 1.48497e-17
5746.37480 1.43975e-17
5749.41490 1.41945e-17
5752.44490 1.51596e-17
5755.47490 1.50398e-17
5758.50490 1.51949e-17
5761.54500 1.51133e-17
5764.57500 1.53152e-17
5767.60500 1.55098e-17
5770.63500 1.51004e-17
5773.66500 1.48337e-17
5776.70510 1.49878e-17
5779.73510 1.53207e-17
5782.76510 1.55112e-17
5785.79510 1.53027e-17
5788.83520 1.56457e-17
5791.86520 1.57333e-17
5794.89520 1.53017e-17
5797.92520 1.51541e-17
5800.95520 1.48885e-17
5803.99530 1.52209e-17
5807.02530 1.50835e-17
5810.05530 1.60409e-17
5813.08530 1.53914e-17
5816.12540 1.57465e-17
5819.15540 1.56430e-17
5822.18540 1.56107e-17
5825.21540 1.59971e-17
5828.24540 1.59273e-17
5831.28550 1.56162e-17
5834.31550 1.54052e-17
5837.34550 1.51078e-17
5840.37550 1.51027e-17
5843.41560 1.56702e-17
5846.44560 1.61618e-17
5849.47560 1.61057e-17
5852.50560 1.59588e-17
5855.53560 1.58172e-17
5858.57570 1.57609e-17
5861.60570 1.55699e-17
5864.63570 1.55896e-17
5867.66570 1.58322e-17
5870.70580 1.58948e-17
5873.73580 1.57353e-17
5876.76580 1.57934e-17
5879.79580 1.54320e-17
5882.83590 1.52480e-17
5885.86590 1.55756e-17
5888.89590 1.57646e-17
5891.92590 1.46752e-17
5894.95590 1.50744e-17
5897.99600 1.58525e-17
5901.02600 1.52841e-17
5904.05600 1.58896e-17
5907.08600 1.58606e-17
5910.11600 1.58317e-17
5913.15610 1.58027e-17
5916.18610 1.57738e-17
5919.21610 1.57449e-17
5922.24610 1.57160e-17
5925.28620 1.56871e-17
5928.31620 1.56582e-17
5931.34620 1.56294e-17
5934.37620 1.56005e-17
5937.40620 1.55717e-17
5940.44630 1.55429e-17
5943.47630 1.55141e-17
5946.50630 1.54853e-17
5949.53630 1.54565e-17
5952.57640 1.54277e-17
5955.60640 1.53989e-17
5958.63640 1.53702e-17
5961.66640 1.53415e-17
5964.70650 1.53127e-17
5967.73650 1.52840e-17
5970.76650 1.55217e-17
5973.79650 1.55513e-17
5976.82650 1.51134e-17
5979.86660 1.52790e-17
5982.89660 1.57725e-17
5985.92660 1.55049e-17
5988.95660 1.52089e-17
5991.99670 1.51301e-17
5995.02670 1.49084e-17
5998.05670 1.51003e-17
6001.08670 1.51161e-17
6004.11670 1.44966e-17
6007.15680 1.49561e-17
6010.18680 1.49756e-17
6013.21680 1.46437e-17
6016.24680 1.46278e-17
6019.28690 1.49009e-17
6022.31690 1.45376e-17
6025.34690 1.46052e-17
6028.37690 1.49981e-17
6031.40690 1.42313e-17
6034.44700 1.40937e-17
6037.47700 1.47020e-17
6040.50700 1.40405e-17
6043.53700 1.44822e-17
6046.57710 1.42794e-17
6049.60710 1.42955e-17
6052.63710 1.39546e-17
6055.66710 1.39359e-17
6058.69710 1.37275e-17
6061.73720 1.39247e-17
6064.76720 1.37301e-17
6067.79720 1.35969e-17
6070.82720 1.34857e-17
6073.86730 1.29010e-17
6076.89730 1.34747e-17
6079.92730 1.38177e-17
6082.95730 1.33798e-17
6085.98730 1.31517e-17
6089.02740 1.36949e-17
6092.05740 1.30658e-17
6095.08740 1.27124e-17
6098.11740 1.31180e-17
6101.15750 1.24298e-17
6104.18750 1.22657e-17
6107.21750 1.27363e-17
6110.24750 1.31747e-17
6113.27750 1.34635e-17
6116.31760 1.28208e-17
6119.34760 1.29462e-17
6122.37760 1.32639e-17
6125.40760 1.31798e-17
6128.44770 1.32350e-17
6131.47770 1.28992e-17
6134.50770 1.27678e-17
6137.53770 1.31852e-17
6140.56770 1.29868e-17
6143.60780 1.29598e-17
6146.63780 1.26738e-17
6149.66780 1.31011e-17
6152.69780 1.23380e-17
6155.73790 1.26366e-17
6158.76790 1.27756e-17
6161.79790 1.27362e-17
6164.82790 1.32095e-17
6167.85790 1.30921e-17
6170.89800 1.27056e-17
6173.92800 1.29415e-17
6176.95800 1.26857e-17
6179.98800 1.24776e-17
6183.02810 1.30782e-17
6186.05810 1.26755e-17
6189.08810 1.25304e-17
6192.11810 1.24295e-17
6195.14810 1.24525e-17
6198.18820 1.26220e-17
6201.21820 1.29650e-17
6204.24820 1.28416e-17
6207.27820 1.26285e-17
6210.31830 1.23511e-17
6213.34830 1.25663e-17
6216.37830 1.25719e-17
6219.40830 1.25653e-17
6222.43830 1.27458e-17
6225.47840 1.30008e-17
6228.50840 1.30876e-17
6231.53840 1.33987e-17
6234.56840 1.29685e-17
6237.60850 1.26312e-17
6240.63850 1.24761e-17
6243.66850 1.23716e-17
6246.69850 1.27824e-17
6249.72850 1.33295e-17
6252.76860 1.33660e-17
6255.79860 1.30306e-17
6258.82860 1.26856e-17
6261.85860 1.31131e-17
6264.89870 1.30565e-17
6267.92870 1.27135e-17
6270.95870 1.27831e-17
6273.98870 1.26753e-17
6277.01870 1.25472e-17
6280.05880 1.26310e-17
6283.08880 1.29420e-17
6286.11880 1.35833e-17
6289.14880 1.38892e-17
6292.18890 1.38164e-17
6295.21890 1.33656e-17
6298.24890 1.36002e-17
6301.27890 1.40014e-17
6304.30890 1.35025e-17
6307.34900 1.40332e-17
6310.37900 1.36661e-17
6313.40900 1.36154e-17
6316.43900 1.38886e-17
6319.47910 1.37156e-17
6322.50910 1.39955e-17
6325.53910 1.42364e-17
6328.56910 1.41737e-17
6331.59910 1.39806e-17
6334.63920 1.40338e-17
6337.66920 1.42672e-17
6340.69920 1.41465e-17
6343.72920 1.37399e-17
6346.76930 1.38046e-17
6349.79930 1.34674e-17
6352.82930 1.36911e-17
6355.85930 1.42709e-17
6358.88930 1.47698e-17
6361.92940 1.48320e-17
6364.95940 1.61633e-17
6367.98940 1.55608e-17
6371.01940 1.50293e-17
6374.05950 1.48483e-17
6377.08950 1.47244e-17
6380.11950 1.50497e-17
6383.14950 1.51413e-17
6386.17950 1.48706e-17
6389.21960 1.53778e-17
6392.24960 1.58536e-17
6395.27960 1.50288e-17
6398.30960 1.54376e-17
6401.34970 1.55019e-17
6404.37970 1.58081e-17
6407.40970 1.56083e-17
6410.43970 1.59265e-17
6413.46970 1.58974e-17
6416.50980 1.51263e-17
6419.53980 1.54334e-17
6422.56980 1.58378e-17
6425.59980 1.61080e-17
6428.63990 1.66795e-17
6431.66990 1.69675e-17
6434.69990 1.61359e-17
6437.72990 1.58006e-17
6440.75990 1.62108e-17
6443.80000 1.59278e-17
6446.83000 1.60788e-17
6449.86000 1.63112e-17
6452.89000 1.62291e-17
6455.93010 1.57675e-17
6458.96010 1.58462e-17
6461.99010 1.60942e-17
6465.02010 1.62142e-17
6468.05010 1.59064e-17
6471.09020 1.64479e-17
6474.12020 1.67484e-17
6477.15020 1.58748e-17
6480.18020 1.62654e-17
6483.22030 1.67623e-17
6486.25030 1.68101e-17
6489.28030 1.62013e-17
6492.31030 1.63917e-17
6495.35040 1.62971e-17
6498.38040 1.68412e-17
6501.41040 1.71701e-17
6504.44040 1.69484e-17
6507.47040 1.62393e-17
6510.51050 1.69257e-17
6513.54050 1.69296e-17
6516.57050 1.67523e-17
6519.60050 1.70249e-17
6522.63050 1.72862e-17
6525.67060 1.70065e-17
6528.70060 1.67778e-17
6531.73060 1.69951e-17
6534.76060 1.68910e-17
6537.80070 1.67855e-17
6540.83070 1.71967e-17
6543.86070 1.67680e-17
6546.89070 1.65587e-17
6549.92070 1.60641e-17
6552.96080 1.66935e-17
6555.99080 1.68665e-17
6559.02080 1.64743e-17
6562.05080 1.66402e-17
6565.09090 1.63770e-17
6568.12090 1.62592e-17
6571.15090 1.63650e-17
6574.18090 1.63704e-17
6577.21090 1.67991e-17
6580.25100 1.65015e-17
6583.28100 1.62125e-17
6586.31100 1.61702e-17
6589.34100 1.59183e-17
6592.38110 1.60572e-17
6595.41110 1.64687e-17
6598.44110 1.68800e-17
6601.47110 1.72912e-17
6604.50110 1.77023e-17
6607.54120 1.81134e-17
6610.57120 1.85242e-17
6613.60120 1.89351e-17
6616.63120 1.93458e-17
6619.67130 1.97565e-17
6622.70130 2.01671e-17
6625.73130 2.05776e-17
6628.76130 2.09879e-17
6631.80140 2.13983e-17
6634.83140 2.10030e-17
6637.86140 2.06078e-17
6640.89140 2.02127e-17
6643.92140 1.98177e-17
6646.96150 1.94228e-17
6649.99150 1.90280e-17
6653.02150 1.86333e-17
6656.05150 1.82386e-17
6659.08150 1.78441e-17
6662.12160 1.74496e-17
6665.15160 1.70553e-17
6668.18160 1.66610e-17
6671.21160 1.60695e-17
6674.25170 1.59386e-17
6677.28170 1.64593e-17
6680.31170 1.60052e-17
6683.34170 1.52927e-17
6686.37170 1.52745e-17
6689.41180 1.56557e-17
6692.44180 1.60797e-17
6695.47180 1.59221e-17
6698.50180 1.55089e-17
6701.54190 1.60903e-17
6704.57190 1.59093e-17
6707.60190 1.59142e-17
6710.63190 1.64179e-17
6713.67200 1.58105e-17
6716.70200 1.58749e-17
6719.73200 1.61130e-17
6722.76200 1.61518e-17
6725.79200 1.65451e-17
6728.83210 1.60037e-17
6731.86210 1.60249e-17
6734.89210 1.61591e-17
6737.92210 1.59272e-17
6740.95210 1.64341e-17
6743.99220 1.65023e-17
6747.02220 1.76885e-17
6750.05220 1.73441e-17
6753.08220 1.68864e-17
6756.12230 1.61341e-17
6759.15230 1.62614e-17
6762.18230 1.60333e-17
6765.21230 1.56729e-17
6768.25240 1.65194e-17
6771.28240 1.73656e-17
6774.31240 1.82117e-17
6777.34240 1.90575e-17
6780.37240 1.87618e-17
6783.41250 1.84662e-17
6786.44250 1.81707e-17
6789.47250 1.78752e-17
6792.50250 1.75798e-17
6795.53250 1.72845e-17
6798.57260 1.69892e-17
6801.60260 1.66940e-17
6804.63260 1.63989e-17
6807.66260 1.61038e-17
6810.70270 1.58088e-17
6813.73270 1.55139e-17
6816.76270 1.52190e-17
6819.79270 1.50260e-17
6822.82270 1.45048e-17
6825.86280 1.41500e-17
6828.89280 1.40491e-17
6831.92280 1.46055e-17
6834.95280 1.44385e-17
6837.99290 1.45219e-17
6841.02290 1.43634e-17
6844.05290 1.42987e-17
6847.08290 1.43143e-17
6850.12300 1.43299e-17
6853.15300 1.43456e-17
6856.18300 1.43612e-17
6859.21300 1.43768e-17
6862.24300 1.43925e-17
6865.28310 1.44081e-17
6868.31310 1.44237e-17
6871.34310 1.44393e-17
6874.37310 1.44549e-17
6877.40310 1.44705e-17
6880.44320 1.44861e-17
6883.47320 1.45017e-17
6886.50320 1.45173e-17
6889.53320 1.45328e-17
6892.57330 1.45484e-17
6895.60330 1.45640e-17
6898.63330 1.45796e-17
6901.66330 1.45951e-17
6904.70340 1.46107e-17
6907.73340 1.46263e-17
6910.76340 1.46418e-17
6913.79340 1.46574e-17
6916.82340 1.46729e-17
6919.86350 1.46884e-17
6922.89350 1.47040e-17
6925.92350 1.47195e-17
6928.95350 1.47350e-17
6931.99360 1.47506e-17
6935.02360 1.47661e-17
6938.05360 1.45301e-17
6941.08360 1.43000e-17
6944.11360 1.45706e-17
6947.15370 1.55236e-17
6950.18370 1.50207e-17
6953.21370 1.46574e-17
6956.24370 1.42109e-17
6959.28380 1.45911e-17
6962.31380 1.46698e-17
6965.34380 1.47671e-17
6968.37380 1.49046e-17
6971.40380 1.57684e-17
6974.44390 1.59291e-17
6977.47390 1.53930e-17
6980.50390 1.46708e-17
6983.53390 1.55002e-17
6986.57400 1.43987e-17
6989.60400 1.43517e-17
6992.63400 1.47481e-17
6995.66400 1.48274e-17
6998.69400 1.48659e-17
7001.73410 1.40826e-17
7004.76410 1.46295e-17
7007.79410 1.48014e-17
7010.82410 1.49776e-17
7013.86420 1.47188e-17
7016.89420 1.43030e-17
7019.92420 1.48617e-17
7022.95420 1.48127e-17
7025.98420 1.50291e-17
7029.02430 1.44982e-17
7032.05430 1.45657e-17
7035.08430 1.44179e-17
7038.11430 1.41640e-17
7041.15440 1.37361e-17
7044.18440 1.37011e-17
7047.21440 1.46819e-17
7050.24440 1.47259e-17
7053.27440 1.40391e-17
7056.31450 1.46752e-17
7059.34450 1.49307e-17
7062.37450 1.41626e-17
7065.40450 1.44322e-17
7068.44460 1.41900e-17
7071.47460 1.47521e-17
7074.50460 1.41620e-17
7077.53460 1.48796e-17
7080.56460 1.49742e-17
7083.60470 1.40935e-17
7086.63470 1.42026e-17
7089.66470 1.48612e-17
7092.69470 1.47431e-17
7095.73480 1.57038e-17
7098.76480 1.52332e-17
7101.79480 1.51238e-17
7104.82480 1.43626e-17
7107.85480 1.55220e-17
7110.89490 1.52939e-17
7113.92490 1.51820e-17
7116.95490 1.55290e-17
7119.98490 1.53057e-17
7123.02500 1.54855e-17
7126.05500 1.47453e-17
7129.08500 1.52542e-17
7132.11500 1.54482e-17
7135.14500 1.55849e-17
7138.18510 1.63534e-17
7141.21510 1.58441e-17
7144.24510 1.48791e-17
7147.27510 1.46425e-17
7150.31520 1.50454e-17
7153.34520 1.54526e-17
7156.37520 1.55566e-17
7159.40520 1.46320e-17
7162.43520 1.46874e-17
7165.47530 1.56018e-17
7168.50530 1.53361e-17
7171.53530 1.53346e-17
7174.56530 1.57197e-17
7177.60540 1.53283e-17
7180.63540 1.49192e-17
7183.66540 1.50085e-17
7186.69540 1.46239e-17
7189.72540 1.42369e-17
7192.76550 1.50874e-17
7195.79550 1.54304e-17
7198.82550 1.53166e-17
7201.85550 1.50807e-17
7204.89560 1.56407e-17
7207.92560 1.66690e-17
7210.95560 1.70013e-17
7213.98560 1.72094e-17
7217.01560 1.55375e-17
7220.05570 1.52211e-17
7223.08570 1.54061e-17
7226.11570 1.55222e-17
7229.14570 1.52135e-17
7232.18580 1.52657e-17
7235.21580 1.48398e-17
7238.24580 1.46514e-17
7241.27580 1.43280e-17
7244.30580 1.44734e-17
7247.34590 1.52628e-17
7250.37590 1.52217e-17
7253.40590 1.47545e-17
7256.43590 1.41543e-17
7259.47600 1.44277e-17
7262.50600 1.47388e-17
7265.53600 1.48673e-17
7268.56600 1.42842e-17
7271.59600 1.40774e-17
7274.63610 1.48884e-17
7277.66610 1.50293e-17
7280.69610 1.45721e-17
7283.72610 1.48314e-17
7286.76620 1.43651e-17
7289.79620 1.43355e-17
7292.82620 1.46085e-17
7295.85620 1.44431e-17
7298.88620 1.40943e-17
7301.92630 1.40197e-17
7304.95630 1.40660e-17
7307.98630 1.36611e-17
7311.01630 1.43752e-17
7314.05640 1.42617e-17
7317.08640 1.37471e-17
7320.11640 1.43592e-17
7323.14640 1.41500e-17
7326.17640 1.36218e-17
7329.21650 1.39432e-17
7332.24650 1.36805e-17
7335.27650 1.30323e-17
7338.30650 1.31315e-17
7341.34660 1.42999e-17
7344.37660 1.46922e-17
7347.40660 1.43051e-17
7350.43660 1.43717e-17
7353.46660 1.44516e-17
7356.50670 1.44477e-17
7359.53670 1.37498e-17
7362.56670 1.42099e-17
7365.59670 1.52718e-17
7368.63680 1.49950e-17
7371.66680 1.37246e-17
7374.69680 1.34016e-17
7377.72680 1.26302e-17
7380.76690 1.30820e-17
7383.79690 1.29659e-17
7386.82690 1.35164e-17
7389.85690 1.39872e-17
7392.88690 1.42915e-17
7395.92700 1.39691e-17
7398.95700 1.38314e-17
7401.98700 1.35311e-17
7405.01700 1.39868e-17
7408.04700 1.40522e-17
7411.08710 1.37054e-17
7414.11710 1.34586e-17
7417.14710 1.33481e-17
7420.17710 1.37027e-17
7423.21720 1.34780e-17
7426.24720 1.36114e-17
7429.27720 1.31133e-17
7432.30720 1.30677e-17
7435.34730 1.31126e-17
7438.37730 1.29021e-17
7441.40730 1.25413e-17
7444.43730 1.29579e-17
7447.46730 1.25642e-17
7450.50740 1.27383e-17
7453.53740 1.34096e-17
7456.56740 1.32347e-17
7459.59740 1.29452e-17
7462.63750 1.36324e-17
7465.66750 1.32196e-17
7468.69750 1.26704e-17
7471.72750 1.29035e-17
7474.75750 1.31294e-17
7477.79760 1.30131e-17
7480.82760 1.27546e-17
7483.85760 1.25955e-17
7486.88760 1.26383e-17
7489.91760 1.28600e-17
7492.95770 1.21302e-17
7495.98770 1.20554e-17
7499.01770 1.30072e-17
7502.04770 1.32079e-17
7505.08780 1.31887e-17
7508.11780 1.27687e-17
7511.14780 1.26528e-17
7514.17780 1.22689e-17
7517.21790 1.28062e-17
7520.24790 1.26015e-17
7523.27790 1.23126e-17
7526.30790 1.22507e-17
7529.33790 1.24144e-17
7532.37800 1.25065e-17
7535.40800 1.22474e-17
7538.43800 1.25884e-17
7541.46800 1.25178e-17
7544.50810 1.29398e-17
7547.53810 1.23869e-17
7550.56810 1.24441e-17
7553.59810 1.25012e-17
7556.62810 1.25584e-17
7559.66820 1.26155e-17
7562.69820 1.26726e-17
7565.72820 1.27298e-17
7568.75820 1.27868e-17
7571.79830 1.28439e-17
7574.82830 1.29010e-17
7577.85830 1.29580e-17
7580.88830 1.30150e-17
7583.91830 1.30721e-17
7586.95840 1.31291e-17
7589.98840 1.31860e-17
7593.01840 1.32430e-17
7596.04840 1.33000e-17
7599.08850 1.33569e-17
7602.11850 1.34138e-17
7605.14850 1.34707e-17
7608.17850 1.35276e-17
7611.20850 1.35845e-17
7614.24860 1.36413e-17
7617.27860 1.36982e-17
7620.30860 1.37550e-17
7623.33860 1.38118e-17
7626.36860 1.38686e-17
7629.40870 1.39254e-17
7632.43870 1.39822e-17
7635.46870 1.40389e-17
7638.49870 1.40957e-17
7641.53880 1.41524e-17
7644.56880 1.42091e-17
7647.59880 1.42658e-17
7650.62880 1.43225e-17
7653.66890 1.43791e-17
7656.69890 1.44358e-17
7659.72890 1.44924e-17
7662.75890 1.45490e-17
7665.78890 1.46056e-17
7668.82900 1.46622e-17
7671.85900 1.47188e-17
7674.88900 1.47753e-17
7677.91900 1.48319e-17
7680.95910 1.48884e-17
7683.98910 1.51106e-17
7687.01910 1.52506e-17
7690.04910 1.49540e-17
7693.07910 1.49022e-17
7696.11920 1.44837e-17
7699.14920 1.45005e-17
7702.17920 1.44787e-17
7705.20920 1.44586e-17
7708.24930 1.43590e-17
7711.27930 1.39261e-17
7714.30930 1.43125e-17
7717.33930 1.50534e-17
7720.36930 1.56559e-17
7723.40940 1.41289e-17
7726.43940 1.37048e-17
7729.46940 1.36425e-17
7732.49940 1.46665e-17
7735.53950 1.41139e-17
7738.56950 1.37468e-17
7741.59950 1.39414e-17
7744.62950 1.42855e-17
7747.65950 1.41338e-17
7750.69960 1.36204e-17
7753.72960 1.37790e-17
7756.75960 1.33721e-17
7759.78960 1.36821e-17
7762.82970 1.41123e-17
7765.85970 1.38137e-17
7768.88970 1.35002e-17
7771.91970 1.44298e-17
7774.94970 1.42554e-17
7777.98980 1.24158e-17
7781.01980 1.28953e-17
7784.04980 1.23789e-17
7787.07980 1.27700e-17
7790.11990 1.19730e-17
7793.14990 1.28007e-17
7796.17990 1.30628e-17
7799.20990 1.36284e-17
7802.23990 1.16509e-17
7805.28000 1.19418e-17
7808.31000 1.23573e-17
7811.34000 1.21885e-17
7814.37000 1.22642e-17
7817.41010 1.22045e-17
7820.44010 1.23055e-17
7823.47010 1.15313e-17
7826.50010 1.20075e-17
7829.53010 1.25309e-17
7832.57020 1.17416e-17
7835.60020 1.16858e-17
7838.63020 1.09853e-17
7841.66020 1.12592e-17
7844.70030 1.05650e-17
7847.73030 1.13060e-17
7850.76030 1.13738e-17
7853.79030 1.03388e-17
7856.82030 1.06022e-17
7859.86040 1.08253e-17
7862.89040 1.04893e-17
7865.92040 1.14538e-17
7868.95040 1.05627e-17
7871.99050 9.78628e-18
7875.02050 9.80393e-18
7878.05050 9.56774e-18
7881.08050 1.00730e-17
7884.11050 9.54926e-18
7887.15060 9.04246e-18
7890.18060 9.05830e-18
7893.21060 9.37938e-18
7896.24060 9.32058e-18
7899.28070 9.66218e-18
7902.31070 8.98581e-18
7905.34070 9.93092e-18
7908.37070 1.00914e-17
7911.40070 1.09616e-17
7914.44080 1.06677e-17
7917.47080 9.75001e-18
7920.50080 9.29422e-18
7923.53080 8.88602e-18
7926.57090 8.55232e-18
7929.60090 7.68235e-18
7932.63090 8.09332e-18
7935.66090 8.68315e-18
7938.69090 8.65995e-18
7941.73100 8.37524e-18
7944.76100 8.49111e-18
7947.79100 8.73088e-18
7950.82100 8.04212e-18
7953.86110 8.56141e-18
7956.89110 8.91692e-18
7959.92110 7.84800e-18
7962.95110 7.50377e-18
7965.98110 7.53857e-18
7969.02120 7.58411e-18
7972.05120 7.43594e-18
7975.08120 8.45546e-18
7978.11120 8.29313e-18
7981.15130 8.41980e-18
7984.18130 8.41570e-18
7987.21130 8.52422e-18
7990.24130 8.07739e-18
7993.27130 8.49743e-18
7996.31140 8.39272e-18
7999.34140 7.81113e-18
8002.37140 7.96281e-18
8005.40140 7.84901e-18
8008.44150 7.26336e-18
8011.47150 7.52952e-18
8014.50150 7.21248e-18
8017.53150 7.17695e-18
8020.56150 7.50188e-18
8023.60160 6.92682e-18
8026.63160 7.21291e-18
8029.66160 7.53328e-18
8032.69160 7.90220e-18
8035.73170 7.79090e-18
8038.76170 7.14813e-18
8041.79170 7.67043e-18
8044.82170 8.90185e-18
8047.85170 8.35576e-18
8050.89180 8.01348e-18
8053.92180 8.62186e-18
8056.95180 8.49367e-18
8059.98180 7.42454e-18
8063.02190 7.88796e-18
8066.05190 7.98005e-18
8069.08190 7.70526e-18
8072.11190 7.70160e-18
8075.14190 7.66365e-18
8078.18200 8.29577e-18
8081.21200 7.60507e-18
8084.24200 7.36880e-18
8087.27200 6.69023e-18
8090.31210 6.66267e-18
8093.34210 6.68056e-18
8096.37210 6.87900e-18
8099.40210 7.28606e-18
8102.43210 6.90493e-18
8105.47220 6.93769e-18
8108.50220 7.97940e-18
8111.53220 8.52352e-18
8114.56220 7.46713e-18
8117.60230 7.60909e-18
8120.63230 7.09913e-18
8123.66230 6.98520e-18
8126.69230 7.03329e-18
8129.72230 7.00365e-18
8132.76240 6.94365e-18
8135.79240 6.61173e-18
8138.82240 6.37081e-18
8141.85240 6.16006e-18
8144.89250 5.79929e-18
8147.92250 6.60897e-18
8150.95250 6.61010e-18
8153.98250 6.64643e-18
8157.01250 8.05319e-18
8160.05260 7.24379e-18
8163.08260 7.08789e-18
8166.11260 6.86912e-18
8169.14260 7.00280e-18
8172.18270 7.76092e-18
8175.21270 7.23712e-18
8178.24270 8.06630e-18
8181.27270 7.36255e-18
8184.30270 8.21022e-18
8187.34280 7.77844e-18
8190.37280 6.94583e-18
8193.40280 7.38893e-18
8196.43280 7.60063e-18
8199.47290 6.80897e-18
8202.50290 6.69299e-18
8205.53290 6.63339e-18
8208.56290 6.71476e-18
8211.59290 7.15947e-18
8214.63300 8.26513e-18
8217.66300 8.52404e-18
8220.69300 8.13457e-18
8223.72300 8.00611e-18
8226.76310 7.97285e-18
8229.79310 7.96282e-18
8232.82310 8.42245e-18
8235.85310 8.21907e-18
8238.88310 7.93421e-18
8241.92320 7.92560e-18
8244.95320 8.28615e-18
8247.98320 8.52358e-18
8251.01320 7.91659e-18
8254.05330 8.44917e-18
8257.08330 8.10443e-18
8260.11330 6.91444e-18
8263.14330 7.54483e-18
8266.17330 7.65156e-18
8269.21340 7.83422e-18
8272.24340 7.52643e-18
8275.27340 6.67019e-18
8278.30340 5.04985e-18
8281.34350 6.62801e-18
8284.37350 6.79519e-18
8287.40350 8.11593e-18
8290.43350 7.46168e-18
8293.47360 8.02213e-18
8296.50360 9.04195e-18
8299.53360 9.64366e-18
8302.56360 9.95837e-18
8305.59360 9.70626e-18
8308.63370 9.05436e-18
8311.66370 9.56398e-18
8314.69370 9.23422e-18
8317.72370 9.45869e-18
8320.76380 9.74184e-18
8323.79380 9.50451e-18
8326.82380 9.63600e-18
8329.85380 9.96210e-18
8332.88380 9.82183e-18
8335.92390 9.42402e-18
8338.95390 8.18993e-18
8341.98390 8.34664e-18
8345.01390 8.32961e-18
8348.04390 9.10089e-18
8351.08400 9.78254e-18
8354.11400 8.32085e-18
8357.14400 8.95364e-18
8360.17400 9.62188e-18
8363.21410 1.07926e-17
8366.24410 9.36748e-18
8369.27410 9.82860e-18
8372.30410 1.08016e-17
8375.34420 1.13765e-17
8378.37420 1.13811e-17
8381.40420 1.18793e-17
8384.43420 1.23331e-17
8387.46420 1.21800e-17
8390.50430 1.16027e-17
8393.53430 1.15653e-17
8396.56430 1.09917e-17
8399.59430 1.04906e-17
8402.62430 1.06981e-17
8405.66440 1.09473e-17
8408.69440 1.11800e-17
8411.72440 1.14668e-17
8414.75440 1.16808e-17
8417.79450 1.22639e-17
8420.82450 1.27494e-17
8423.85450 1.30797e-17
8426.88450 1.36968e-17
8429.92460 1.39357e-17
8432.95460 1.31007e-17
8435.98460 1.36848e-17
8439.01460 1.34434e-17
8442.04460 1.36262e-17
8445.08470 1.31429e-17
8448.11470 1.24240e-17
8451.14470 1.27383e-17
8454.17470 1.38722e-17
8457.21480 1.35960e-17
8460.24480 1.37081e-17
8463.27480 1.45072e-17
8466.30480 1.48144e-17
8469.33480 1.27909e-17
8472.37490 1.38304e-17
8475.40490 1.50982e-17
8478.43490 1.64578e-17
8481.46490 1.52186e-17
8484.50500 1.49704e-17
8487.53500 1.52897e-17
8490.56500 1.44391e-17
8493.59500 1.53889e-17
8496.62500 1.56436e-17
8499.66510 1.60024e-17
8502.69510 1.55986e-17
8505.72510 1.48781e-17
8508.75510 1.57326e-17
8511.78510 1.63002e-17
8514.82520 1.73885e-17
8517.85520 1.73712e-17
8520.88520 1.80756e-17
8523.91520 1.80123e-17
8526.95530 1.74517e-17
8529.98530 1.73717e-17
8533.01530 1.70346e-17
8536.04530 1.77958e-17
8539.08540 1.72654e-17
8542.11540 1.62509e-17
8545.14540 1.81358e-17
8548.17540 1.60173e-17
8551.20540 1.66750e-17
8554.24550 1.75988e-17
8557.27550 1.91560e-17
8560.30550 1.71654e-17
8563.33550 1.86743e-17
8566.37560 1.74481e-17
8569.40560 1.66884e-17
8572.43560 1.68612e-17
8575.46560 1.93090e-17
8578.49560 1.86228e-17
8581.53570 1.75808e-17
8584.56570 1.80419e-17
8587.59570 1.92753e-17
8590.62570 1.81664e-17
8593.66580 1.74779e-17
8596.69580 1.66977e-17
8599.72580 1.72268e-17
8602.75580 1.66188e-17
8605.78580 1.71978e-17
8608.82590 1.91331e-17
8611.85590 1.83835e-17
8614.88590 1.86247e-17
8617.91590 1.76183e-17
8620.95600 1.82776e-17
8623.98600 1.85231e-17
8627.01600 1.80901e-17
8630.04600 1.74832e-17
8633.07600 1.83443e-17
8636.11610 1.78636e-17
8639.14610 1.88132e-17
8642.17610 1.77723e-17
8645.20610 1.88679e-17
8648.24620 1.88150e-17
8651.27620 1.81315e-17
8654.30620 1.93354e-17
8657.33620 1.90466e-17
8660.36620 1.97262e-17
8663.40630 1.72667e-17
8666.43630 1.83142e-17
8669.46630 1.85794e-17
8672.49630 1.82542e-17
8675.53640 1.67602e-17
8678.56640 1.69017e-17
8681.59640 1.86098e-17
8684.62640 1.72839e-17
8687.65640 1.79061e-17
8690.69650 1.81674e-17
8693.72650 1.80925e-17
8696.75650 1.77955e-17
8699.78650 1.83725e-17
8702.82660 1.82674e-17
8705.85660 1.73334e-17
8708.88660 1.67250e-17
8711.91660 1.80930e-17
8714.95670 1.74685e-17
8717.98670 1.64651e-17
8721.01670 1.79896e-17
8724.04670 1.80389e-17
8727.07670 1.76611e-17
8730.11680 1.79118e-17
8733.14680 1.77835e-17
8736.17680 1.75958e-17
8739.20680 1.80675e-17
8742.23680 1.81062e-17
8745.27690 1.86340e-17
8748.30690 1.76606e-17
8751.33690 1.71458e-17
8754.36690 1.87292e-17
8757.40700 1.71923e-17
8760.43700 1.67110e-17
8763.46700 1.70614e-17
8766.49700 1.57993e-17
8769.52700 1.51185e-17
8772.56710 1.45944e-17
8775.59710 1.44445e-17
8778.62710 1.39160e-17
8781.65710 1.40478e-17
8784.68710 1.47482e-17
8787.72720 1.45954e-17
8790.75720 1.51210e-17
8793.78720 1.54232e-17
8796.81720 1.48230e-17
8799.85730 1.52628e-17
8802.88730 1.50721e-17
8805.91730 1.53326e-17
8808.94730 1.51438e-17
8811.98740 1.32030e-17
8815.01740 1.32546e-17
8818.04740 1.25123e-17
8821.07740 1.20150e-17
8824.11750 1.29434e-17
8827.14750 1.30163e-17
8830.17750 1.30893e-17
8833.20750 1.31622e-17
8836.23750 1.32351e-17
8839.27760 1.33080e-17
8842.30760 1.33808e-17
8845.33760 1.34537e-17
8848.36760 1.35266e-17
8851.39760 1.37692e-17
8854.43770 1.46449e-17
8857.46770 1.44065e-17
8860.49770 1.41571e-17
8863.52770 1.49051e-17
8866.56780 1.49318e-17
8869.59780 1.33378e-17
8872.62780 1.44763e-17
8875.65780 1.41034e-17
8878.68780 1.34199e-17
8881.72790 1.34463e-17
8884.75790 1.39665e-17
8887.78790 1.47193e-17
8890.81790 1.37119e-17
8893.85800 1.32545e-17
8896.88800 1.33133e-17
8899.91800 1.49532e-17
8902.94800 1.48778e-17
8905.97800 1.43145e-17
8909.01810 1.54746e-17
8912.04810 1.44073e-17
8915.07810 1.36107e-17
8918.10810 1.50657e-17
8921.14820 1.36147e-17
8924.17820 1.24908e-17
8927.20820 1.34356e-17
8930.23820 1.32865e-17
8933.26820 1.24793e-17
8936.30830 1.29920e-17
8939.33830 1.32874e-17
8942.36830 1.18295e-17
8945.39830 1.08237e-17
8948.43840 1.20817e-17
8951.46840 1.34336e-17
8954.49840 1.00883e-17
8957.52840 9.55175e-18
8960.55840 1.18567e-17
8963.59850 1.08651e-17
8966.62850 1.06314e-17
8969.65850 1.11849e-17
8972.68850 1.12728e-17
8975.72860 1.11972e-17
8978.75860 1.11949e-17
8981.78860 1.20172e-17
8984.81860 1.14124e-17
8987.85870 1.11549e-17
8990.88870 1.10992e-17
8993.91870 1.18938e-17
8996.94870 1.21142e-17
8999.97870 1.24333e-17
9003.01880 1.27231e-17
9006.04880 9.77549e-18
9009.07880 1.01935e-17
9012.10880 1.01124e-17
9015.13880 1.06630e-17
9018.17890 1.05372e-17
9021.20890 1.06725e-17
9024.23890 1.13414e-17
9027.26890 1.10772e-17
9030.30900 1.09550e-17
9033.33900 1.14377e-17
9036.36900 1.27445e-17
9039.39900 1.17765e-17
9042.42900 1.16522e-17
9045.46910 1.14527e-17
9048.49910 1.02462e-17
9051.52910 9.51013e-18
9054.55910 9.38223e-18
9057.59920 9.75268e-18
9060.62920 8.88190e-18
9063.65920 9.82392e-18
9066.68920 9.29076e-18
9069.71920 1.09057e-17
9072.75930 1.22447e-17
9075.78930 1.21255e-17
9078.81930 1.06824e-17
9081.84930 1.13015e-17
9084.88940 1.11269e-17
9087.91940 9.66439e-18
9090.94940 1.06184e-17
9093.97940 1.02250e-17
9097.01950 1.05549e-17
9100.04950 1.05247e-17
9103.07950 1.01177e-17
9106.10950 1.29836e-17
9109.13950 1.26197e-17
9112.17960 1.20849e-17
9115.20960 1.13879e-17
9118.23960 1.16738e-17
9121.26960 1.09118e-17
9124.29960 1.02516e-17
9127.33970 1.05124e-17
9130.36970 1.05132e-17
9133.39970 9.76395e-18
9136.42970 9.84015e-18
9139.46980 1.03331e-17
9142.49980 9.82424e-18
9145.52980 9.39064e-18
9148.55980 9.24440e-18
9151.59990 9.29970e-18
9154.62990 9.94533e-18
9157.65990 1.16045e-17
9160.68990 1.72819e-17
9163.71990 2.31377e-17
9166.76000 1.88564e-17
9169.79000 1.42083e-17
9172.82000 1.27085e-17
9175.85000 1.08859e-17
9178.88000 1.14503e-17
9181.92010 1.12097e-17
9184.95010 1.03184e-17
9187.98010 1.14529e-17
9191.01010 1.15839e-17
9194.05020 1.02987e-17
9197.08020 1.01511e-17
9200.11020 1.10792e-17
9203.14020 1.09317e-17
9206.17020 1.07115e-17
9209.21030 1.09517e-17
9212.24030 1.19312e-17
9215.27030 1.12709e-17
9218.30030 1.04921e-17
9221.34040 1.03871e-17
9224.37040 1.07755e-17
9227.40040 9.97985e-18
9230.43040 8.68807e-18
9233.47050 8.67349e-18
9236.50050 9.64120e-18
9239.53050 9.17964e-18
9242.56050 8.57988e-18
9245.59050 1.02495e-17
9248.63060 9.29044e-18
9251.66060 1.02175e-17
9254.69060 9.64054e-18
9257.72060 1.09199e-17
9260.76070 9.56413e-18
9263.79070 9.16748e-18
9266.82070 1.02574e-17
9269.85070 9.81907e-18
9272.88070 8.42610e-18
9275.92080 9.03389e-18
9278.95080 9.15313e-18
9281.98080 5.54861e-18
9285.01080 6.53591e-18
9288.04080 7.52693e-18
9291.08090 7.21139e-18
9294.11090 7.54307e-18
9297.14090 6.25244e-18
9300.17090 7.38482e-18
9303.21100 8.11969e-18
9306.24100 8.13636e-18
9309.27100 6.95509e-18
9312.30100 6.67645e-18
9315.33100 8.42798e-18
9318.37110 8.96128e-18
9321.40110 7.66117e-18
9324.43110 9.70320e-18
9327.46110 8.76870e-18
9330.50120 7.39059e-18
9333.53120 5.54953e-18
9336.56120 5.87064e-18
9339.59120 4.93683e-18
9342.62120 6.93939e-18
9345.66130 4.72400e-18
9348.69130 4.80673e-18
9351.72130 5.49418e-18
9354.75130 7.01829e-18
9357.79140 4.78910e-18
9360.82140 6.73634e-18
9363.85140 7.62756e-18
9366.88140 6.31789e-18
9369.92150 5.43393e-18
9372.95150 3.11332e-18
9375.98150 8.03916e-18
9379.01150 8.70409e-18
9382.04150 7.25780e-18
9385.08160 6.62721e-18
9388.11160 6.08636e-18
9391.14160 5.33611e-18
9394.17160 6.86914e-18
9397.21170 6.06014e-18
9400.24170 6.15111e-18
9403.27170 7.48401e-18
9406.30170 7.54654e-18
9409.33170 8.73635e-18
9412.37180 7.10639e-18
9415.40180 5.62695e-18
9418.43180 6.53291e-18
9421.46180 8.40117e-18
9424.50190 7.67557e-18
9427.53190 6.49560e-18
9430.56190 5.52394e-18
9433.59190 6.64167e-18
9436.62190 8.31033e-18
9439.66200 4.92050e-18
9442.69200 5.24402e-18
9445.72200 5.65963e-18
9448.75200 7.50672e-18
9451.79210 5.68993e-18
9454.82210 5.42092e-18
9457.85210 6.64439e-18
9460.88210 3.85930e-18
9463.91210 2.80041e-18
9466.95220 3.97033e-18
9469.98220 5.90147e-18
9473.01220 5.76832e-18
9476.04220 4.47638e-18
9479.07220 4.26290e-18
9482.11230 5.10481e-18
9485.14230 6.85656e-18
9488.17230 5.98321e-18
9491.20230 3.85453e-18
9494.24240 4.13745e-18
9497.27240 5.13002e-18
9500.30240 4.09838e-18
9503.33240 4.91049e-18
9506.37250 7.65066e-18
9509.40250 8.49133e-18
9512.43250 6.21728e-18
9515.46250 3.80179e-18
9518.49250 3.28259e-18
9521.53260 5.48791e-18
9524.56260 5.62968e-18
9527.59260 5.29856e-18
9530.62260 5.98993e-18
9533.66270 6.17714e-18
9536.69270 5.63433e-18
9539.72270 4.60278e-18
9542.75270 5.14513e-18
9545.78270 5.63616e-18
9548.82280 6.83517e-18
9551.85280 7.66983e-18
9554.88280 4.71824e-18
9557.91280 4.31848e-18
9560.95290 4.88635e-18
9563.98290 5.99310e-18
9567.01290 5.31049e-18
