# wavelength flux
3300.0 9.863664139968925e-17
3301.0 9.863660480529466e-17
3302.0 9.863656821091345e-17
3303.0 9.863653161654557e-17
3304.0 9.863649502219102e-17
3305.0 9.863645842784979e-17
3306.0 9.863642183352193e-17
3307.0 9.863638523920741e-17
3308.0 9.863634864490623e-17
3309.0 9.863631205061837e-17
3310.0 9.863627545634384e-17
3311.0 9.86362388620827e-17
3312.0 9.863620226783484e-17
3313.0 9.863616567360034e-17
3314.0 9.86361290793792e-17
3315.0 9.863609248517137e-17
3316.0 9.863605589097689e-17
3317.0 9.863601929679574e-17
3318.0 9.863598270262797e-17
3319.0 9.863594610847349e-17
3320.0 9.863590951433234e-17
3321.0 9.86358729202046e-17
3322.0 9.863583632609013e-17
3323.0 9.863579973198905e-17
3324.0 9.863576313790126e-17
3325.0 9.863572654382682e-17
3326.0 9.863568994976573e-17
3327.0 9.863565335571799e-17
3328.0 9.863561676168356e-17
3329.0 9.863558016766248e-17
3330.0 9.863554357365475e-17
3331.0 9.863550697966036e-17
3332.0 9.86354703856793e-17
3333.0 9.86354337917116e-17
3334.0 9.863539719775719e-17
3335.0 9.863536060381616e-17
3336.0 9.863532400988848e-17
3337.0 9.863528741597412e-17
3338.0 9.863525082207309e-17
3339.0 9.86352142281854e-17
3340.0 9.863517763431104e-17
3341.0 9.863514104045002e-17
3342.0 9.863510444660237e-17
3343.0 9.863506785276802e-17
3344.0 9.863503125894706e-17
3345.0 9.863499466513937e-17
3346.0 9.863495807134507e-17
3347.0 9.86349214775641e-17
3348.0 9.863488488379647e-17
3349.0 9.863484829004216e-17
3350.0 9.863481169630121e-17
3351.0 9.863477510257358e-17
3352.0 9.863473850885928e-17
3353.0 9.863470191515837e-17
3354.0 9.863466532147074e-17
3355.0 9.863462872779649e-17
3356.0 9.863459213413556e-17
3357.0 9.863455554048796e-17
3358.0 9.86345189468537e-17
3359.0 9.863448235323282e-17
3360.0 9.863444575962523e-17
3361.0 9.863440916603099e-17
3362.0 9.863437257245008e-17
3363.0 9.863433597888255e-17
3364.0 9.863429938532832e-17
3365.0 9.863426279178744e-17
3366.0 9.86342261982599e-17
3367.0 9.86341896047457e-17
3368.0 9.863415301124483e-17
3369.0 9.863411641775732e-17
3370.0 9.863407982428314e-17
3371.0 9.863404323082229e-17
3372.0 9.86340066373748e-17
3373.0 9.863397004394061e-17
3374.0 9.863393345051976e-17
3375.0 9.86338968571123e-17
3376.0 9.863386026371812e-17
3377.0 9.863382367033733e-17
3378.0 9.863378707696983e-17
3379.0 9.863375048361568e-17
3380.0 9.863371389027489e-17
3381.0 9.863367729694743e-17
3382.0 9.86336407036333e-17
3383.0 9.863360411033252e-17
3384.0 9.86335675170451e-17
3385.0 9.863353092377098e-17
3386.0 9.86334943305102e-17
3387.0 9.863345773726277e-17
3388.0 9.86334211440287e-17
3389.0 9.863338455080793e-17
3390.0 9.863334795760051e-17
3391.0 9.863331136440643e-17
3392.0 9.863327477122569e-17
3393.0 9.863323817805829e-17
3394.0 9.863320158490426e-17
3395.0 9.863316499176352e-17
3396.0 9.863312839863613e-17
3397.0 9.86330918055221e-17
3398.0 9.863305521242139e-17
3399.0 9.863301861933403e-17
3400.0 9.863298202625999e-17
3401.0 9.86329454331993e-17
3402.0 9.863290884015193e-17
3403.0 9.863287224711795e-17
3404.0 9.863283565409726e-17
3405.0 9.863279906108995e-17
3406.0 9.863276246809593e-17
3407.0 9.863272587511528e-17
3408.0 9.863268928214795e-17
3409.0 9.863265268919397e-17
3410.0 9.863261609625331e-17
3411.0 9.863257950332603e-17
3412.0 9.863254291041206e-17
3413.0 9.863250631751142e-17
3414.0 9.863246972462414e-17
3415.0 9.863243313175018e-17
3416.0 9.863239653888955e-17
3417.0 9.863235994604229e-17
3418.0 9.863232335320835e-17
3419.0 9.863228676038776e-17
3420.0 9.86322501675805e-17
3421.0 9.863221357478658e-17
3422.0 9.8632176982006e-17
3423.0 9.863214038923873e-17
3424.0 9.863210379648485e-17
3425.0 9.863206720374427e-17
3426.0 9.863203061101706e-17
3427.0 9.863199401830315e-17
3428.0 9.863195742560261e-17
3429.0 9.863192083291538e-17
3430.0 9.863188424024151e-17
3431.0 9.863184764758096e-17
3432.0 9.863181105493379e-17
3433.0 9.863177446229991e-17
3434.0 9.863173786967938e-17
3435.0 9.86317012770722e-17
3436.0 9.863166468447835e-17
3437.0 9.863162809189786e-17
3438.0 9.863159149933068e-17
3439.0 9.863155490677685e-17
3440.0 9.863151831423636e-17
3441.0 9.86314817217092e-17
3442.0 9.863144512919537e-17
3443.0 9.863140853669491e-17
3444.0 9.863137194420779e-17
3445.0 9.863133535173397e-17
3446.0 9.863129875927352e-17
3447.0 9.863126216682638e-17
3448.0 9.863122557439259e-17
3449.0 9.863118898197212e-17
3450.0 9.863115238956505e-17
3451.0 9.863111579717126e-17
3452.0 9.863107920479084e-17
3453.0 9.863104261242373e-17
3454.0 9.863100602006996e-17
3455.0 9.863096942772956e-17
3456.0 9.863093283540247e-17
3457.0 9.863089624308874e-17
3458.0 9.863085965078832e-17
3459.0 9.863082305850127e-17
3460.0 9.863078646622756e-17
3461.0 9.863074987396713e-17
3462.0 9.863071328172011e-17
3463.0 9.863067668948639e-17
3464.0 9.863064009726602e-17
3465.0 9.863060350505897e-17
3466.0 9.863056691286527e-17
3467.0 9.863053032068492e-17
3468.0 9.863049372851791e-17
3469.0 9.86304571363642e-17
3470.0 9.863042054422385e-17
3471.0 9.863038395209685e-17
3472.0 9.863034735998318e-17
3473.0 9.863031076788284e-17
3474.0 9.863027417579585e-17
3475.0 9.863023758372221e-17
3476.0 9.86302009916619e-17
3477.0 9.863016439961493e-17
3478.0 9.863012780758128e-17
3479.0 9.863009121556098e-17
3480.0 9.863005462355401e-17
3481.0 9.863001803156037e-17
3482.0 9.862998143958008e-17
3483.0 9.862994484761314e-17
3484.0 9.862990825565955e-17
3485.0 9.862987166371925e-17
3486.0 9.862983507179231e-17
3487.0 9.862979847987873e-17
3488.0 9.862976188797847e-17
3489.0 9.862972529609155e-17
3490.0 9.862968870421797e-17
3491.0 9.862965211235771e-17
3492.0 9.862961552051081e-17
3493.0 9.862957892867723e-17
3494.0 9.862954233685699e-17
3495.0 9.86295057450501e-17
3496.0 9.862946915325656e-17
3497.0 9.862943256147632e-17
3498.0 9.862939596970946e-17
3499.0 9.862935937795592e-17
3500.0 9.862932278621571e-17
3500.76 -6.6349e-18
3501.53 7.1327e-19
3502.29 1.0206e-17
3503.06 -2.6635e-18
3503.82 1.0141e-17
3504.59 -9.95e-18
3505.35 -8.7206e-18
3506.11 -8.9295e-18
3506.88 -2.6871e-17
3507.64 -1.3452e-17
3508.41 1.5416e-17
3509.17 -2.4611e-17
3509.94 -1.0634e-17
3510.7 -5.0367e-18
3511.47 -2.3478e-17
3512.23 1.0593e-17
3512.99 2.7927e-18
3513.76 -5.616e-18
3514.52 1.9855e-19
3515.29 -2.3155e-18
3516.05 -2.5951e-17
3516.82 -1.0265e-18
3517.58 3.0096e-17
3518.34 -5.6053e-18
3519.11 -2.4119e-17
3519.87 1.0141e-18
3520.64 -2.4034e-18
3521.4 -1.4131e-17
3522.17 -7.3373e-18
3522.93 7.1743e-18
3523.7 -1.1825e-17
3524.46 -2.0456e-17
3525.22 -2.0232e-17
3525.99 2.4521e-17
3526.75 -3.6858e-17
3527.52 -3.0401e-17
3528.28 -2.968e-17
3529.05 4.7416e-18
3529.81 -1.0232e-17
3530.57 -2.6025e-17
3531.34 -3.2269e-18
3532.1 1.1341e-17
3532.87 7.7461e-18
3533.63 4.6349e-19
3534.4 -6.7155e-19
3535.16 -2.3265e-17
3535.92 -1.5751e-17
3536.69 -8.7042e-18
3537.45 3.8385e-18
3538.22 -3.732e-18
3538.98 -2.1971e-17
3539.75 1.0187e-17
3540.51 4.6297e-19
3541.28 -2.9992e-17
3542.04 -1.1189e-17
3542.8 -2.5972e-17
3543.57 -3.8701e-17
3544.33 -3.7907e-18
3545.1 -2.5949e-17
3545.86 -2.8495e-17
3546.63 -4.4324e-18
3547.39 -2.4398e-17
3548.15 -1.3021e-17
3548.92 -1.5949e-17
3549.68 -1.5575e-17
3550.45 -5.1336e-17
3551.21 -4.3186e-18
3551.98 -1.8546e-17
3552.74 -1.3072e-17
3553.51 -2.7338e-17
3554.27 -2.1603e-17
3555.03 2.224e-18
3555.8 -8.1162e-18
3556.56 -2.6608e-17
3557.33 -2.5426e-17
3558.09 -4.1934e-18
3558.86 -2.7266e-17
3559.62 -3.3338e-17
3560.38 -2.0836e-17
3561.15 -8.4342e-18
3561.91 3.8584e-18
3562.68 -2.4479e-17
3563.44 -1.9698e-17
3564.21 -3.1008e-18
3564.97 1.0206e-17
3565.73 2.607e-17
3566.5 -3.0279e-18
3567.26 -3.4312e-18
3568.03 5.9592e-18
3568.79 -6.4265e-18
3569.56 -1.7202e-18
3570.32 2.3265e-18
3571.09 1.2229e-17
3571.85 2.0175e-18
3572.61 -1.0005e-18
3573.38 4.3267e-18
3574.14 -2.4754e-18
3574.91 -2.0122e-17
3575.67 1.2125e-18
3576.44 -5.0831e-18
3577.2 1.5473e-17
3577.96 2.1671e-17
3578.73 1.8315e-17
3579.49 -1.2611e-18
3580.26 -1.4418e-17
3581.02 2.0208e-17
3581.79 -8.6803e-18
3582.55 2.4773e-19
3583.32 7.7869e-18
3584.08 1.2444e-17
3584.84 -4.3934e-18
3585.61 -1.8575e-17
3586.37 -2.4811e-18
3587.14 -1.8089e-18
3587.9 8.0674e-18
3588.67 -2.058e-18
3589.43 8.7884e-21
3590.19 -3.7425e-18
3590.96 -2.6398e-17
3591.72 3.3267e-18
3592.49 -2.8807e-18
3593.25 -8.463e-18
3594.02 -1.3945e-17
3594.78 1.1785e-18
3595.54 -7.2841e-18
3596.31 -5.6471e-19
3597.07 -2.189e-17
3597.84 9.2429e-18
3598.6 4.7023e-18
3599.37 -2.7753e-17
3600.13 -2.559e-18
3600.9 3.3438e-18
3601.66 -2.2474e-18
3602.42 5.0502e-18
3603.19 1.421e-18
3603.95 1.8697e-18
3604.72 5.576e-18
3605.48 -5.8177e-18
3606.25 -1.0608e-17
3607.01 1.3945e-18
3607.77 1.0963e-17
3608.54 2.0237e-17
3609.3 2.3806e-18
3610.07 2.212e-17
3610.83 1.0184e-17
3611.6 -1.4297e-17
3612.36 9.8064e-19
3613.13 1.8084e-17
3613.89 1.1239e-17
3614.65 1.2015e-17
3615.42 8.3675e-18
3616.18 -4.6087e-18
3616.95 -1.3122e-17
3617.71 1.2803e-17
3618.48 1.3354e-18
3619.24 -5.5703e-18
3620.0 1.6942e-18
3620.77 3.5353e-18
3621.53 -1.6623e-17
3622.3 -2.9246e-18
3623.06 7.7615e-18
3623.83 -1.199e-17
3624.59 3.9051e-18
3625.35 -1.65e-18
3626.12 -1.7656e-17
3626.88 3.1419e-18
3627.65 2.3302e-17
3628.41 -7.5866e-18
3629.18 -4.1405e-18
3629.94 2.0482e-17
3630.71 -2.3377e-18
3631.47 3.6945e-19
3632.23 -5.8193e-18
3633.0 1.4303e-17
3633.76 2.7123e-17
3634.53 -1.4933e-18
3635.29 1.7497e-17
3636.06 3.7104e-18
3636.82 8.7539e-18
3637.58 -4.9563e-18
3638.35 8.9693e-18
3639.11 6.4017e-18
3639.88 3.5299e-18
3640.64 -8.3295e-19
3641.41 8.3171e-18
3642.17 1.2579e-17
3642.94 1.7525e-18
3643.7 1.5329e-17
3644.46 1.6743e-17
3645.23 9.0575e-18
3645.99 1.435e-17
3646.76 3.2776e-17
3647.52 1.2119e-17
3648.29 8.5706e-18
3649.05 1.8689e-17
3649.81 1.5702e-18
3650.58 -1.7528e-17
3651.34 5.839e-18
3652.11 5.6235e-18
3652.87 1.0453e-17
3653.64 1.5673e-17
3654.4 6.3946e-18
3655.16 1.0384e-17
3655.93 4.3817e-18
3656.69 1.3604e-17
3657.46 -1.0654e-18
3658.22 2.2557e-17
3658.99 1.8257e-17
3659.75 1.072e-18
3660.52 1.3649e-17
3661.28 1.3608e-17
3662.04 1.4656e-17
3662.81 1.4714e-17
3663.57 6.1258e-18
3664.34 1.0419e-17
3665.1 1.0169e-17
3665.87 9.8517e-18
3666.63 1.0263e-17
3667.39 1.5363e-17
3668.16 1.5322e-17
3668.92 1.5072e-17
3669.69 1.5516e-17
3670.45 7.3176e-18
3671.22 -1.2676e-18
3671.98 4.295e-18
3672.75 6.2264e-18
3673.51 2.0646e-17
3674.27 -4.5234e-18
3675.04 1.3196e-17
3675.8 7.8666e-18
3676.57 2.0711e-17
3677.33 1.3614e-17
3678.1 -4.9797e-19
3678.86 6.3858e-18
3679.62 -7.1633e-18
3680.39 2.2123e-17
3681.15 2.8345e-17
3681.92 3.0838e-17
3682.68 1.0387e-17
3683.45 1.7952e-17
3684.21 2.1068e-17
3684.97 9.8648e-18
3685.74 1.1677e-17
3686.5 1.0025e-17
3687.27 1.5103e-17
3688.03 2.2549e-17
3688.8 1.7663e-17
3689.56 1.1153e-17
3690.33 4.27e-18
3691.09 9.925e-18
3691.85 1.9855e-17
3692.62 1.8018e-17
3693.38 1.8265e-17
3694.15 8.4171e-18
3694.91 1.5938e-17
3695.68 1.6276e-17
3696.44 1.4274e-17
3697.2 2.174e-17
3697.97 1.9464e-17
3698.73 1.269e-17
3699.5 1.4898e-17
3700.26 1.3797e-17
3701.03 1.8777e-17
3701.79 6.7194e-18
3702.56 5.8235e-18
3703.32 9.4798e-18
3704.08 1.8297e-17
3704.85 1.6968e-17
3705.61 1.2965e-17
3706.38 2.0503e-17
3707.14 7.4532e-18
3707.91 2.2907e-17
3708.67 6.1727e-18
3709.43 1.7863e-17
3710.2 1.2509e-17
3710.96 7.3506e-18
3711.73 1.2358e-17
3712.49 1.7703e-17
3713.26 2.0354e-17
3714.02 1.6949e-17
3714.78 2.2874e-17
3715.55 2.7712e-17
3716.31 2.5365e-17
3717.08 2.7315e-17
3717.84 1.8091e-17
3718.61 1.8364e-17
3719.37 9.8562e-18
3720.14 2.0169e-17
3720.9 1.9723e-17
3721.66 1.0775e-17
3722.43 2.2275e-17
3723.19 2.0187e-17
3723.96 1.7502e-17
3724.72 1.7819e-17
3725.49 1.8332e-17
3726.25 2.2849e-17
3727.01 2.333e-17
3727.78 2.711e-17
3728.54 2.8073e-17
3729.31 2.6822e-17
3730.07 1.7147e-17
3730.84 2.8631e-17
3731.6 2.1619e-17
3732.37 2.1102e-17
3733.13 1.7966e-17
3733.89 4.5606e-17
3734.66 4.1824e-17
3735.42 3.246e-17
3736.19 2.162e-17
3736.95 1.6865e-17
3737.72 3.1371e-17
3738.48 2.9276e-17
3739.24 3.0492e-17
3740.01 2.5053e-17
3740.77 2.2957e-17
3741.54 -2.5394e-17
3742.3 -8.1434e-17
3743.07 -5.6538e-17
3743.83 -3.4893e-17
3744.59 -9.7509e-17
3745.36 -2.8304e-17
3746.12 3.443e-17
3746.89 4.1904e-17
3747.65 4.4938e-17
3748.42 2.9192e-17
3749.18 2.5203e-17
3749.95 2.3621e-17
3750.71 3.3842e-17
3751.47 3.0506e-17
3752.24 2.3551e-17
3753.0 2.2713e-17
3753.77 3.7032e-17
3754.53 3.6464e-17
3755.3 3.7836e-17
3756.06 5.3287e-17
3756.82 4.785e-17
3757.59 4.2568e-17
3758.35 4.8567e-17
3759.12 4.3532e-17
3759.88 3.3247e-17
3760.65 4.1689e-17
3761.41 4.286e-17
3762.18 3.7638e-17
3762.94 3.2082e-17
3763.7 2.7356e-17
3764.47 3.4556e-17
3765.23 2.8915e-17
3766.0 2.1624e-17
3766.76 3.0499e-17
3767.53 3.2246e-17
3768.29 4.057e-17
3769.05 3.656e-17
3769.82 2.3673e-17
3770.58 3.3663e-17
3771.35 3.5637e-17
3772.11 4.1644e-17
3772.88 3.9211e-17
3773.64 4.4897e-17
3774.4 4.7209e-17
3775.17 4.5711e-17
3775.93 3.9226e-17
3776.7 3.977e-17
3777.46 4.5106e-17
3778.23 3.9352e-17
3778.99 3.643e-17
3779.76 4.0326e-17
3780.52 4.5393e-17
3781.28 4.1258e-17
3782.05 4.1417e-17
3782.81 3.5719e-17
3783.58 3.0326e-17
3784.34 4.4054e-17
3785.11 4.8146e-17
3785.87 2.913e-17
3786.63 3.5811e-17
3787.4 3.3706e-17
3788.16 2.901e-17
3788.93 3.129e-17
3789.69 3.1965e-17
3790.46 4.3729e-17
3791.22 3.2849e-17
3791.99 4.4542e-17
3792.75 4.4051e-17
3793.51 3.9181e-17
3794.28 4.2999e-17
3795.04 4.5863e-17
3795.81 4.0624e-17
3796.57 5.0668e-17
3797.34 4.8271e-17
3798.1 4.7259e-17
3798.86 4.308e-17
3799.63 4.3085e-17
3800.39 3.4561e-17
3801.16 5.6138e-17
3801.92 5.1708e-17
3802.69 4.4687e-17
3803.45 4.655e-17
3804.22 3.7809e-17
3804.98 3.5099e-17
3805.74 3.3784e-17
3806.51 4.6608e-17
3807.27 4.2971e-17
3808.04 3.6297e-17
3808.8 2.6886e-17
3809.57 2.9484e-17
3810.33 3.0096e-17
3811.09 2.841e-17
3811.86 2.6479e-17
3812.62 2.5109e-17
3813.39 2.5486e-17
3814.15 2.644e-17
3814.92 2.8557e-17
3815.68 3.5096e-17
3816.44 2.931e-17
3817.21 3.3164e-17
3817.97 4.1225e-17
3818.74 4.2973e-17
3819.5 3.8858e-17
3820.27 3.8512e-17
3821.03 4.515e-17
3821.8 4.5706e-17
3822.56 3.1567e-17
3823.32 4.958e-17
3824.09 4.8915e-17
3824.85 5.3268e-17
3825.62 5.1906e-17
3826.38 4.9278e-17
3827.15 5.2316e-17
3827.91 4.7819e-17
3828.67 4.6999e-17
3829.44 4.9097e-17
3830.2 5.1945e-17
3830.97 4.9332e-17
3831.73 5.0075e-17
3832.5 4.5662e-17
3833.26 4.6931e-17
3834.03 4.4865e-17
3834.79 5.1905e-17
3835.55 3.5318e-17
3836.32 3.6167e-17
3837.08 5.0938e-17
3837.85 4.1925e-17
3838.61 4.3925e-17
3839.38 3.8931e-17
3840.14 3.728e-17
3840.9 4.7578e-17
3841.67 3.2424e-17
3842.43 3.8885e-17
3843.2 3.0539e-17
3843.96 3.1087e-17
3844.73 3.2204e-17
3845.49 3.3312e-17
3846.25 3.4229e-17
3847.02 2.8084e-17
3847.78 3.3651e-17
3848.55 3.8277e-17
3849.31 2.8213e-17
3850.08 1.5762e-17
3850.84 1.4476e-17
3851.61 2.092e-17
3852.37 2.5429e-17
3853.13 2.2739e-17
3853.9 3.5555e-17
3854.66 3.3412e-17
3855.43 3.295e-17
3856.19 3.4985e-17
3856.96 4.0258e-17
3857.72 3.9144e-17
3858.48 4.4603e-17
3859.25 3.1721e-17
3860.01 3.2181e-17
3860.78 3.878e-17
3861.54 4.5079e-17
3862.31 4.5634e-17
3863.07 4.3049e-17
3863.84 4.2703e-17
3864.6 3.557e-17
3865.36 3.9006e-17
3866.13 3.7255e-17
3866.89 3.9611e-17
3867.66 3.2784e-17
3868.42 3.8801e-17
3869.19 3.8388e-17
3869.95 3.619e-17
3870.71 4.3349e-17
3871.48 3.7487e-17
3872.24 3.4495e-17
3873.01 3.0791e-17
3873.77 3.7512e-17
3874.54 3.4931e-17
3875.3 3.5335e-17
3876.06 4.6124e-17
3876.83 4.1923e-17
3877.59 3.7917e-17
3878.36 4.0798e-17
3879.12 3.5701e-17
3879.89 4.0377e-17
3880.65 4.5586e-17
3881.42 3.6623e-17
3882.18 4.4378e-17
3882.94 4.1246e-17
3883.71 3.9887e-17
3884.47 4.1358e-17
3885.24 3.3853e-17
3886.0 3.9128e-17
3886.77 3.5658e-17
3887.53 4.3921e-17
3888.29 4.2116e-17
3889.06 3.789e-17
3889.82 3.8889e-17
3890.59 4.964e-17
3891.35 4.4084e-17
3892.12 4.5871e-17
3892.88 3.8108e-17
3893.65 3.5508e-17
3894.41 4.2167e-17
3895.17 3.5672e-17
3895.94 3.4612e-17
3896.7 3.6568e-17
3897.47 3.8867e-17
3898.23 3.8088e-17
3899.0 3.6775e-17
3899.76 3.0996e-17
3900.52 2.9359e-17
3901.29 2.3889e-17
3902.05 2.7783e-17
3902.82 3.0392e-17
3903.58 2.443e-17
3904.35 3.6446e-17
3905.11 1.7111e-17
3905.87 1.489e-17
3906.64 2.127e-17
3907.4 2.2441e-17
3908.17 2.9144e-17
3908.93 3.3594e-17
3909.7 3.1772e-17
3910.46 2.7378e-17
3911.23 3.243e-17
3911.99 2.5818e-17
3912.75 3.7856e-17
3913.52 4.4484e-17
3914.28 4.3244e-17
3915.05 2.6877e-17
3915.81 3.5619e-17
3916.58 4.0252e-17
3917.34 3.3445e-17
3918.1 4.2407e-17
3918.87 3.9579e-17
3919.63 4.4287e-17
3920.4 4.616e-17
3921.16 4.6321e-17
3921.93 3.2394e-17
3922.69 4.383e-17
3923.46 4.5578e-17
3924.22 3.4162e-17
3924.98 4.8625e-17
3925.75 5.3057e-17
3926.51 4.8108e-17
3927.28 4.7128e-17
3928.04 4.3345e-17
3928.81 5.3217e-17
3929.57 5.4479e-17
3930.33 7.7408e-17
3931.1 3.166e-16
3931.86 2.2457e-15
3932.63 6.4647e-15
3933.39 7.4385e-15
3934.16 2.9652e-15
3934.92 3.6958e-16
3935.68 9.1537e-17
3936.45 5.3147e-17
3937.21 5.2001e-17
3937.98 5.2241e-17
3938.74 4.9336e-17
3939.51 4.91e-17
3940.27 4.9202e-17
3941.04 4.4917e-17
3941.8 5.02e-17
3942.56 5.7265e-17
3943.33 5.2256e-17
3944.09 6.1704e-17
3944.86 5.5671e-17
3945.62 5.2616e-17
3946.39 4.9522e-17
3947.15 5.2236e-17
3947.91 4.9427e-17
3948.68 3.8405e-17
3949.44 4.2388e-17
3950.21 4.8517e-17
3950.97 4.9211e-17
3951.74 5.8388e-17
3952.5 5.9685e-17
3953.27 5.4383e-17
3954.03 5.775e-17
3954.79 5.2102e-17
3955.56 6.5285e-17
3956.32 6.414e-17
3957.09 5.8907e-17
3957.85 6.5579e-17
3958.62 6.331e-17
3959.38 7.0054e-17
3960.14 6.8542e-17
3960.91 7.6932e-17
3961.67 7.6442e-17
3962.44 6.7783e-17
3963.2 6.6723e-17
3963.97 6.8386e-17
3964.73 7.0039e-17
3965.49 7.6557e-17
3966.26 7.1019e-17
3967.02 6.6777e-17
3967.79 6.8006e-17
3968.55 6.8136e-17
3969.32 7.3411e-17
3970.08 7.3805e-17
3970.85 7.1254e-17
3971.61 7.1966e-17
3972.37 7.5237e-17
3973.14 5.5348e-17
3973.9 6.4574e-17
3974.67 6.9036e-17
3975.43 7.3672e-17
3976.2 7.2372e-17
3976.96 6.5927e-17
3977.72 6.1578e-17
3978.49 6.1463e-17
3979.25 6.2072e-17
3980.02 5.8955e-17
3980.78 6.0279e-17
3981.55 5.5764e-17
3982.31 5.8192e-17
3983.08 5.1963e-17
3983.84 4.7554e-17
3984.6 4.6605e-17
3985.37 4.0693e-17
3986.13 3.9137e-17
3986.9 4.4207e-17
3987.66 3.7226e-17
3988.43 4.4486e-17
3989.19 4.9e-17
3989.95 5.8903e-17
3990.72 6.4538e-17
3991.48 5.6475e-17
3992.25 5.7861e-17
3993.01 5.7186e-17
3993.78 6.5211e-17
3994.54 6.563e-17
3995.3 6.3718e-17
3996.07 6.6025e-17
3996.83 6.656e-17
3997.6 6.979e-17
3998.36 6.007e-17
3999.13 6.2066e-17
3999.89 5.5766e-17
4000.66 5.82e-17
4001.42 7.1255e-17
4002.18 6.0776e-17
4002.95 5.3495e-17
4003.71 6.4909e-17
4004.48 7.3657e-17
4005.24 7.0072e-17
4006.01 7.1366e-17
4006.77 6.4505e-17
4007.53 6.5158e-17
4008.3 6.5499e-17
4009.06 6.6732e-17
4009.83 7.0141e-17
4010.59 6.7523e-17
4011.36 7.2059e-17
4012.12 7.2267e-17
4012.89 6.5825e-17
4013.65 6.5032e-17
4014.41 7.0624e-17
4015.18 6.395e-17
4015.94 6.2471e-17
4016.71 7.1068e-17
4017.47 6.3815e-17
4018.24 6.7824e-17
4019.0 7.3437e-17
4019.76 6.3715e-17
4020.53 7.6746e-17
4021.29 6.1915e-17
4022.06 6.3273e-17
4022.82 6.2574e-17
4023.59 5.7173e-17
4024.35 6.0869e-17
4025.11 6.6071e-17
4025.88 6.4498e-17
4026.64 5.6396e-17
4027.41 6.1629e-17
4028.17 6.0647e-17
4028.94 6.1466e-17
4029.7 5.5396e-17
4030.47 6.8431e-17
4031.23 5.7492e-17
4031.99 5.9664e-17
4032.76 6.4212e-17
4033.52 6.1747e-17
4034.29 6.356e-17
4035.05 5.5908e-17
4035.82 6.3866e-17
4036.58 5.2635e-17
4037.34 5.6242e-17
4038.11 5.467e-17
4038.87 6.0281e-17
4039.64 5.5368e-17
4040.4 5.6736e-17
4041.17 5.6783e-17
4041.93 5.4072e-17
4042.7 5.5874e-17
4043.46 5.7193e-17
4044.22 5.5349e-17
4044.99 6.0929e-17
4045.75 6.2485e-17
4046.52 5.4774e-17
4047.28 5.9869e-17
4048.05 5.7543e-17
4048.81 5.4043e-17
4049.57 5.613e-17
4050.34 5.304e-17
4051.1 6.642e-17
4051.87 6.6141e-17
4052.63 6.1041e-17
4053.4 6.7071e-17
4054.16 6.5038e-17
4054.92 7.2728e-17
4055.69 7.2875e-17
4056.45 6.7394e-17
4057.22 7.0906e-17
4057.98 7.4268e-17
4058.75 7.3273e-17
4059.51 7.1777e-17
4060.28 6.8861e-17
4061.04 7.2808e-17
4061.8 7.4549e-17
4062.57 8.3386e-17
4063.33 8.4414e-17
4064.1 8.1784e-17
4064.86 8.8228e-17
4065.63 8.2869e-17
4066.39 8.0097e-17
4067.15 8.4515e-17
4067.92 1.0284e-16
4068.68 8.7959e-17
4069.45 9.1858e-17
4070.21 1.0121e-16
4070.98 1.0735e-16
4071.74 1.1035e-16
4072.51 1.1823e-16
4073.27 1.1173e-16
4074.03 1.1186e-16
4074.8 1.1265e-16
4075.56 1.127e-16
4076.33 1.1652e-16
4077.09 1.1915e-16
4077.86 1.1185e-16
4078.62 1.146e-16
4079.38 1.1464e-16
4080.15 1.034e-16
4080.91 1.0347e-16
4081.68 1.0577e-16
4082.44 1.1522e-16
4083.21 1.1072e-16
4083.97 1.0874e-16
4084.73 1.1519e-16
4085.5 1.0351e-16
4086.26 9.9139e-17
4087.03 9.9686e-17
4087.79 9.5643e-17
4088.56 1.0252e-16
4089.32 1.0213e-16
4090.09 9.5445e-17
4090.85 9.9401e-17
4091.61 9.9733e-17
4092.38 1.0184e-16
4093.14 1.0727e-16
4093.91 1.0735e-16
4094.67 1.0418e-16
4095.44 1.0314e-16
4096.2 1.0429e-16
4096.96 1.0587e-16
4097.73 1.0315e-16
4098.49 1.0106e-16
4099.26 1.0349e-16
4100.02 1.0412e-16
4100.79 1.0157e-16
4101.55 1.0163e-16
4102.32 1.1224e-16
4103.08 1.066e-16
4103.84 1.0547e-16
4104.61 9.8684e-17
4105.37 9.5675e-17
4106.14 1.0218e-16
4106.9 9.9251e-17
4107.67 9.2518e-17
4108.43 9.5933e-17
4109.19 9.0921e-17
4109.96 9.6583e-17
4110.72 9.3312e-17
4111.49 9.4183e-17
4112.25 9.1508e-17
4113.02 8.1901e-17
4113.78 8.7639e-17
4114.54 8.7723e-17
4115.31 7.9949e-17
4116.07 8.5692e-17
4116.84 8.3527e-17
4117.6 8.0722e-17
4118.37 7.8969e-17
4119.13 6.7829e-17
4119.9 6.1761e-17
4120.66 6.5963e-17
4121.42 8.5888e-17
4122.19 9.2099e-17
4122.95 8.6585e-17
4123.72 8.9259e-17
4124.48 9.0622e-17
4125.25 8.07e-17
4126.01 8.9777e-17
4126.77 8.0439e-17
4127.54 7.9049e-17
4128.3 7.6733e-17
4129.07 8.3042e-17
4129.83 8.7438e-17
4130.6 8.6149e-17
4131.36 8.8178e-17
4132.13 8.1694e-17
4132.89 8.1546e-17
4133.65 8.7681e-17
4134.42 8.0106e-17
4135.18 7.8145e-17
4135.95 7.6072e-17
4136.71 7.2939e-17
4137.48 6.6114e-17
4138.24 7.4552e-17
4139.0 7.458e-17
4139.77 7.9733e-17
4140.53 9.5735e-17
4141.3 9.884e-17
4142.06 8.4314e-17
4142.83 7.081e-17
4143.59 7.0498e-17
4144.35 7.0631e-17
4145.12 7.7256e-17
4145.88 7.0033e-17
4146.65 6.4128e-17
4147.41 6.7018e-17
4148.18 6.2468e-17
4148.94 6.3181e-17
4149.71 6.2432e-17
4150.47 6.899e-17
4151.23 6.3987e-17
4152.0 6.3229e-17
4152.76 6.708e-17
4153.53 6.4961e-17
4154.29 6.6653e-17
4155.06 6.9357e-17
4155.82 7.07e-17
4156.58 6.8686e-17
4157.35 6.8143e-17
4158.11 6.3415e-17
4158.88 6.7841e-17
4159.64 6.2533e-17
4160.41 6.4479e-17
4161.17 6.2678e-17
4161.94 5.9143e-17
4162.7 6.5248e-17
4163.46 6.4029e-17
4164.23 6.9845e-17
4164.99 6.4974e-17
4165.76 6.3483e-17
4166.52 6.614e-17
4167.29 5.9127e-17
4168.05 5.9561e-17
4168.81 6.3555e-17
4169.58 6.5389e-17
4170.34 6.956e-17
4171.11 5.8685e-17
4171.87 6.127e-17
4172.64 6.4668e-17
4173.4 5.6877e-17
4174.16 5.9564e-17
4174.93 6.0696e-17
4175.69 5.9667e-17
4176.46 6.4676e-17
4177.22 6.0843e-17
4177.99 6.0507e-17
4178.75 5.7257e-17
4179.52 5.461e-17
4180.28 5.4405e-17
4181.04 5.9854e-17
4181.81 5.705e-17
4182.57 5.8541e-17
4183.34 5.5651e-17
4184.1 6.1405e-17
4184.87 5.6179e-17
4185.63 5.5532e-17
4186.39 5.799e-17
4187.16 5.3548e-17
4187.92 5.6298e-17
4188.69 5.7846e-17
4189.45 6.0827e-17
4190.22 6.1786e-17
4190.98 5.388e-17
4191.75 5.3415e-17
4192.51 5.9173e-17
4193.27 5.765e-17
4194.04 5.4807e-17
4194.8 4.8328e-17
4195.57 5.2741e-17
4196.33 5.6427e-17
4197.1 5.6123e-17
4197.86 6.2227e-17
4198.62 6.3418e-17
4199.39 7.8627e-17
4200.15 1.0001e-16
4200.92 8.4435e-17
4201.68 6.3167e-17
4202.45 6.0688e-17
4203.21 5.8742e-17
4203.97 5.4152e-17
4204.74 5.7078e-17
4205.5 5.7961e-17
4206.27 5.9336e-17
4207.03 5.0912e-17
4207.8 5.9278e-17
4208.56 5.5179e-17
4209.33 5.9356e-17
4210.09 4.9908e-17
4210.85 5.8725e-17
4211.62 5.5363e-17
4212.38 5.3918e-17
4213.15 5.6163e-17
4213.91 5.4548e-17
4214.68 6.0405e-17
4215.44 5.4682e-17
4216.2 5.8022e-17
4216.97 5.532e-17
4217.73 6.139e-17
4218.5 6.6875e-17
4219.26 6.3951e-17
4220.03 6.5427e-17
4220.79 5.9102e-17
4221.56 6.075e-17
4222.32 5.7777e-17
4223.08 6.2932e-17
4223.85 6.4529e-17
4224.61 6.3823e-17
4225.38 6.7361e-17
4226.14 7.0341e-17
4226.91 7.8417e-17
4227.67 7.0581e-17
4228.43 7.0968e-17
4229.2 7.1635e-17
4229.96 6.8462e-17
4230.73 6.9855e-17
4231.49 7.2436e-17
4232.26 7.6752e-17
4233.02 7.0928e-17
4233.78 7.5789e-17
4234.55 7.8694e-17
4235.31 7.869e-17
4236.08 8.0841e-17
4236.84 8.1176e-17
4237.61 7.4332e-17
4238.37 7.9436e-17
4239.14 7.6971e-17
4239.9 7.7345e-17
4240.66 7.7689e-17
4241.43 7.5758e-17
4242.19 7.167e-17
4242.96 8.5316e-17
4243.72 7.6453e-17
4244.49 7.0414e-17
4245.25 7.7328e-17
4246.01 7.3377e-17
4246.78 7.731e-17
4247.54 7.0646e-17
4248.31 7.0097e-17
4249.07 7.0478e-17
4249.84 7.0433e-17
4250.6 6.5944e-17
4251.37 5.8626e-17
4252.13 6.4542e-17
4252.89 6.3112e-17
4253.66 6.9497e-17
4254.42 5.6969e-17
4255.19 5.8545e-17
4255.95 5.8918e-17
4256.72 5.7424e-17
4257.48 5.3491e-17
4258.24 5.5551e-17
4259.01 5.5931e-17
4259.77 5.8688e-17
4260.54 6.0055e-17
4261.3 5.8113e-17
4262.07 5.3129e-17
4262.83 5.3202e-17
4263.59 5.7862e-17
4264.36 5.6161e-17
4265.12 5.382e-17
4265.89 5.231e-17
4266.65 5.8056e-17
4267.42 5.1142e-17
4268.18 5.0614e-17
4268.95 5.6461e-17
4269.71 5.1567e-17
4270.47 5.1052e-17
4271.24 5.2183e-17
4272.0 5.3275e-17
4272.77 5.5913e-17
4273.53 5.565e-17
4274.3 4.7803e-17
4275.06 5.0627e-17
4275.82 5.0526e-17
4276.59 5.0686e-17
4277.35 5.0677e-17
4278.12 5.1379e-17
4278.88 5.878e-17
4279.65 5.4755e-17
4280.41 5.1981e-17
4281.18 4.8055e-17
4281.94 5.4367e-17
4282.7 5.6106e-17
4283.47 4.7087e-17
4284.23 4.9409e-17
4285.0 5.5433e-17
4285.76 5.3561e-17
4286.53 5.1237e-17
4287.29 5.1982e-17
4288.05 5.3983e-17
4288.82 5.6463e-17
4289.58 4.935e-17
4290.35 4.552e-17
4291.11 5.6503e-17
4291.88 5.1717e-17
4292.64 4.8011e-17
4293.4 5.0612e-17
4294.17 5.7382e-17
4294.93 5.6078e-17
4295.7 5.2734e-17
4296.46 5.3693e-17
4297.23 5.8645e-17
4297.99 5.7772e-17
4298.76 5.9491e-17
4299.52 5.9212e-17
4300.28 5.8201e-17
4301.05 6.2863e-17
4301.81 6.0855e-17
4302.58 5.8324e-17
4303.34 6.0178e-17
4304.11 5.5652e-17
4304.87 5.9958e-17
4305.63 6.0535e-17
4306.4 6.1533e-17
4307.16 5.9391e-17
4307.93 5.869e-17
4308.69 6.6167e-17
4309.46 5.9624e-17
4310.22 6.0084e-17
4310.99 5.4426e-17
4311.75 6.0214e-17
4312.51 5.9693e-17
4313.28 6.0995e-17
4314.04 6.3501e-17
4314.81 6.136e-17
4315.57 6.2347e-17
4316.34 6.1121e-17
4317.1 5.9004e-17
4317.86 5.9657e-17
4318.63 5.8394e-17
4319.39 5.9109e-17
4320.16 6.4014e-17
4320.92 6.3001e-17
4321.69 5.9531e-17
4322.45 6.0379e-17
4323.21 6.0549e-17
4323.98 6.4567e-17
4324.74 6.2531e-17
4325.51 6.3552e-17
4326.27 6.4523e-17
4327.04 6.1039e-17
4327.8 6.304e-17
4328.57 6.6775e-17
4329.33 6.6654e-17
4330.09 7.0263e-17
4330.86 6.5863e-17
4331.62 6.1946e-17
4332.39 6.0648e-17
4333.15 5.7965e-17
4333.92 6.3521e-17
4334.68 6.6257e-17
4335.44 6.3112e-17
4336.21 6.4472e-17
4336.97 5.7618e-17
4337.74 5.8937e-17
4338.5 6.4557e-17
4339.27 5.6322e-17
4340.03 6.1535e-17
4340.8 5.6509e-17
4341.56 5.8262e-17
4342.32 5.8201e-17
4343.09 6.2255e-17
4343.85 5.8642e-17
4344.62 5.2352e-17
4345.38 5.9878e-17
4346.15 5.8771e-17
4346.91 5.4412e-17
4347.67 5.4096e-17
4348.44 5.4774e-17
4349.2 5.199e-17
4349.97 5.0829e-17
4350.73 4.8922e-17
4351.5 5.3624e-17
4352.26 5.153e-17
4353.02 4.637e-17
4353.79 4.9863e-17
4354.55 4.5931e-17
4355.32 4.6907e-17
4356.08 4.4091e-17
4356.85 4.7867e-17
4357.61 5.715e-17
4358.38 4.7486e-17
4359.14 2.0604e-17
4359.9 6.3412e-18
4360.67 3.3109e-17
4361.43 4.1124e-17
4362.2 4.3945e-17
4362.96 4.9715e-17
4363.73 4.9251e-17
4364.49 4.7116e-17
4365.25 4.838e-17
4366.02 4.7122e-17
4366.78 5.392e-17
4367.55 4.8664e-17
4368.31 5.2521e-17
4369.08 5.2178e-17
4369.84 5.3434e-17
4370.61 4.8205e-17
4371.37 4.8332e-17
4372.13 5.0768e-17
4372.9 5.2179e-17
4373.66 5.1347e-17
4374.43 5.7856e-17
4375.19 6.1169e-17
4375.96 6.0206e-17
4376.72 5.8084e-17
4377.48 5.417e-17
4378.25 5.6193e-17
4379.01 5.7816e-17
4379.78 6.2034e-17
4380.54 5.887e-17
4381.31 6.1423e-17
4382.07 5.8856e-17
4382.83 6.2705e-17
4383.6 6.3529e-17
4384.36 6.0761e-17
4385.13 6.0157e-17
4385.89 5.939e-17
4386.66 5.8601e-17
4387.42 5.7976e-17
4388.19 5.8873e-17
4388.95 5.7488e-17
4389.71 6.1322e-17
4390.48 5.7528e-17
4391.24 6.319e-17
4392.01 6.1521e-17
4392.77 5.8713e-17
4393.54 6.4232e-17
4394.3 6.3336e-17
4395.06 7.1688e-17
4395.83 6.8229e-17
4396.59 6.7858e-17
4397.36 6.133e-17
4398.12 6.7613e-17
4398.89 6.5435e-17
4399.65 6.6044e-17
4400.42 6.6489e-17
4401.18 5.9962e-17
4401.94 6.2495e-17
4402.71 6.3556e-17
4403.47 6.307e-17
4404.24 6.3741e-17
4405.0 6.2417e-17
4405.77 6.2824e-17
4406.53 6.5761e-17
4407.29 6.3721e-17
4408.06 6.3344e-17
4408.82 7.1753e-17
4409.59 6.5716e-17
4410.35 6.0499e-17
4411.12 6.0876e-17
4411.88 6.4423e-17
4412.65 6.6404e-17
4413.41 5.9498e-17
4414.17 6.4037e-17
4414.94 6.5045e-17
4415.7 6.6438e-17
4416.47 6.4415e-17
4417.23 6.0455e-17
4418.0 6.5494e-17
4418.76 6.4144e-17
4419.52 5.8593e-17
4420.29 6.2604e-17
4421.05 6.2429e-17
4421.82 6.0143e-17
4422.58 6.5573e-17
4423.35 6.3524e-17
4424.11 6.1635e-17
4424.87 6.113e-17
4425.64 6.2917e-17
4426.4 6.8607e-17
4427.17 6.4342e-17
4427.93 5.9669e-17
4428.7 5.9988e-17
4429.46 5.9416e-17
4430.23 6.2125e-17
4430.99 6.4989e-17
4431.75 6.044e-17
4432.52 6.2743e-17
4433.28 6.0088e-17
4434.05 5.9044e-17
4434.81 6.0446e-17
4435.58 6.223e-17
4436.34 6.3078e-17
4437.1 7.111e-17
4437.87 6.4747e-17
4438.63 6.0143e-17
4439.4 6.282e-17
4440.16 5.8688e-17
4440.93 6.4287e-17
4441.69 6.0742e-17
4442.46 6.1284e-17
4443.22 6.8299e-17
4443.98 7.1451e-17
4444.75 6.8806e-17
4445.51 7.2556e-17
4446.28 6.9695e-17
4447.04 7.5077e-17
4447.81 7.2669e-17
4448.57 7.0788e-17
4449.33 6.7667e-17
4450.1 7.4328e-17
4450.86 7.3542e-17
4451.63 7.0277e-17
4452.39 7.1474e-17
4453.16 7.1659e-17
4453.92 7.2656e-17
4454.68 8.1058e-17
4455.45 7.6166e-17
4456.21 7.5021e-17
4456.98 7.9191e-17
4457.74 8.1322e-17
4458.51 7.8541e-17
4459.27 7.69e-17
4460.04 8.3095e-17
4460.8 7.5427e-17
4461.56 7.7405e-17
4462.33 7.7388e-17
4463.09 6.9022e-17
4463.86 7.3215e-17
4464.62 6.7833e-17
4465.39 6.7007e-17
4466.15 7.308e-17
4466.91 6.926e-17
4467.68 6.8012e-17
4468.44 7.7512e-17
4469.21 7.1195e-17
4469.97 7.094e-17
4470.74 6.8097e-17
4471.5 6.6877e-17
4472.27 6.7276e-17
4473.03 6.8048e-17
4473.79 6.9833e-17
4474.56 7.1303e-17
4475.32 7.149e-17
4476.09 6.9279e-17
4476.85 7.3819e-17
4477.62 6.8823e-17
4478.38 6.5718e-17
4479.14 6.8329e-17
4479.91 6.4424e-17
4480.67 6.336e-17
4481.44 6.9978e-17
4482.2 6.3246e-17
4482.97 6.4648e-17
4483.73 6.3877e-17
4484.49 5.6908e-17
4485.26 6.1371e-17
4486.02 6.6253e-17
4486.79 5.8519e-17
4487.55 6.5861e-17
4488.32 5.9213e-17
4489.08 5.6335e-17
4489.85 6.2808e-17
4490.61 5.9231e-17
4491.37 5.8388e-17
4492.14 5.7181e-17
4492.9 5.6632e-17
4493.67 5.8406e-17
4494.43 5.899e-17
4495.2 6.1075e-17
4495.96 6.0552e-17
4496.72 5.8639e-17
4497.49 5.3738e-17
4498.25 6.2557e-17
4499.02 5.7379e-17
4499.78 5.0288e-17
4500.55 5.4727e-17
4501.31 5.2663e-17
4502.08 5.7461e-17
4502.84 5.5178e-17
4503.6 5.6097e-17
4504.37 5.6632e-17
4505.13 5.7494e-17
4505.9 4.8654e-17
4506.66 5.1438e-17
4507.43 5.3911e-17
4508.19 5.2365e-17
4508.95 5.3306e-17
4509.72 5.6656e-17
4510.48 5.5733e-17
4511.25 5.5144e-17
4512.01 4.7104e-17
4512.78 5.2354e-17
4513.54 5.2102e-17
4514.3 5.2046e-17
4515.07 4.9677e-17
4515.83 5.6822e-17
4516.6 5.7803e-17
4517.36 5.1173e-17
4518.13 4.9889e-17
4518.89 5.3781e-17
4519.66 5.0304e-17
4520.42 4.9641e-17
4521.18 5.3268e-17
4521.95 5.1686e-17
4522.71 5.3281e-17
4523.48 5.2437e-17
4524.24 5.7563e-17
4525.01 5.1842e-17
4525.77 5.3855e-17
4526.53 4.9269e-17
4527.3 4.8625e-17
4528.06 4.7759e-17
4528.83 5.1239e-17
4529.59 5.2131e-17
4530.36 5.052e-17
4531.12 5.2934e-17
4531.89 5.3783e-17
4532.65 5.5743e-17
4533.41 5.4414e-17
4534.18 6.036e-17
4534.94 5.8893e-17
4535.71 5.8443e-17
4536.47 5.6834e-17
4537.24 5.26e-17
4538.0 5.7314e-17
4538.76 5.7859e-17
4539.53 5.9569e-17
4540.29 5.7527e-17
4541.06 5.4168e-17
4541.82 5.7639e-17
4542.59 5.6622e-17
4543.35 5.8986e-17
4544.11 5.4595e-17
4544.88 5.8547e-17
4545.64 6.3378e-17
4546.41 6.1173e-17
4547.17 6.0223e-17
4547.94 6.2665e-17
4548.7 6.4417e-17
4549.47 6.2992e-17
4550.23 6.552e-17
4550.99 6.288e-17
4551.76 6.2968e-17
4552.52 6.546e-17
4553.29 6.5953e-17
4554.05 6.6274e-17
4554.82 6.5008e-17
4555.58 6.7175e-17
4556.34 6.8841e-17
4557.11 6.7077e-17
4557.87 7.0523e-17
4558.64 7.4835e-17
4559.4 7.3022e-17
4560.17 7.187e-17
4560.93 7.4658e-17
4561.7 7.139e-17
4562.46 7.5325e-17
4563.22 7.4411e-17
4563.99 7.6555e-17
4564.75 7.4434e-17
4565.52 7.9829e-17
4566.28 8.1873e-17
4567.05 8.2081e-17
4567.81 8.2864e-17
4568.57 8.0406e-17
4569.34 8.5225e-17
4570.1 8.5022e-17
4570.87 9.0848e-17
4571.63 9.1037e-17
4572.4 9.5877e-17
4573.16 9.3824e-17
4573.92 9.5946e-17
4574.69 9.7776e-17
4575.45 1.0092e-16
4576.22 1.0501e-16
4576.98 1.0864e-16
4577.75 1.0742e-16
4578.51 1.0624e-16
4579.28 1.1438e-16
4580.04 1.2028e-16
4580.8 1.1865e-16
4581.57 1.1968e-16
4582.33 1.2326e-16
4583.1 1.3022e-16
4583.86 1.288e-16
4584.63 1.3357e-16
4585.39 1.3149e-16
4586.15 1.3575e-16
4586.92 1.3907e-16
4587.68 1.3738e-16
4588.45 1.4246e-16
4589.21 1.3325e-16
4589.98 1.4156e-16
4590.74 1.3956e-16
4591.51 1.4037e-16
4592.27 1.3647e-16
4593.03 1.4014e-16
4593.8 1.3541e-16
4594.56 1.3795e-16
4595.33 1.3885e-16
4596.09 1.3264e-16
4596.86 1.3684e-16
4597.62 1.32e-16
4598.38 1.3332e-16
4599.15 1.2527e-16
4599.91 1.2879e-16
4600.68 1.2662e-16
4601.44 1.2665e-16
4602.21 1.2231e-16
4602.97 1.1585e-16
4603.73 1.1709e-16
4604.5 1.1901e-16
4605.26 1.1735e-16
4606.03 1.1457e-16
4606.79 1.1647e-16
4607.56 1.1514e-16
4608.32 1.1638e-16
4609.09 1.1516e-16
4609.85 1.1293e-16
4610.61 1.0622e-16
4611.38 1.1119e-16
4612.14 1.0782e-16
4612.91 1.1147e-16
4613.67 1.0954e-16
4614.44 1.1489e-16
4615.2 1.1276e-16
4615.96 1.1411e-16
4616.73 1.1056e-16
4617.49 1.0679e-16
4618.26 1.1525e-16
4619.02 1.1529e-16
4619.79 1.2128e-16
4620.55 1.2173e-16
4621.32 1.1907e-16
4622.08 1.1865e-16
4622.84 1.2064e-16
4623.61 1.2419e-16
4624.37 1.2135e-16
4625.14 1.2001e-16
4625.9 1.279e-16
4626.67 1.3053e-16
4627.43 1.2949e-16
4628.19 1.323e-16
4628.96 1.2469e-16
4629.72 1.3764e-16
4630.49 1.3202e-16
4631.25 1.3545e-16
4632.02 1.3591e-16
4632.78 1.3934e-16
4633.54 1.3469e-16
4634.31 1.3887e-16
4635.07 1.3892e-16
4635.84 1.3931e-16
4636.6 1.3176e-16
4637.37 1.3113e-16
4638.13 1.2963e-16
4638.9 1.2658e-16
4639.66 1.3023e-16
4640.42 1.3009e-16
4641.19 1.2903e-16
4641.95 1.2953e-16
4642.72 1.2656e-16
4643.48 1.2798e-16
4644.25 1.284e-16
4645.01 1.25e-16
4645.77 1.2103e-16
4646.54 1.2623e-16
4647.3 1.2554e-16
4648.07 1.2556e-16
4648.83 1.2005e-16
4649.6 1.2418e-16
4650.36 1.2427e-16
4651.13 1.2055e-16
4651.89 1.2959e-16
4652.65 1.2488e-16
4653.42 1.2521e-16
4654.18 1.2378e-16
4654.95 1.2961e-16
4655.71 1.2384e-16
4656.48 1.2609e-16
4657.24 1.3125e-16
4658.0 1.2973e-16
4658.77 1.3241e-16
4659.53 1.3285e-16
4660.3 1.395e-16
4661.06 1.3507e-16
4661.83 1.404e-16
4662.59 1.4372e-16
4663.35 1.4144e-16
4664.12 1.4403e-16
4664.88 1.4449e-16
4665.65 1.4663e-16
4666.41 1.5056e-16
4667.18 1.5556e-16
4667.94 1.5118e-16
4668.71 1.6052e-16
4669.47 1.5262e-16
4670.23 1.6077e-16
4671.0 1.5513e-16
4671.76 1.5266e-16
4672.53 1.6181e-16
4673.29 1.5326e-16
4674.06 1.5342e-16
4674.82 1.5701e-16
4675.58 1.5176e-16
4676.35 1.5375e-16
4677.11 1.552e-16
4677.88 1.5189e-16
4678.64 1.5823e-16
4679.41 1.5962e-16
4680.17 1.5766e-16
4680.94 1.6081e-16
4681.7 1.5574e-16
4682.46 1.5252e-16
4683.23 1.5707e-16
4683.99 1.6032e-16
4684.76 1.7242e-16
4685.52 1.7439e-16
4686.29 1.5474e-16
4687.05 1.4661e-16
4687.81 1.4946e-16
4688.58 1.4626e-16
4689.34 1.5222e-16
4690.11 1.4791e-16
4690.87 1.41e-16
4691.64 1.4546e-16
4692.4 1.4706e-16
4693.16 1.4136e-16
4693.93 1.4083e-16
4694.69 1.4416e-16
4695.46 1.3591e-16
4696.22 1.3848e-16
4696.99 1.398e-16
4697.75 1.4416e-16
4698.52 1.4163e-16
4699.28 1.4652e-16
4700.04 1.4392e-16
4700.81 1.4054e-16
4701.57 1.4144e-16
4702.34 1.3727e-16
4703.1 1.4385e-16
4703.87 1.4291e-16
4704.63 1.3673e-16
4705.39 1.3828e-16
4706.16 1.3557e-16
4706.92 1.369e-16
4707.69 1.312e-16
4708.45 1.2916e-16
4709.22 1.2878e-16
4709.98 1.2762e-16
4710.75 1.2905e-16
4711.51 1.2586e-16
4712.27 1.2548e-16
4713.04 1.2462e-16
4713.8 1.2787e-16
4714.57 1.3813e-16
4715.33 1.3977e-16
4716.1 1.2397e-16
4716.86 1.2131e-16
4717.62 1.2556e-16
4718.39 1.2009e-16
4719.15 1.2545e-16
4719.92 1.228e-16
4720.68 1.2265e-16
4721.45 1.2822e-16
4722.21 1.2616e-16
4722.97 1.2724e-16
4723.74 1.2451e-16
4724.5 1.2972e-16
4725.27 1.2725e-16
4726.03 1.2968e-16
4726.8 1.3004e-16
4727.56 1.3071e-16
4728.33 1.3238e-16
4729.09 1.3391e-16
4729.85 1.3791e-16
4730.62 1.3199e-16
4731.38 1.3523e-16
4732.15 1.3674e-16
4732.91 1.4151e-16
4733.68 1.3507e-16
4734.44 1.3551e-16
4735.2 1.3677e-16
4735.97 1.3743e-16
4736.73 1.3548e-16
4737.5 1.3899e-16
4738.26 1.3466e-16
4739.03 1.2557e-16
4739.79 1.3755e-16
4740.56 1.3049e-16
4741.32 1.331e-16
4742.08 1.3052e-16
4742.85 1.2488e-16
4743.61 1.2829e-16
4744.38 1.3189e-16
4745.14 1.2421e-16
4745.91 1.2742e-16
4746.67 1.2829e-16
4747.43 1.2287e-16
4748.2 1.1805e-16
4748.96 1.1787e-16
4749.73 1.1239e-16
4750.49 1.1444e-16
4751.26 1.1454e-16
4752.02 1.1813e-16
4752.78 1.2273e-16
4753.55 1.1328e-16
4754.31 1.1644e-16
4755.08 1.1394e-16
4755.84 1.1335e-16
4756.61 1.1915e-16
4757.37 1.1664e-16
4758.14 1.1414e-16
4758.9 1.1321e-16
4759.66 1.1148e-16
4760.43 1.0902e-16
4761.19 1.1056e-16
4761.96 1.0942e-16
4762.72 1.091e-16
4763.49 1.0948e-16
4764.25 1.0539e-16
4765.01 1.1119e-16
4765.78 1.0839e-16
4766.54 1.0431e-16
4767.31 1.1065e-16
4768.07 1.0109e-16
4768.84 1.1095e-16
4769.6 1.0556e-16
4770.37 9.8209e-17
4771.13 1.0976e-16
4771.89 1.0715e-16
4772.66 1.0203e-16
4773.42 1.0889e-16
4774.19 1.0794e-16
4774.95 1.0425e-16
4775.72 1.08e-16
4776.48 1.0938e-16
4777.24 1.0352e-16
4778.01 1.0486e-16
4778.77 1.0637e-16
4779.54 1.0415e-16
4780.3 1.0028e-16
4781.07 9.7389e-17
4781.83 1.0557e-16
4782.59 1.0134e-16
4783.36 1.0308e-16
4784.12 1.0611e-16
4784.89 1.0423e-16
4785.65 1.0166e-16
4786.42 1.0046e-16
4787.18 1.0066e-16
4787.95 1.0301e-16
4788.71 1.0628e-16
4789.47 1.0236e-16
4790.24 1.0182e-16
4791.0 1.0073e-16
4791.77 1.0347e-16
4792.53 1.0391e-16
4793.3 1.0592e-16
4794.06 1.0998e-16
4794.82 1.0475e-16
4795.59 1.0796e-16
4796.35 1.082e-16
4797.12 1.0667e-16
4797.88 1.1213e-16
4798.65 1.1558e-16
4799.41 1.1573e-16
4800.18 1.1465e-16
4800.94 1.1397e-16
4801.7 1.1647e-16
4802.47 1.1767e-16
4803.23 1.1456e-16
4804.0 1.1527e-16
4804.76 1.2018e-16
4805.53 1.1712e-16
4806.29 1.1768e-16
4807.05 1.204e-16
4807.82 1.2004e-16
4808.58 1.2695e-16
4809.35 1.1988e-16
4810.11 1.1555e-16
4810.88 1.2052e-16
4811.64 1.2188e-16
4812.4 1.2258e-16
4813.17 1.2379e-16
4813.93 1.189e-16
4814.7 1.237e-16
4815.46 1.2186e-16
4816.23 1.2013e-16
4816.99 1.2324e-16
4817.76 1.1903e-16
4818.52 1.1743e-16
4819.28 1.2369e-16
4820.05 1.1711e-16
4820.81 1.1695e-16
4821.58 1.1607e-16
4822.34 1.165e-16
4823.11 1.1657e-16
4823.87 1.1432e-16
4824.63 1.1015e-16
4825.4 1.1084e-16
4826.16 1.0562e-16
4826.93 1.0183e-16
4827.69 1.0319e-16
4828.46 1.0335e-16
4829.22 9.7064e-17
4829.99 9.9446e-17
4830.75 9.4866e-17
4831.51 9.3399e-17
4832.28 8.9889e-17
4833.04 8.5427e-17
4833.81 8.8785e-17
4834.57 9.0568e-17
4835.34 8.5152e-17
4836.1 8.8207e-17
4836.86 8.4749e-17
4837.63 8.7909e-17
4838.39 8.0912e-17
4839.16 8.3419e-17
4839.92 8.6025e-17
4840.69 8.6804e-17
4841.45 8.5068e-17
4842.21 8.2168e-17
4842.98 8.4235e-17
4843.74 8.4585e-17
4844.51 9.0594e-17
4845.27 8.7217e-17
4846.04 9.2358e-17
4846.8 9.8893e-17
4847.57 9.6259e-17
4848.33 9.513e-17
4849.09 1.011e-16
4849.86 1.0385e-16
4850.62 1.0151e-16
4851.39 1.0691e-16
4852.15 1.0161e-16
4852.92 1.0533e-16
4853.68 1.1287e-16
4854.44 1.1376e-16
4855.21 1.1135e-16
4855.97 1.1227e-16
4856.74 1.1607e-16
4857.5 1.1495e-16
4858.27 1.1489e-16
4859.03 1.1908e-16
4859.8 1.2306e-16
4860.56 1.2303e-16
4861.32 1.1846e-16
4862.09 1.2507e-16
4862.85 1.243e-16
4863.62 1.1674e-16
4864.38 1.2207e-16
4865.15 1.2604e-16
4865.91 1.2839e-16
4866.67 1.2426e-16
4867.44 1.2552e-16
4868.2 1.2383e-16
4868.97 1.2969e-16
4869.73 1.2321e-16
4870.5 1.2712e-16
4871.26 1.3447e-16
4872.02 1.2611e-16
4872.79 1.2251e-16
4873.55 1.2636e-16
4874.32 1.2799e-16
4875.08 1.1844e-16
4875.85 1.1767e-16
4876.61 1.2014e-16
4877.38 1.206e-16
4878.14 1.1854e-16
4878.9 1.2012e-16
4879.67 1.3793e-16
4880.43 1.4926e-16
4881.2 1.3526e-16
4881.96 3.2101e-17
4882.73 2.3452e-17
4883.49 7.926e-17
4884.25 1.1469e-16
4885.02 1.0226e-16
4885.78 9.891e-17
4886.55 9.8522e-17
4887.31 9.2168e-17
4888.08 9.1982e-17
4888.84 9.0633e-17
4889.61 9.2757e-17
4890.37 9.4198e-17
4891.13 8.9771e-17
4891.9 8.8593e-17
4892.66 8.638e-17
4893.43 8.162e-17
4894.19 8.2297e-17
4894.96 7.9524e-17
4895.72 8.4287e-17
4896.48 8.5884e-17
4897.25 8.5841e-17
4898.01 8.3531e-17
4898.78 8.4148e-17
4899.54 8.3142e-17
4900.31 8.4713e-17
4901.07 8.6382e-17
4901.83 8.7773e-17
4902.6 8.6502e-17
4903.36 8.7417e-17
4904.13 8.8766e-17
4904.89 9.4803e-17
4905.66 9.189e-17
4906.42 8.8424e-17
4907.19 9.3777e-17
4907.95 9.558e-17
4908.71 9.7785e-17
4909.48 1.0376e-16
4910.24 1.0569e-16
4911.01 1.108e-16
4911.77 1.038e-16
4912.54 1.0992e-16
4913.3 1.1528e-16
4914.06 1.1567e-16
4914.83 1.1828e-16
4915.59 1.1561e-16
4916.36 1.1951e-16
4917.12 1.2375e-16
4917.89 1.3322e-16
4918.65 1.3811e-16
4919.42 1.369e-16
4920.18 1.4365e-16
4920.94 1.4164e-16
4921.71 1.5041e-16
4922.47 1.5352e-16
4923.24 1.5572e-16
4924.0 1.6415e-16
4924.77 1.6217e-16
4925.53 1.6865e-16
4926.29 1.7065e-16
4927.06 1.7148e-16
4927.82 1.7437e-16
4928.59 1.7626e-16
4929.35 1.8027e-16
4930.12 1.8113e-16
4930.88 1.9344e-16
4931.64 1.8247e-16
4932.41 1.954e-16
4933.17 1.8756e-16
4933.94 1.9009e-16
4934.7 1.9412e-16
4935.47 1.9287e-16
4936.23 1.9997e-16
4937.0 1.9872e-16
4937.76 1.8994e-16
4938.52 1.9457e-16
4939.29 1.9476e-16
4940.05 1.9817e-16
4940.82 1.9296e-16
4941.58 1.9639e-16
4942.35 1.9585e-16
4943.11 1.7938e-16
4943.87 1.97e-16
4944.64 1.997e-16
4945.4 1.9678e-16
4946.17 1.8981e-16
4946.93 1.9172e-16
4947.7 1.9683e-16
4948.46 1.9341e-16
4949.23 1.8809e-16
4949.99 1.9673e-16
4950.75 1.9088e-16
4951.52 1.956e-16
4952.28 1.9402e-16
4953.05 1.919e-16
4953.81 2.1855e-16
4954.58 2.3456e-16
4955.34 1.9329e-16
4956.1 1.848e-16
4956.87 1.851e-16
4957.63 1.798e-16
4958.4 1.7917e-16
4959.16 1.7174e-16
4959.93 1.7269e-16
4960.69 1.7294e-16
4961.45 1.6739e-16
4962.22 1.6808e-16
4962.98 1.5692e-16
4963.75 1.6318e-16
4964.51 1.5228e-16
4965.28 1.5773e-16
4966.04 1.531e-16
4966.81 1.4645e-16
4967.57 1.4271e-16
4968.33 1.4137e-16
4969.1 1.3904e-16
4969.86 1.3513e-16
4970.63 1.3032e-16
4971.39 1.2742e-16
4972.16 1.2258e-16
4972.92 1.216e-16
4973.68 1.1401e-16
4974.45 1.1144e-16
4975.21 1.0767e-16
4975.98 1.0716e-16
4976.74 1.0021e-16
4977.51 1.0047e-16
4978.27 1.037e-16
4979.04 1.0264e-16
4979.8 8.6107e-17
4980.56 7.9696e-17
4981.33 7.9385e-17
4982.09 8.5735e-17
4982.86 8.453e-17
4983.62 8.2512e-17
4984.39 7.806e-17
4985.15 8.6365e-17
4985.91 8.2455e-17
4986.68 7.9963e-17
4987.44 7.9705e-17
4988.21 7.8494e-17
4988.97 7.7841e-17
4989.74 7.5202e-17
4990.5 7.2189e-17
4991.27 7.9284e-17
4992.03 7.512e-17
4992.79 7.5423e-17
4993.56 7.4273e-17
4994.32 7.5612e-17
4995.09 7.7594e-17
4995.85 7.4416e-17
4996.62 7.9908e-17
4997.38 8.5862e-17
4998.14 8.3043e-17
4998.91 7.7639e-17
4999.67 8.0006e-17
5000.44 8.3163e-17
5001.2 8.4606e-17
5001.97 9.0284e-17
5002.73 8.6811e-17
5003.49 9.7499e-17
5004.26 9.8392e-17
5005.02 1.0005e-16
5005.79 1.0315e-16
5006.55 1.0446e-16
5007.32 1.0314e-16
5008.08 1.0796e-16
5008.85 1.1339e-16
5009.61 1.1595e-16
5010.37 1.1325e-16
5011.14 1.1768e-16
5011.9 1.1241e-16
5012.67 1.2925e-16
5013.43 1.2736e-16
5014.2 1.2516e-16
5014.96 1.3007e-16
5015.72 1.3326e-16
5016.49 1.35e-16
5017.25 1.3389e-16
5018.02 1.4249e-16
5018.78 1.3953e-16
5019.55 1.5257e-16
5020.31 1.4602e-16
5021.08 1.5243e-16
5021.84 1.5685e-16
5022.6 1.6064e-16
5023.37 1.6436e-16
5024.13 1.6662e-16
5024.9 1.6986e-16
5025.66 1.829e-16
5026.43 1.9804e-16
5027.19 1.8815e-16
5027.95 1.3126e-16
5028.72 1.3933e-16
5029.48 1.7187e-16
5030.25 1.7791e-16
5031.01 1.7561e-16
5031.78 1.8066e-16
5032.54 1.9274e-16
5033.3 1.8861e-16
5034.07 1.8331e-16
5034.83 1.8074e-16
5035.6 1.8505e-16
5036.36 1.9012e-16
5037.13 1.8882e-16
5037.89 1.8263e-16
5038.66 1.8674e-16
5039.42 1.9671e-16
5040.18 1.8442e-16
5040.95 1.8811e-16
5041.71 1.9117e-16
5042.48 1.9396e-16
5043.24 1.8942e-16
5044.01 1.8132e-16
5044.77 1.8131e-16
5045.53 1.8543e-16
5046.3 1.8717e-16
5047.06 1.8831e-16
5047.83 1.8436e-16
5048.59 1.8157e-16
5049.36 1.8344e-16
5050.12 1.766e-16
5050.89 1.72e-16
5051.65 1.7504e-16
5052.41 1.696e-16
5053.18 1.7329e-16
5053.94 1.761e-16
5054.71 1.7016e-16
5055.47 1.7278e-16
5056.24 1.7203e-16
5057.0 1.6685e-16
5057.76 1.6279e-16
5058.53 1.6158e-16
5059.29 1.6055e-16
5060.06 1.6721e-16
5060.82 1.5387e-16
5061.59 1.5462e-16
5062.35 1.553e-16
5063.11 1.561e-16
5063.88 1.5971e-16
5064.64 1.565e-16
5065.41 1.7037e-16
5066.17 1.5629e-16
5066.94 1.5698e-16
5067.7 1.5571e-16
5068.47 1.4947e-16
5069.23 1.4971e-16
5069.99 1.5159e-16
5070.76 1.4961e-16
5071.52 1.5294e-16
5072.29 1.467e-16
5073.05 1.5222e-16
5073.82 1.4812e-16
5074.58 1.4619e-16
5075.34 1.4813e-16
5076.11 1.5174e-16
5076.87 1.4736e-16
5077.64 1.4964e-16
5078.4 1.5313e-16
5079.17 1.4955e-16
5079.93 1.4337e-16
5080.7 1.4456e-16
5081.46 1.4452e-16
5082.22 1.4108e-16
5082.99 1.4426e-16
5083.75 1.4542e-16
5084.52 1.4441e-16
5085.28 1.3969e-16
5086.05 1.3678e-16
5086.81 1.4055e-16
5087.57 1.3796e-16
5088.34 1.3503e-16
5089.1 1.4086e-16
5089.87 1.3211e-16
5090.63 1.3555e-16
5091.4 1.3321e-16
5092.16 1.3172e-16
5092.92 1.2955e-16
5093.69 1.2938e-16
5094.45 1.3289e-16
5095.22 1.2605e-16
5095.98 1.2382e-16
5096.75 1.2557e-16
5097.51 1.2143e-16
5098.28 1.2574e-16
5099.04 1.2548e-16
5099.8 1.2251e-16
5100.57 1.2088e-16
5101.33 1.1936e-16
5102.1 1.1576e-16
5102.86 1.1167e-16
5103.63 1.1435e-16
5104.39 1.1375e-16
5105.15 1.0868e-16
5105.92 1.0759e-16
5106.68 1.1046e-16
5107.45 1.0461e-16
5108.21 1.0506e-16
5108.98 1.0182e-16
5109.74 1.0161e-16
5110.51 9.5617e-17
5111.27 1.0004e-16
5112.03 9.5051e-17
5112.8 9.6022e-17
5113.56 9.4189e-17
5114.33 1.0084e-16
5115.09 8.6828e-17
5115.86 8.907e-17
5116.62 8.8658e-17
5117.38 8.8155e-17
5118.15 8.039e-17
5118.91 8.6217e-17
5119.68 8.3862e-17
5120.44 7.9395e-17
5121.21 7.7289e-17
5121.97 7.6929e-17
5122.73 7.5591e-17
5123.5 8.1448e-17
5124.26 7.9732e-17
5125.03 7.3707e-17
5125.79 6.9913e-17
5126.56 6.8713e-17
5127.32 7.5147e-17
5128.09 6.4856e-17
5128.85 6.6042e-17
5129.61 6.3704e-17
5130.38 6.7459e-17
5131.14 6.4971e-17
5131.91 6.622e-17
5132.67 6.7654e-17
5133.44 6.5262e-17
5134.2 6.2637e-17
5134.96 6.4232e-17
5135.73 5.8733e-17
5136.49 6.3271e-17
5137.26 5.9486e-17
5138.02 6.0128e-17
5138.79 6.3567e-17
5139.55 6.4076e-17
5140.32 6.3711e-17
5141.08 6.3014e-17
5141.84 6.5815e-17
5142.61 6.4235e-17
5143.37 6.3305e-17
5144.14 6.4344e-17
5144.9 6.6705e-17
5145.67 6.2789e-17
5146.43 7.3225e-17
5147.19 7.0376e-17
5147.96 6.4849e-17
5148.72 6.8697e-17
5149.49 6.5045e-17
5150.25 6.933e-17
5151.02 6.697e-17
5151.78 6.6962e-17
5152.54 7.1237e-17
5153.31 7.2031e-17
5154.07 6.5785e-17
5154.84 7.3362e-17
5155.6 7.7058e-17
5156.37 7.4986e-17
5157.13 7.2246e-17
5157.9 6.7724e-17
5158.66 7.2651e-17
5159.42 7.3268e-17
5160.19 7.4888e-17
5160.95 7.6404e-17
5161.72 7.6553e-17
5162.48 7.9312e-17
5163.25 7.802e-17
5164.01 8.3134e-17
5164.77 8.2344e-17
5165.54 8.1889e-17
5166.3 8.465e-17
5167.07 8.5447e-17
5167.83 8.5453e-17
5168.6 8.9145e-17
5169.36 9.1153e-17
5170.13 8.5255e-17
5170.89 9.5551e-17
5171.65 9.3387e-17
5172.42 8.9513e-17
5173.18 9.2836e-17
5173.95 9.8791e-17
5174.71 9.1723e-17
5175.48 9.7265e-17
5176.24 9.7908e-17
5177.0 9.617e-17
5177.77 1.0365e-16
5178.53 1.0348e-16
5179.3 1.006e-16
5180.06 1.0828e-16
5180.83 1.0133e-16
5181.59 1.0092e-16
5182.35 1.0696e-16
5183.12 1.051e-16
5183.88 1.0794e-16
5184.65 1.127e-16
5185.41 1.0627e-16
5186.18 1.1223e-16
5186.94 1.1139e-16
5187.71 1.1109e-16
5188.47 1.1712e-16
5189.23 1.1085e-16
5190.0 1.0845e-16
5190.76 1.1595e-16
5191.53 1.1421e-16
5192.29 1.1444e-16
5193.06 1.1132e-16
5193.82 1.1049e-16
5194.58 1.1377e-16
5195.35 1.2038e-16
5196.11 1.1694e-16
5196.88 1.1321e-16
5197.64 1.1373e-16
5198.41 1.1483e-16
5199.17 1.0995e-16
5199.94 1.0607e-16
5200.7 1.1278e-16
5201.46 1.1067e-16
5202.23 1.095e-16
5202.99 1.0551e-16
5203.76 1.1121e-16
5204.52 1.0724e-16
5205.29 1.078e-16
5206.05 1.124e-16
5206.81 1.0769e-16
5207.58 1.0949e-16
5208.34 1.106e-16
5209.11 1.082e-16
5209.87 1.0773e-16
5210.64 1.1099e-16
5211.4 1.1224e-16
5212.16 1.089e-16
5212.93 1.0122e-16
5213.69 1.1139e-16
5214.46 1.1087e-16
5215.22 1.0991e-16
5215.99 1.0726e-16
5216.75 1.1336e-16
5217.52 1.143e-16
5218.28 1.1742e-16
5219.04 1.1702e-16
5219.81 1.174e-16
5220.57 1.1481e-16
5221.34 1.1844e-16
5222.1 1.1983e-16
5222.87 1.1787e-16
5223.63 1.1701e-16
5224.39 1.178e-16
5225.16 1.2014e-16
5225.92 1.2292e-16
5226.69 1.2403e-16
5227.45 1.2714e-16
5228.22 1.2776e-16
5228.98 1.2247e-16
5229.75 1.2807e-16
5230.51 1.2817e-16
5231.27 1.2121e-16
5232.04 1.2779e-16
5232.8 1.2229e-16
5233.57 1.2309e-16
5234.33 1.2491e-16
5235.1 1.3114e-16
5235.86 1.2793e-16
5236.62 1.2518e-16
5237.39 1.2028e-16
5238.15 1.2096e-16
5238.92 1.2528e-16
5239.68 1.202e-16
5240.45 1.1955e-16
5241.21 1.1797e-16
5241.97 1.2116e-16
5242.74 1.1256e-16
5243.5 1.1277e-16
5244.27 1.0947e-16
5245.03 1.1186e-16
5245.8 1.0943e-16
5246.56 1.0904e-16
5247.33 1.0957e-16
5248.09 1.1265e-16
5248.85 1.1071e-16
5249.62 1.1119e-16
5250.38 1.0924e-16
5251.15 1.0885e-16
5251.91 1.086e-16
5252.68 1.0588e-16
5253.44 1.0484e-16
5254.2 1.1188e-16
5254.97 1.0306e-16
5255.73 1.0817e-16
5256.5 1.1236e-16
5257.26 1.0752e-16
5258.03 1.083e-16
5258.79 1.1049e-16
5259.56 1.1429e-16
5260.32 1.1173e-16
5261.08 1.0964e-16
5261.85 1.1149e-16
5262.61 1.1888e-16
5263.38 1.157e-16
5264.14 1.1516e-16
5264.91 1.1916e-16
5265.67 1.1444e-16
5266.43 1.1855e-16
5267.2 1.1566e-16
5267.96 1.1891e-16
5268.73 1.1829e-16
5269.49 1.1547e-16
5270.26 1.2836e-16
5271.02 1.2105e-16
5271.78 1.2298e-16
5272.55 1.2321e-16
5273.31 1.2101e-16
5274.08 1.2337e-16
5274.84 1.2774e-16
5275.61 1.2173e-16
5276.37 1.2488e-16
5277.14 1.2238e-16
5277.9 1.2157e-16
5278.66 1.1914e-16
5279.43 1.1923e-16
5280.19 1.1622e-16
5280.96 1.2006e-16
5281.72 1.1803e-16
5282.49 1.1345e-16
5283.25 1.1315e-16
5284.01 1.1516e-16
5284.78 1.0713e-16
5285.54 1.0763e-16
5286.31 1.1098e-16
5287.07 1.0654e-16
5287.84 1.0587e-16
5288.6 1.0664e-16
5289.37 1.0727e-16
5290.13 1.0307e-16
5290.89 1.0186e-16
5291.66 1.0646e-16
5292.42 1.0254e-16
5293.19 1.0238e-16
5293.95 1.0067e-16
5294.72 9.8972e-17
5295.48 9.4628e-17
5296.24 1.0165e-16
5297.01 1.0329e-16
5297.77 1.0296e-16
5298.54 9.6896e-17
5299.3 9.6149e-17
5300.07 9.9794e-17
5300.83 1.0201e-16
5301.59 1.0447e-16
5302.36 1.0616e-16
5303.12 1.0387e-16
5303.89 1.0441e-16
5304.65 1.0874e-16
5305.42 1.0747e-16
5306.18 1.0975e-16
5306.95 1.117e-16
5307.71 1.1439e-16
5308.47 1.1528e-16
5309.24 1.1375e-16
5310.0 1.178e-16
5310.77 1.1773e-16
5311.53 1.1777e-16
5312.3 1.1713e-16
5313.06 1.2338e-16
5313.82 1.2055e-16
5314.59 1.2105e-16
5315.35 1.2006e-16
5316.12 1.2571e-16
5316.88 1.238e-16
5317.65 1.2168e-16
5318.41 1.2182e-16
5319.18 1.2987e-16
5319.94 1.2755e-16
5320.7 1.2771e-16
5321.47 1.2662e-16
5322.23 1.3597e-16
5323.0 1.2776e-16
5323.76 1.3617e-16
5324.53 1.3463e-16
5325.29 1.3959e-16
5326.05 1.4256e-16
5326.82 1.4226e-16
5327.58 1.4329e-16
5328.35 1.4675e-16
5329.11 1.5132e-16
5329.88 1.4374e-16
5330.64 1.5065e-16
5331.4 1.4239e-16
5332.17 1.5076e-16
5332.93 1.4383e-16
5333.7 1.5081e-16
5334.46 1.4448e-16
5335.23 1.4633e-16
5335.99 1.5044e-16
5336.76 1.4523e-16
5337.52 1.4775e-16
5338.28 1.481e-16
5339.05 1.4193e-16
5339.81 1.4142e-16
5340.58 1.5081e-16
5341.34 1.4347e-16
5342.11 1.4786e-16
5342.87 1.4338e-16
5343.63 1.3796e-16
5344.4 1.3948e-16
5345.16 1.46e-16
5345.93 1.4359e-16
5346.69 1.4167e-16
5347.46 1.4438e-16
5348.22 1.3972e-16
5348.99 1.3841e-16
5349.75 1.3773e-16
5350.51 1.4807e-16
5351.28 1.416e-16
5352.04 1.4323e-16
5352.81 1.4387e-16
5353.57 1.4811e-16
5354.34 1.5042e-16
5355.1 1.478e-16
5355.86 1.4683e-16
5356.63 1.4918e-16
5357.39 1.5186e-16
5358.16 1.5028e-16
5358.92 1.5026e-16
5359.69 1.4966e-16
5360.45 1.536e-16
5361.21 1.5711e-16
5361.98 1.5347e-16
5362.74 1.4525e-16
5363.51 1.5107e-16
5364.27 1.5059e-16
5365.04 1.5948e-16
5365.8 1.5638e-16
5366.57 1.5768e-16
5367.33 1.5494e-16
5368.09 1.5381e-16
5368.86 1.5594e-16
5369.62 1.6006e-16
5370.39 1.5983e-16
5371.15 1.5986e-16
5371.92 1.5645e-16
5372.68 1.6486e-16
5373.44 1.6667e-16
5374.21 1.5794e-16
5374.97 1.632e-16
5375.74 1.632e-16
5376.5 1.5837e-16
5377.27 1.6132e-16
5378.03 1.6146e-16
5378.8 1.6249e-16
5379.56 1.63e-16
5380.32 1.6263e-16
5381.09 1.5678e-16
5381.85 1.5794e-16
5382.62 1.601e-16
5383.38 1.5792e-16
5384.15 1.562e-16
5384.91 1.5096e-16
5385.67 1.5466e-16
5386.44 1.6035e-16
5387.2 1.5307e-16
5387.97 1.5876e-16
5388.73 1.564e-16
5389.5 1.5549e-16
5390.26 1.5448e-16
5391.02 1.5296e-16
5391.79 1.4867e-16
5392.55 1.5111e-16
5393.32 1.452e-16
5394.08 1.5486e-16
5394.85 1.4659e-16
5395.61 1.4918e-16
5396.38 1.5163e-16
5397.14 1.4451e-16
5397.9 1.496e-16
5398.67 1.5098e-16
5399.43 1.4712e-16
5400.2 1.4864e-16
5400.96 1.4702e-16
5401.73 1.4245e-16
5402.49 1.4198e-16
5403.25 1.4992e-16
5404.02 1.4441e-16
5404.78 1.4699e-16
5405.55 1.4441e-16
5406.31 1.4639e-16
5407.08 1.4779e-16
5407.84 1.4569e-16
5408.61 1.463e-16
5409.37 1.4967e-16
5410.13 1.464e-16
5410.9 1.4495e-16
5411.66 1.4677e-16
5412.43 1.5332e-16
5413.19 1.5049e-16
5413.96 1.4924e-16
5414.72 1.4955e-16
5415.48 1.495e-16
5416.25 1.5399e-16
5417.01 1.5546e-16
5417.78 1.5257e-16
5418.54 1.5742e-16
5419.31 1.6419e-16
5420.07 1.5629e-16
5420.83 1.6415e-16
5421.6 1.6375e-16
5422.36 1.6566e-16
5423.13 1.6659e-16
5423.89 1.6721e-16
5424.66 1.6168e-16
5425.42 1.6423e-16
5426.19 1.7269e-16
5426.95 1.6844e-16
5427.71 1.6719e-16
5428.48 1.7096e-16
5429.24 1.6922e-16
5430.01 1.6992e-16
5430.77 1.7144e-16
5431.54 1.7241e-16
5432.3 1.7533e-16
5433.06 1.7097e-16
5433.83 1.7629e-16
5434.59 1.7632e-16
5435.36 1.6926e-16
5436.12 1.7217e-16
5436.89 1.7418e-16
5437.65 1.7464e-16
5438.42 1.7665e-16
5439.18 1.7597e-16
5439.94 1.7557e-16
5440.71 1.7525e-16
5441.47 1.7641e-16
5442.24 1.7732e-16
5443.0 1.8123e-16
5443.77 1.778e-16
5444.53 1.7242e-16
5445.29 1.756e-16
5446.06 1.8021e-16
5446.82 1.8028e-16
5447.59 1.7946e-16
5448.35 1.7602e-16
5449.12 1.7735e-16
5449.88 1.7139e-16
5450.64 1.712e-16
5451.41 1.7379e-16
5452.17 1.6836e-16
5452.94 1.7249e-16
5453.7 1.6922e-16
5454.47 1.6254e-16
5455.23 1.7192e-16
5456.0 1.6703e-16
5456.76 1.6339e-16
5457.52 1.7219e-16
5458.29 1.6283e-16
5459.05 1.6164e-16
5459.82 1.5826e-16
5460.58 1.6114e-16
5461.35 1.5659e-16
5462.11 1.6065e-16
5462.87 1.561e-16
5463.64 1.5696e-16
5464.4 1.6355e-16
5465.17 1.5931e-16
5465.93 1.4897e-16
5466.7 1.5302e-16
5467.46 1.5498e-16
5468.23 1.5406e-16
5468.99 1.5082e-16
5469.75 1.5121e-16
5470.52 1.566e-16
5471.28 1.5306e-16
5472.05 1.4992e-16
5472.81 1.4728e-16
5473.58 1.516e-16
5474.34 1.482e-16
5475.1 1.4909e-16
5475.87 1.4805e-16
5476.63 1.4157e-16
5477.4 1.4412e-16
5478.16 1.444e-16
5478.93 1.406e-16
5479.69 1.4536e-16
5480.45 1.4035e-16
5481.22 1.4561e-16
5481.98 1.38e-16
5482.75 1.4207e-16
5483.51 1.3782e-16
5484.28 1.3729e-16
5485.04 1.4197e-16
5485.81 1.4292e-16
5486.57 1.3958e-16
5487.33 1.38e-16
5488.1 1.3558e-16
5488.86 1.3384e-16
5489.63 1.3225e-16
5490.39 1.3029e-16
5491.16 1.3238e-16
5491.92 1.3256e-16
5492.68 1.266e-16
5493.45 1.2158e-16
5494.21 1.2243e-16
5494.98 1.2401e-16
5495.74 1.2135e-16
5496.51 1.2406e-16
5497.27 1.2087e-16
5498.04 1.1974e-16
5498.8 1.2026e-16
5499.56 1.185e-16
5500.33 1.1544e-16
5501.09 1.1568e-16
5501.86 1.1585e-16
5502.62 1.1334e-16
5503.39 1.1595e-16
5504.15 1.0963e-16
5504.91 1.1768e-16
5505.68 1.1056e-16
5506.44 1.0877e-16
5507.21 1.1134e-16
5507.97 1.1151e-16
5508.74 1.1302e-16
5509.5 1.1048e-16
5510.26 1.07e-16
5511.03 1.1078e-16
5511.79 1.1654e-16
5512.56 1.0895e-16
5513.32 1.2099e-16
5514.09 1.4547e-16
5514.85 1.4692e-16
5515.62 1.218e-16
5516.38 1.1874e-16
5517.14 1.2327e-16
5517.91 1.249e-16
5518.67 1.2146e-16
5519.44 1.2745e-16
5520.2 1.3033e-16
5520.97 1.272e-16
5521.73 1.3663e-16
5522.49 1.3188e-16
5523.26 1.3371e-16
5524.02 1.3811e-16
5524.79 1.3835e-16
5525.55 1.3875e-16
5526.32 1.525e-16
5527.08 1.4634e-16
5527.85 1.4584e-16
5528.61 1.5251e-16
5529.37 1.5179e-16
5530.14 1.5385e-16
5530.9 1.5744e-16
5531.67 1.6246e-16
5532.43 1.6737e-16
5533.2 1.7047e-16
5533.96 1.682e-16
5534.72 1.6598e-16
5535.49 1.691e-16
5536.25 1.7123e-16
5537.02 1.7599e-16
5537.78 1.7522e-16
5538.55 1.751e-16
5539.31 1.7454e-16
5540.07 1.7972e-16
5540.84 1.841e-16
5541.6 1.7886e-16
5542.37 1.8671e-16
5543.13 1.8347e-16
5543.9 1.8245e-16
5544.66 1.7981e-16
5545.43 1.8457e-16
5546.19 1.7855e-16
5546.95 1.8369e-16
5547.72 1.7796e-16
5548.48 1.8884e-16
5549.25 1.9022e-16
5550.01 1.8279e-16
5550.78 1.8244e-16
5551.54 1.8941e-16
5552.3 1.864e-16
5553.07 1.7727e-16
5553.83 1.8315e-16
5554.6 1.8177e-16
5555.36 1.837e-16
5556.13 1.8363e-16
5556.89 1.8851e-16
5557.66 1.9047e-16
5558.42 1.7928e-16
5559.18 1.7286e-16
5559.95 1.8761e-16
5560.71 1.8013e-16
5561.48 1.7941e-16
5562.24 1.7322e-16
5563.01 1.8154e-16
5563.77 1.7921e-16
5564.53 1.7156e-16
5565.3 1.7815e-16
5566.06 1.7993e-16
5566.83 1.7106e-16
5567.59 1.7583e-16
5568.36 1.7278e-16
5569.12 1.7752e-16
5569.89 1.762e-16
5570.65 1.7289e-16
5571.41 1.6829e-16
5572.18 1.6762e-16
5572.94 1.718e-16
5573.71 1.698e-16
5574.47 1.915e-16
5575.24 2.4822e-16
5576.0 1.6152e-16
5576.76 2.4291e-17
5577.53 9.8344e-17
5578.29 1.6614e-16
5579.06 1.7042e-16
5579.82 1.6387e-16
5580.59 1.6192e-16
5581.35 1.6027e-16
5582.11 1.6771e-16
5582.88 1.6425e-16
5583.64 1.6326e-16
5584.41 1.6145e-16
5585.17 1.5991e-16
5585.94 1.5568e-16
5586.7 1.638e-16
5587.47 1.603e-16
5588.23 1.5805e-16
5588.99 1.5953e-16
5589.76 1.5938e-16
5590.52 1.613e-16
5591.29 1.5848e-16
5592.05 1.4786e-16
5592.82 1.5764e-16
5593.58 1.5141e-16
5594.34 1.4992e-16
5595.11 1.5106e-16
5595.87 1.5071e-16
5596.64 1.5236e-16
5597.4 1.4979e-16
5598.17 1.5756e-16
5598.93 1.4842e-16
5599.7 1.4823e-16
5601.06 1.5288e-16
5602.31 1.4418e-16
5603.55 1.4016e-16
5604.8 1.3861e-16
5606.05 1.3654e-16
5607.3 1.4078e-16
5608.55 1.3144e-16
5609.8 1.3177e-16
5611.05 1.3049e-16
5612.3 1.2701e-16
5613.55 1.2752e-16
5614.79 1.2361e-16
5616.04 1.1666e-16
5617.29 1.1781e-16
5618.54 1.1578e-16
5619.79 1.1497e-16
5621.04 1.1266e-16
5622.29 1.1111e-16
5623.54 1.1078e-16
5624.78 1.133e-16
5626.03 1.0736e-16
5627.28 1.0338e-16
5628.53 1.026e-16
5629.78 9.7054e-17
5631.03 9.9094e-17
5632.28 9.6974e-17
5633.53 9.53e-17
5634.77 9.0583e-17
5636.02 9.0849e-17
5637.27 9.8362e-17
5638.52 9.4136e-17
5639.77 9.6636e-17
5641.02 9.3753e-17
5642.27 9.0978e-17
5643.52 9.1312e-17
5644.77 9.4812e-17
5646.01 9.2403e-17
5647.26 9.5144e-17
5648.51 9.6552e-17
5649.76 1.0083e-16
5651.01 1.01e-16
5652.26 1.0045e-16
5653.51 1.0722e-16
5654.76 1.0831e-16
5656.0 1.1357e-16
5657.25 1.204e-16
5658.5 1.2377e-16
5659.75 1.2213e-16
5661.0 1.2473e-16
5662.25 1.2677e-16
5663.5 1.2678e-16
5664.75 1.3185e-16
5665.99 1.3466e-16
5667.24 1.307e-16
5668.49 1.3433e-16
5669.74 1.3669e-16
5670.99 1.3924e-16
5672.24 1.3925e-16
5673.49 1.4308e-16
5674.74 1.4438e-16
5675.99 1.4686e-16
5677.23 1.5428e-16
5678.48 1.5324e-16
5679.73 1.519e-16
5680.98 1.595e-16
5682.23 1.5991e-16
5683.48 1.6163e-16
5684.73 1.5989e-16
5685.98 1.5793e-16
5687.22 1.5944e-16
5688.47 1.5697e-16
5689.72 1.6024e-16
5690.97 1.5528e-16
5692.22 1.5856e-16
5693.47 1.5601e-16
5694.72 1.6066e-16
5695.97 1.5604e-16
5697.21 1.5817e-16
5698.46 1.597e-16
5699.71 1.5522e-16
5700.96 1.5107e-16
5702.21 1.5286e-16
5703.46 1.5737e-16
5704.71 1.5556e-16
5705.96 1.5158e-16
5707.21 1.5459e-16
5708.45 1.5245e-16
5709.7 1.5127e-16
5710.95 1.5065e-16
5712.2 1.4863e-16
5713.45 1.4854e-16
5714.7 1.4775e-16
5715.95 1.4702e-16
5717.2 1.4384e-16
5718.44 1.4775e-16
5719.69 1.4702e-16
5720.94 1.4441e-16
5722.19 1.4325e-16
5723.44 1.4627e-16
5724.69 1.4264e-16
5725.94 1.4466e-16
5727.19 1.4483e-16
5728.43 1.4344e-16
5729.68 1.4434e-16
5730.93 1.4947e-16
5732.18 1.5147e-16
5733.43 1.4664e-16
5734.68 1.4741e-16
5735.93 1.4352e-16
5737.18 1.4412e-16
5738.43 1.4182e-16
5739.67 1.4554e-16
5740.92 1.4618e-16
5742.17 1.4552e-16
5743.42 1.4405e-16
5744.67 1.4251e-16
5745.92 1.3808e-16
5747.17 1.3801e-16
5748.42 1.3972e-16
5749.66 1.4242e-16
5750.91 1.4208e-16
5752.16 1.3935e-16
5753.41 1.3983e-16
5754.66 1.4081e-16
5755.91 1.365e-16
5757.16 1.3862e-16
5758.41 1.3955e-16
5759.65 1.3867e-16
5760.9 1.3547e-16
5762.15 1.3502e-16
5763.4 1.3695e-16
5764.65 1.3475e-16
5765.9 1.2911e-16
5767.15 1.2985e-16
5768.4 1.3117e-16
5769.65 1.277e-16
5770.89 1.288e-16
5772.14 1.2914e-16
5773.39 1.2627e-16
5774.64 1.2426e-16
5775.89 1.2585e-16
5777.14 1.2516e-16
5778.39 1.2556e-16
5779.64 1.1914e-16
5780.88 1.1918e-16
5782.13 1.2569e-16
5783.38 1.2453e-16
5784.63 1.211e-16
5785.88 1.1949e-16
5787.13 1.1556e-16
5788.38 1.1453e-16
5789.63 1.1461e-16
5790.87 1.1509e-16
5792.12 1.1412e-16
5793.37 1.1483e-16
5794.62 1.1662e-16
5795.87 1.0944e-16
5797.12 1.1359e-16
5798.37 1.0907e-16
5799.62 1.0904e-16
5800.87 1.0943e-16
5802.11 1.0726e-16
5803.36 1.0369e-16
5804.61 9.98e-17
5805.86 1.0421e-16
5807.11 1.0596e-16
5808.36 1.0208e-16
5809.61 1.0268e-16
5810.86 1.0383e-16
5812.1 1.0023e-16
5813.35 1.0555e-16
5814.6 1.0877e-16
5815.85 1.0465e-16
5817.1 1.0056e-16
5818.35 9.9543e-17
5819.6 9.9305e-17
5820.85 9.4523e-17
5822.09 1.0054e-16
5823.34 9.7401e-17
5824.59 9.4822e-17
5825.84 9.4492e-17
5827.09 9.4901e-17
5828.34 9.5417e-17
5829.59 9.0789e-17
5830.84 8.8457e-17
5832.09 9.2429e-17
5833.33 8.9118e-17
5834.58 8.8059e-17
5835.83 8.9192e-17
5837.08 8.8299e-17
5838.33 8.2428e-17
5839.58 7.8768e-17
5840.83 7.853e-17
5842.08 7.7287e-17
5843.32 7.5614e-17
5844.57 7.4072e-17
5845.82 7.5367e-17
5847.07 7.2561e-17
5848.32 6.8572e-17
5849.57 6.7996e-17
5850.82 6.8796e-17
5852.07 6.5392e-17
5853.31 6.8751e-17
5854.56 6.8864e-17
5855.81 6.4684e-17
5857.06 6.4265e-17
5858.31 6.722e-17
5859.56 6.7569e-17
5860.81 6.7619e-17
5862.06 6.8751e-17
5863.31 6.673e-17
5864.55 6.5946e-17
5865.8 7.0388e-17
5867.05 6.9564e-17
5868.3 7.1692e-17
5869.55 7.1954e-17
5870.8 7.7025e-17
5872.05 7.8661e-17
5873.3 7.9064e-17
5874.54 8.2204e-17
5875.79 8.4044e-17
5877.04 8.5855e-17
5878.29 9.4506e-17
5879.54 9.305e-17
5880.79 9.4358e-17
5882.04 9.629e-17
5883.29 1.0631e-16
5884.53 1.118e-16
5885.78 1.1361e-16
5887.03 1.1464e-16
5888.28 1.171e-16
5889.53 1.255e-16
5890.78 1.497e-16
5892.03 1.5866e-16
5893.28 1.4445e-16
5894.53 1.3996e-16
5895.77 1.5551e-16
5897.02 1.758e-16
5898.27 1.6959e-16
5899.52 1.6774e-16
5900.77 1.6832e-16
5902.02 1.7126e-16
5903.27 1.716e-16
5904.52 1.7011e-16
5905.76 1.7879e-16
5907.01 1.8019e-16
5908.26 1.8002e-16
5909.51 1.8781e-16
5910.76 1.865e-16
5912.01 1.8147e-16
5913.26 1.7866e-16
5914.51 1.6812e-16
5915.76 1.6861e-16
5917.0 1.8332e-16
5918.25 1.8333e-16
5919.5 1.777e-16
5920.75 1.7665e-16
5922.0 1.7793e-16
5923.25 1.8435e-16
5924.5 1.8966e-16
5925.75 1.8796e-16
5926.99 1.8742e-16
5928.24 1.9067e-16
5929.49 1.8952e-16
5930.74 1.895e-16
5931.99 1.9372e-16
5933.24 1.9106e-16
5934.49 1.8827e-16
5935.74 1.8288e-16
5936.98 1.8019e-16
5938.23 1.826e-16
5939.48 1.8232e-16
5940.73 1.808e-16
5941.98 1.7546e-16
5943.23 1.7784e-16
5944.48 1.7311e-16
5945.73 1.7382e-16
5946.98 1.7294e-16
5948.22 1.7144e-16
5949.47 1.7311e-16
5950.72 1.7293e-16
5951.97 1.766e-16
5953.22 1.7137e-16
5954.47 1.7199e-16
5955.72 1.7165e-16
5956.97 1.6594e-16
5958.21 1.6805e-16
5959.46 1.625e-16
5960.71 1.6647e-16
5961.96 1.6812e-16
5963.21 1.6417e-16
5964.46 1.6366e-16
5965.71 1.6279e-16
5966.96 1.6321e-16
5968.2 1.593e-16
5969.45 1.5716e-16
5970.7 1.5661e-16
5971.95 1.5567e-16
5973.2 1.5483e-16
5974.45 1.5347e-16
5975.7 1.5419e-16
5976.95 1.5387e-16
5978.2 1.5208e-16
5979.44 1.5575e-16
5980.69 1.526e-16
5981.94 1.5437e-16
5983.19 1.5519e-16
5984.44 1.552e-16
5985.69 1.536e-16
5986.94 1.5236e-16
5988.19 1.5264e-16
5989.43 1.5369e-16
5990.68 1.553e-16
5991.93 1.518e-16
5993.18 1.5503e-16
5994.43 1.5636e-16
5995.68 1.546e-16
5996.93 1.5282e-16
5998.18 1.5269e-16
5999.42 1.5463e-16
6000.67 1.5389e-16
6001.92 1.5159e-16
6003.17 1.47e-16
6004.42 1.493e-16
6005.67 1.4868e-16
6006.92 1.4984e-16
6008.17 1.5173e-16
6009.42 1.4622e-16
6010.66 1.4801e-16
6011.91 1.4673e-16
6013.16 1.4517e-16
6014.41 1.4632e-16
6015.66 1.4605e-16
6016.91 1.4802e-16
6018.16 1.5104e-16
6019.41 1.6795e-16
6020.65 1.5525e-16
6021.9 1.4781e-16
6023.15 1.4451e-16
6024.4 1.4451e-16
6025.65 1.416e-16
6026.9 1.4166e-16
6028.15 1.4144e-16
6029.4 1.4058e-16
6030.64 1.4346e-16
6031.89 1.4084e-16
6033.14 1.3837e-16
6034.39 1.4158e-16
6035.64 1.3859e-16
6036.89 1.415e-16
6038.14 1.4268e-16
6039.39 1.3871e-16
6040.64 1.3503e-16
6041.88 1.3959e-16
6043.13 1.4001e-16
6044.38 1.3941e-16
6045.63 1.3341e-16
6046.88 1.3355e-16
6048.13 1.3787e-16
6049.38 1.3603e-16
6050.63 1.3517e-16
6051.87 1.3914e-16
6053.12 1.363e-16
6054.37 1.3807e-16
6055.62 1.3008e-16
6056.87 1.3309e-16
6058.12 1.3564e-16
6059.37 1.3333e-16
6060.62 1.3391e-16
6061.86 1.351e-16
6063.11 1.3457e-16
6064.36 1.3449e-16
6065.61 1.3202e-16
6066.86 1.2899e-16
6068.11 1.3111e-16
6069.36 1.3067e-16
6070.61 1.3133e-16
6071.86 1.3163e-16
6073.1 1.3024e-16
6074.35 1.3262e-16
6075.6 1.3043e-16
6076.85 1.2849e-16
6078.1 1.2835e-16
6079.35 1.2762e-16
6080.6 1.298e-16
6081.85 1.2911e-16
6083.09 1.2925e-16
6084.34 1.2867e-16
6085.59 1.2634e-16
6086.84 1.2472e-16
6088.09 1.2541e-16
6089.34 1.2593e-16
6090.59 1.23e-16
6091.84 1.2368e-16
6093.08 1.1905e-16
6094.33 1.1707e-16
6095.58 1.1356e-16
6096.83 1.1681e-16
6098.08 1.1824e-16
6099.33 1.1638e-16
6100.58 1.1391e-16
6101.83 1.1128e-16
6103.08 1.0925e-16
6104.32 1.1286e-16
6105.57 1.092e-16
6106.82 1.1151e-16
6108.07 1.0985e-16
6109.32 1.0654e-16
6110.57 1.1055e-16
6111.82 1.0998e-16
6113.07 1.052e-16
6114.31 1.0184e-16
6115.56 1.0529e-16
6116.81 1.0848e-16
6118.06 1.0782e-16
6119.31 1.0432e-16
6120.56 1.0623e-16
6121.81 1.0567e-16
6123.06 1.0417e-16
6124.3 1.0381e-16
6125.55 1.0311e-16
6126.8 1.0404e-16
6128.05 1.0619e-16
6129.3 1.0685e-16
6130.55 1.0224e-16
6131.8 1.0794e-16
6133.05 1.081e-16
6134.3 1.0976e-16
6135.54 1.127e-16
6136.79 1.1345e-16
6138.04 1.1709e-16
6139.29 1.1962e-16
6140.54 1.2332e-16
6141.79 1.2591e-16
6143.04 1.284e-16
6144.29 1.2742e-16
6145.53 1.2783e-16
6146.78 1.3256e-16
6148.03 1.3527e-16
6149.28 1.3642e-16
6150.53 1.3888e-16
6151.78 1.4018e-16
6153.03 1.414e-16
6154.28 1.4017e-16
6155.52 1.4289e-16
6156.77 1.4109e-16
6158.02 1.4549e-16
6159.27 1.4653e-16
6160.52 1.4702e-16
6161.77 1.4612e-16
6163.02 1.4838e-16
6164.27 1.4936e-16
6165.52 1.4662e-16
6166.76 1.4779e-16
6168.01 1.4847e-16
6169.26 1.4939e-16
6170.51 1.4853e-16
6171.76 1.5055e-16
6173.01 1.4715e-16
6174.26 1.4834e-16
6175.51 1.4454e-16
6176.75 1.472e-16
6178.0 1.4965e-16
6179.25 1.4284e-16
6180.5 1.4512e-16
6181.75 1.4218e-16
6183.0 1.448e-16
6184.25 1.4503e-16
6185.5 1.4302e-16
6186.74 1.4202e-16
6187.99 1.4184e-16
6189.24 1.3955e-16
6190.49 1.3992e-16
6191.74 1.3578e-16
6192.99 1.3634e-16
6194.24 1.3506e-16
6195.49 1.3424e-16
6196.74 1.3412e-16
6197.98 1.3122e-16
6199.23 1.2731e-16
6200.48 1.2837e-16
6201.73 1.2692e-16
6202.98 1.2519e-16
6204.23 1.2499e-16
6205.48 1.2026e-16
6206.73 1.2137e-16
6207.97 1.1636e-16
6209.22 1.1732e-16
6210.47 1.1614e-16
6211.72 1.1301e-16
6212.97 1.1286e-16
6214.22 1.0979e-16
6215.47 1.0809e-16
6216.72 1.073e-16
6217.96 1.0494e-16
6219.21 1.008e-16
6220.46 1.0261e-16
6221.71 1.0199e-16
6222.96 1.0353e-16
6224.21 1.0269e-16
6225.46 9.9919e-17
6226.71 1.0097e-16
6227.96 1.0333e-16
6229.2 9.736e-17
6230.45 1.0059e-16
6231.7 1.0252e-16
6232.95 1.0517e-16
6234.2 1.0727e-16
6235.45 1.0615e-16
6236.7 1.1156e-16
6237.95 1.1287e-16
6239.19 1.1444e-16
6240.44 1.2144e-16
6241.69 1.21e-16
6242.94 1.2198e-16
6244.19 1.2306e-16
6245.44 1.2982e-16
6246.69 1.2949e-16
6247.94 1.2943e-16
6249.18 1.3194e-16
6250.43 1.3487e-16
6251.68 1.3361e-16
6252.93 1.315e-16
6254.18 1.3393e-16
6255.43 1.3633e-16
6256.68 1.3333e-16
6257.93 1.3751e-16
6259.18 1.3834e-16
6260.42 1.3902e-16
6261.67 1.3736e-16
6262.92 1.3592e-16
6264.17 1.3909e-16
6265.42 1.399e-16
6266.67 1.3916e-16
6267.92 1.3827e-16
6269.17 1.3943e-16
6270.41 1.3942e-16
6271.66 1.4062e-16
6272.91 1.3958e-16
6274.16 1.3959e-16
6275.41 1.3782e-16
6276.66 1.3555e-16
6277.91 1.3167e-16
6279.16 1.3151e-16
6280.41 1.3257e-16
6281.65 1.3261e-16
6282.9 1.345e-16
6284.15 1.3523e-16
6285.4 1.3551e-16
6286.65 1.3779e-16
6287.9 1.3584e-16
6289.15 1.346e-16
6290.4 1.33e-16
6291.64 1.3255e-16
6292.89 1.3487e-16
6294.14 1.3369e-16
6295.39 1.3268e-16
6296.64 1.3048e-16
6297.89 1.2872e-16
6299.14 1.3308e-16
6300.39 1.2372e-16
6301.63 1.2976e-16
6302.88 1.5369e-16
6304.13 1.3534e-16
6305.38 1.2985e-16
6306.63 1.2964e-16
6307.88 1.3214e-16
6309.13 1.3305e-16
6310.38 1.2996e-16
6311.63 1.2653e-16
6312.87 1.2913e-16
6314.12 1.3225e-16
6315.37 1.3166e-16
6316.62 1.2998e-16
6317.87 1.3163e-16
6319.12 1.2996e-16
6320.37 1.3159e-16
6321.62 1.3154e-16
6322.86 1.3134e-16
6324.11 1.3218e-16
6325.36 1.2773e-16
6326.61 1.2486e-16
6327.86 1.2291e-16
6329.11 1.2086e-16
6330.36 1.2102e-16
6331.61 1.2155e-16
6332.85 1.2029e-16
6334.1 1.1815e-16
6335.35 1.175e-16
6336.6 1.172e-16
6337.85 1.19e-16
6339.1 1.2078e-16
6340.35 1.1531e-16
6341.6 1.1976e-16
6342.85 1.1763e-16
6344.09 1.1551e-16
6345.34 1.1525e-16
6346.59 1.1296e-16
6347.84 1.1409e-16
6349.09 1.1383e-16
6350.34 1.1495e-16
6351.59 1.1381e-16
6352.84 1.1208e-16
6354.08 1.0807e-16
6355.33 1.0604e-16
6356.58 1.0339e-16
6357.83 1.0232e-16
6359.08 1.0009e-16
6360.33 9.5814e-17
6361.58 9.2638e-17
6362.83 9.3985e-17
6364.07 8.8215e-17
6365.32 9.7304e-17
6366.57 9.7923e-17
6367.82 9.5007e-17
6369.07 9.5451e-17
6370.32 9.5334e-17
6371.57 9.9371e-17
6372.82 9.8682e-17
6374.07 9.9087e-17
6375.31 9.9094e-17
6376.56 1.0041e-16
6377.81 9.9921e-17
6379.06 1.0081e-16
6380.31 1.0265e-16
6381.56 9.9572e-17
6382.81 9.9208e-17
6384.06 1.0264e-16
6385.3 9.9028e-17
6386.55 9.9407e-17
6387.8 1.0181e-16
6389.05 1.0174e-16
6390.3 1.0122e-16
6391.55 1.0275e-16
6392.8 1.007e-16
6394.05 1.0296e-16
6395.29 1.0341e-16
6396.54 1.0341e-16
6397.79 9.8312e-17
6399.04 9.8102e-17
6400.29 9.6428e-17
6401.54 9.8251e-17
6402.79 9.9109e-17
6404.04 9.7115e-17
6405.29 9.8657e-17
6406.53 9.7476e-17
6407.78 9.1264e-17
6409.03 9.335e-17
6410.28 9.15e-17
6411.53 9.2701e-17
6412.78 9.236e-17
6414.03 9.3057e-17
6415.28 8.715e-17
6416.52 8.7608e-17
6417.77 9.0904e-17
6419.02 8.8095e-17
6420.27 8.6897e-17
6421.52 8.2283e-17
6422.77 8.3396e-17
6424.02 8.3637e-17
6425.27 8.2299e-17
6426.51 7.8063e-17
6427.76 7.8039e-17
6429.01 7.7017e-17
6430.26 7.5417e-17
6431.51 7.4798e-17
6432.76 7.4572e-17
6434.01 7.389e-17
6435.26 7.0127e-17
6436.51 6.8131e-17
6437.75 7.0172e-17
6439.0 7.0041e-17
6440.25 6.8612e-17
6441.5 6.7033e-17
6442.75 6.6751e-17
6444.0 6.6669e-17
6445.25 6.84e-17
6446.5 6.9332e-17
6447.74 6.7625e-17
6448.99 6.2999e-17
6450.24 6.4877e-17
6451.49 6.5786e-17
6452.74 6.466e-17
6453.99 6.6333e-17
6455.24 6.6821e-17
6456.49 6.5778e-17
6457.73 6.3844e-17
6458.98 6.4841e-17
6460.23 6.5314e-17
6461.48 6.5167e-17
6462.73 6.5364e-17
6463.98 6.5151e-17
6465.23 6.5254e-17
6466.48 6.608e-17
6467.73 6.7187e-17
6468.97 6.5858e-17
6470.22 6.6665e-17
6471.47 6.6234e-17
6472.72 6.823e-17
6473.97 6.931e-17
6475.22 6.8171e-17
6476.47 6.9123e-17
6477.72 7.1966e-17
6478.96 7.113e-17
6480.21 7.0388e-17
6481.46 7.274e-17
6482.71 7.4791e-17
6483.96 7.3622e-17
6485.21 7.4982e-17
6486.46 7.3841e-17
6487.71 7.6446e-17
6488.95 7.6835e-17
6490.2 7.4974e-17
6491.45 7.5752e-17
6492.7 7.7981e-17
6493.95 8.1461e-17
6495.2 8.4286e-17
6496.45 8.244e-17
6497.7 8.1197e-17
6498.95 8.1968e-17
6500.19 7.8434e-17
6501.44 8.1439e-17
6502.69 8.3821e-17
6503.94 8.0666e-17
6505.19 8.0962e-17
6506.44 8.283e-17
6507.69 8.3653e-17
6508.94 8.5076e-17
6510.18 8.3976e-17
6511.43 8.1737e-17
6512.68 8.003e-17
6513.93 7.9242e-17
6515.18 8.0564e-17
6516.43 8.0414e-17
6517.68 7.8984e-17
6518.93 8.3195e-17
6520.17 8.1787e-17
6521.42 8.2756e-17
6522.67 8.4051e-17
6523.92 8.4259e-17
6525.17 8.6903e-17
6526.42 9.2673e-17
6527.67 9.4977e-17
6528.92 9.7364e-17
6530.17 1.0099e-16
6531.41 1.0923e-16
6532.66 1.102e-16
6533.91 1.1835e-16
6535.16 1.196e-16
6536.41 1.2683e-16
6537.66 1.3121e-16
6538.91 1.3907e-16
6540.16 1.4821e-16
6541.4 1.5566e-16
6542.65 1.6396e-16
6543.9 1.7275e-16
6545.15 1.7761e-16
6546.4 1.8877e-16
6547.65 1.9651e-16
6548.9 2.061e-16
6550.15 2.1232e-16
6551.39 2.1889e-16
6552.64 2.2726e-16
6553.89 2.3351e-16
6555.14 2.4164e-16
6556.39 2.4743e-16
6557.64 2.5482e-16
6558.89 2.5996e-16
6560.14 2.6446e-16
6561.39 2.671e-16
6562.63 2.7017e-16
6563.88 2.8064e-16
6565.13 2.8749e-16
6566.38 2.8576e-16
6567.63 2.9299e-16
6568.88 2.9471e-16
6570.13 2.9548e-16
6571.38 2.9977e-16
6572.62 2.9876e-16
6573.87 3.0309e-16
6575.12 3.0375e-16
6576.37 3.0131e-16
6577.62 3.0228e-16
6578.87 2.9899e-16
6580.12 3.003e-16
6581.37 3.0839e-16
6582.61 3.0881e-16
6583.86 3.044e-16
6585.11 2.9946e-16
6586.36 3.0265e-16
6587.61 3.1214e-16
6588.86 3.3276e-16
6590.11 3.4588e-16
6591.36 3.3152e-16
6592.61 2.0165e-16
6593.85 6.086e-17
6595.1 2.5489e-16
6596.35 3.1962e-16
6597.6 3.0756e-16
6598.85 3.0124e-16
6600.1 2.963e-16
6601.35 2.9521e-16
6602.6 2.9403e-16
6603.84 2.9169e-16
6605.09 2.9043e-16
6606.34 2.8842e-16
6607.59 2.8817e-16
6608.84 2.8961e-16
6610.09 2.9232e-16
6611.34 2.8736e-16
6612.59 2.7684e-16
6613.84 2.4372e-16
6615.08 2.385e-16
6616.33 2.7081e-16
6617.58 2.7078e-16
6618.83 2.6584e-16
6620.08 2.6109e-16
6621.33 2.5852e-16
6622.58 2.5634e-16
6623.83 2.5e-16
6625.07 2.4981e-16
6626.32 2.5144e-16
6627.57 2.4607e-16
6628.82 2.4435e-16
6630.07 2.4056e-16
6631.32 2.3922e-16
6632.57 2.3626e-16
6633.82 2.3327e-16
6635.06 2.3251e-16
6636.31 2.3061e-16
6637.56 2.2639e-16
6638.81 2.2632e-16
6640.06 2.2547e-16
6641.31 2.2152e-16
6642.56 2.1587e-16
6643.81 2.1361e-16
6645.06 2.155e-16
6646.3 2.1203e-16
6647.55 2.1118e-16
6648.8 2.0366e-16
6650.05 2.0275e-16
6651.3 2.0397e-16
6652.55 2.0073e-16
6653.8 1.9923e-16
6655.05 1.9602e-16
6656.29 1.9639e-16
6657.54 1.9468e-16
6658.79 1.9405e-16
6660.04 1.9032e-16
6661.29 1.8563e-16
6662.54 1.8616e-16
6663.79 1.8292e-16
6665.04 1.8067e-16
6666.28 1.826e-16
6667.53 1.8085e-16
6668.78 1.7728e-16
6670.03 1.748e-16
6671.28 1.7776e-16
6672.53 1.7213e-16
6673.78 1.7467e-16
6675.03 1.7198e-16
6676.28 1.7092e-16
6677.52 1.7022e-16
6678.77 1.6947e-16
6680.02 1.7019e-16
6681.27 1.6556e-16
6682.52 1.6324e-16
6683.77 1.6592e-16
6685.02 1.6228e-16
6686.27 1.6244e-16
6687.51 1.6234e-16
6688.76 1.6192e-16
6690.01 1.5919e-16
6691.26 1.5745e-16
6692.51 1.5532e-16
6693.76 1.5562e-16
6695.01 1.5382e-16
6696.26 1.5473e-16
6697.5 1.5359e-16
6698.75 1.5074e-16
6700.0 1.5343e-16
6701.25 1.5072e-16
6702.5 1.5049e-16
6703.75 1.4998e-16
6705.0 1.4638e-16
6706.25 1.4344e-16
6707.5 1.4219e-16
6708.74 1.4129e-16
6709.99 1.437e-16
6711.24 1.4421e-16
6712.49 1.4268e-16
6713.74 1.4161e-16
6714.99 1.4325e-16
6716.24 1.4438e-16
6717.49 1.4034e-16
6718.73 1.4033e-16
6719.98 1.4162e-16
6721.23 1.4193e-16
6722.48 1.4163e-16
6723.73 1.3919e-16
6724.98 1.419e-16
6726.23 1.4085e-16
6727.48 1.3667e-16
6728.72 1.3563e-16
6729.97 1.3427e-16
6731.22 1.3378e-16
6732.47 1.3508e-16
6733.72 1.3557e-16
6734.97 1.3131e-16
6736.22 1.3481e-16
6737.47 1.3378e-16
6738.72 1.3361e-16
6739.96 1.3272e-16
6741.21 1.3309e-16
6742.46 1.3409e-16
6743.71 1.3438e-16
6744.96 1.3844e-16
6746.21 1.3768e-16
6747.46 1.1293e-16
6748.71 9.5404e-17
6749.95 1.2797e-16
6751.2 1.3232e-16
6752.45 1.3195e-16
6753.7 1.2557e-16
6754.95 1.2638e-16
6756.2 1.2214e-16
6757.45 1.2747e-16
6758.7 1.2988e-16
6759.94 1.2988e-16
6761.19 1.2512e-16
6762.44 1.0744e-16
6763.69 1.1579e-16
6764.94 1.2294e-16
6766.19 1.2835e-16
6767.44 1.2524e-16
6768.69 1.2176e-16
6769.94 1.2011e-16
6771.18 1.2096e-16
6772.43 1.2125e-16
6773.68 1.2315e-16
6774.93 1.2405e-16
6776.18 1.2238e-16
6777.43 1.2124e-16
6778.68 1.1874e-16
6779.93 1.1609e-16
6781.17 1.1677e-16
6782.42 1.174e-16
6783.67 1.1789e-16
6784.92 1.1865e-16
6786.17 1.1931e-16
6787.42 1.2053e-16
6788.67 1.2008e-16
6789.92 1.1871e-16
6791.16 1.188e-16
6792.41 1.1818e-16
6793.66 1.1783e-16
6794.91 1.171e-16
6796.16 1.1889e-16
6797.41 1.1643e-16
6798.66 1.1793e-16
6799.91 1.1917e-16
6801.16 1.1893e-16
6802.4 1.1548e-16
6803.65 1.1762e-16
6804.9 1.1835e-16
6806.15 1.1541e-16
6807.4 1.1517e-16
6808.65 1.1753e-16
6809.9 1.1579e-16
6811.15 1.1524e-16
6812.39 1.1324e-16
6813.64 1.1555e-16
6814.89 1.1514e-16
6816.14 1.1623e-16
6817.39 1.151e-16
6818.64 1.1526e-16
6819.89 1.1158e-16
6821.14 1.0823e-16
6822.38 1.1296e-16
6823.63 1.1604e-16
6824.88 1.146e-16
6826.13 1.1408e-16
6827.38 1.1573e-16
6828.63 1.1608e-16
6829.88 1.1325e-16
6831.13 1.1624e-16
6832.38 1.1232e-16
6833.62 1.1156e-16
6834.87 1.1367e-16
6836.12 1.1218e-16
6837.37 1.126e-16
6838.62 1.1451e-16
6839.87 1.1318e-16
6841.12 1.1407e-16
6842.37 1.1441e-16
6843.61 1.1377e-16
6844.86 1.1292e-16
6846.11 1.145e-16
6847.36 1.1136e-16
6848.61 1.1359e-16
6849.86 1.1444e-16
6851.11 1.1135e-16
6852.36 1.1041e-16
6853.6 1.1266e-16
6854.85 1.1337e-16
6856.1 1.154e-16
6857.35 1.1271e-16
6858.6 1.1389e-16
6859.85 1.1723e-16
6861.1 1.2367e-16
6862.35 1.1379e-16
6863.6 1.1167e-16
6864.84 1.1164e-16
6866.09 1.1425e-16
6867.34 1.1142e-16
6868.59 1.1026e-16
6869.84 1.106e-16
6871.09 1.0865e-16
6872.34 1.0902e-16
6873.59 1.1163e-16
6874.83 1.0898e-16
6876.08 1.0628e-16
6877.33 1.0682e-16
6878.58 1.0828e-16
6879.83 1.0832e-16
6881.08 1.1109e-16
6882.33 1.0973e-16
6883.58 1.0928e-16
6884.82 1.0858e-16
6886.07 1.1033e-16
6887.32 1.097e-16
6888.57 1.0747e-16
6889.82 1.0369e-16
6891.07 1.0916e-16
6892.32 1.0639e-16
6893.57 1.0977e-16
6894.82 1.0749e-16
6896.06 1.0829e-16
6897.31 1.089e-16
6898.56 1.0942e-16
6899.81 1.0834e-16
6901.06 1.096e-16
6902.31 1.0899e-16
6903.56 1.1083e-16
6904.81 1.0905e-16
6906.05 1.0759e-16
6907.3 1.0594e-16
6908.55 1.0597e-16
6909.8 1.0392e-16
6911.05 1.0647e-16
6912.3 1.0706e-16
6913.55 1.0776e-16
6914.8 1.083e-16
6916.04 1.0615e-16
6917.29 1.0652e-16
6918.54 1.0792e-16
6919.79 1.0518e-16
6921.04 1.0808e-16
6922.29 1.0862e-16
6923.54 1.0497e-16
6924.79 1.0454e-16
6926.04 1.0668e-16
6927.28 1.0673e-16
6928.53 1.0657e-16
6929.78 1.0521e-16
6931.03 1.0858e-16
6932.28 1.0425e-16
6933.53 1.0417e-16
6934.78 1.0582e-16
6936.03 1.0797e-16
6937.27 1.0754e-16
6938.52 1.0417e-16
6939.77 1.0504e-16
6941.02 1.0496e-16
6942.27 1.0397e-16
6943.52 1.0496e-16
6944.77 1.0652e-16
6946.02 1.0561e-16
6947.27 1.0589e-16
6948.51 1.0505e-16
6949.76 1.0402e-16
6951.01 1.0774e-16
6952.26 1.0461e-16
6953.51 1.0608e-16
6954.76 1.0655e-16
6956.01 1.0528e-16
6957.26 1.0445e-16
6958.5 1.0226e-16
6959.75 1.0509e-16
6961.0 1.0364e-16
6962.25 1.0459e-16
6963.5 1.0432e-16
6964.75 1.0373e-16
6966.0 1.0331e-16
6967.25 1.0773e-16
6968.49 1.0397e-16
6969.74 1.0449e-16
6970.99 1.0023e-16
6972.24 1.0295e-16
6973.49 1.0382e-16
6974.74 1.0214e-16
6975.99 1.0378e-16
6977.24 1.0295e-16
6978.49 1.0342e-16
6979.73 1.0051e-16
6980.98 1.0067e-16
6982.23 1.0232e-16
6983.48 1.0282e-16
6984.73 1.003e-16
6985.98 1.0173e-16
6987.23 1.0283e-16
6988.48 1.0088e-16
6989.72 1.0202e-16
6990.97 1.041e-16
6992.22 1.0394e-16
6993.47 1.0589e-16
6994.72 1.0587e-16
6995.97 1.0506e-16
6997.22 1.0419e-16
6998.47 1.0597e-16
6999.71 1.087e-16
7000.96 1.0867e-16
7002.21 1.0695e-16
7003.46 1.0973e-16
7004.71 1.0761e-16
7005.96 1.0779e-16
7007.21 1.079e-16
7008.46 1.0827e-16
7009.71 1.0773e-16
7010.95 1.1268e-16
7012.2 1.3006e-16
7013.45 1.1781e-16
7014.7 1.1248e-16
7015.95 1.103e-16
7017.2 1.0673e-16
7018.45 1.0786e-16
7019.7 1.1158e-16
7020.94 1.1087e-16
7022.19 1.1141e-16
7023.44 1.1247e-16
7024.69 1.098e-16
7025.94 1.0512e-16
7027.19 1.0869e-16
7028.44 1.0988e-16
7029.69 1.1004e-16
7030.93 1.0817e-16
7032.18 1.1119e-16
7033.43 1.1175e-16
7034.68 1.1184e-16
7035.93 1.0866e-16
7037.18 1.0746e-16
7038.43 1.0942e-16
7039.68 1.0896e-16
7040.93 1.0816e-16
7042.17 1.084e-16
7043.42 1.1109e-16
7044.67 1.1079e-16
7045.92 1.1051e-16
7047.17 1.085e-16
7048.42 1.0755e-16
7049.67 1.0763e-16
7050.92 1.0727e-16
7052.16 1.066e-16
7053.41 1.0524e-16
7054.66 1.0385e-16
7055.91 1.0501e-16
7057.16 1.0607e-16
7058.41 1.0752e-16
7059.66 1.0478e-16
7060.91 1.0725e-16
7062.15 1.0531e-16
7063.4 1.0821e-16
7064.65 1.0616e-16
7065.9 1.0528e-16
7067.15 1.0544e-16
7068.4 1.052e-16
7069.65 1.0654e-16
7070.9 1.0628e-16
7072.15 1.0589e-16
7073.39 1.0562e-16
7074.64 1.0341e-16
7075.89 1.0488e-16
7077.14 1.0642e-16
7078.39 1.0577e-16
7079.64 1.0377e-16
7080.89 1.0412e-16
7082.14 1.0578e-16
7083.38 1.065e-16
7084.63 1.0472e-16
7085.88 1.0381e-16
7087.13 1.0415e-16
7088.38 1.0427e-16
7089.63 1.0416e-16
7090.88 1.0291e-16
7092.13 1.0751e-16
7093.37 1.0411e-16
7094.62 1.0396e-16
7095.87 1.041e-16
7097.12 1.0426e-16
7098.37 1.0162e-16
7099.62 1.0354e-16
7100.87 1.0643e-16
7102.12 1.0574e-16
7103.37 1.0357e-16
7104.61 1.0339e-16
7105.86 1.0403e-16
7107.11 1.044e-16
7108.36 1.0198e-16
7109.61 1.0181e-16
7110.86 1.0409e-16
7112.11 1.0366e-16
7113.36 1.0258e-16
7114.6 1.058e-16
7115.85 1.0505e-16
7117.1 1.0323e-16
7118.35 1.0423e-16
7119.6 1.0359e-16
7120.85 1.0584e-16
7122.1 1.0554e-16
7123.35 1.0453e-16
7124.59 1.0145e-16
7125.84 1.0116e-16
7127.09 1.0253e-16
7128.34 1.0332e-16
7129.59 1.0172e-16
7130.84 1.0491e-16
7132.09 1.0399e-16
7133.34 1.0422e-16
7134.59 1.0385e-16
7135.83 1.0362e-16
7137.08 1.026e-16
7138.33 1.0514e-16
7139.58 1.025e-16
7140.83 1.0457e-16
7142.08 1.0376e-16
7143.33 1.042e-16
7144.58 1.0547e-16
7145.82 1.0479e-16
7147.07 1.0205e-16
7148.32 1.043e-16
7149.57 1.0268e-16
7150.82 1.0286e-16
7152.07 1.0107e-16
7153.32 1.0412e-16
7154.57 1.0403e-16
7155.81 1.0166e-16
7157.06 1.027e-16
7158.31 1.0168e-16
7159.56 1.0113e-16
7160.81 1.0272e-16
7162.06 1.0032e-16
7163.31 1.0189e-16
7164.56 1.0125e-16
7165.81 9.7374e-17
7167.05 9.7828e-17
7168.3 1.0176e-16
7169.55 9.82e-17
7170.8 1.0007e-16
7172.05 1.007e-16
7173.3 9.9386e-17
7174.55 1.0071e-16
7175.8 1.0291e-16
7177.04 1.01e-16
7178.29 1.0045e-16
7179.54 1.0043e-16
7180.79 9.9684e-17
7182.04 1.031e-16
7183.29 9.9142e-17
7184.54 1.0026e-16
7185.79 9.9934e-17
7187.03 1.0013e-16
7188.28 9.9996e-17
7189.53 1.0175e-16
7190.78 9.9135e-17
7192.03 1.0034e-16
7193.28 9.8977e-17
7194.53 1.0153e-16
7195.78 1.0309e-16
7197.03 1.0725e-16
7198.27 1.0067e-16
7199.52 9.7415e-17
7200.77 9.772e-17
7202.02 9.8086e-17
7203.27 9.9303e-17
7204.52 1.009e-16
7205.77 1.0045e-16
7207.02 1.0042e-16
7208.26 1.0214e-16
7209.51 1.0366e-16
7210.76 1.0072e-16
7212.01 1.0528e-16
7213.26 1.0172e-16
7214.51 1.0553e-16
7215.76 1.0329e-16
7217.01 1.0217e-16
7218.25 1.062e-16
7219.5 1.0667e-16
7220.75 1.1069e-16
7222.0 1.0679e-16
7223.25 1.0521e-16
7224.5 1.061e-16
7225.75 1.1192e-16
7227.0 1.0866e-16
7228.25 1.0942e-16
7229.49 1.1039e-16
7230.74 1.132e-16
7231.99 1.1014e-16
7233.24 1.0965e-16
7234.49 1.1421e-16
7235.74 1.1242e-16
7236.99 1.1357e-16
7238.24 1.1277e-16
7239.48 1.1101e-16
7240.73 1.104e-16
7241.98 1.1326e-16
7243.23 1.1397e-16
7244.48 1.1165e-16
7245.73 1.1235e-16
7246.98 1.1194e-16
7248.23 1.0937e-16
7249.47 1.0916e-16
7250.72 1.1064e-16
7251.97 1.1143e-16
7253.22 1.0844e-16
7254.47 1.1029e-16
7255.72 1.0851e-16
7256.97 1.0496e-16
7258.22 1.0891e-16
7259.47 1.092e-16
7260.71 1.0717e-16
7261.96 1.0712e-16
7263.21 1.0701e-16
7264.46 1.103e-16
7265.71 1.0977e-16
7266.96 1.0779e-16
7268.21 1.0562e-16
7269.46 1.0573e-16
7270.7 1.0207e-16
7271.95 1.0448e-16
7273.2 1.0489e-16
7274.45 1.0549e-16
7275.7 1.0683e-16
7276.95 9.6716e-17
7278.2 9.9134e-17
7279.45 1.0777e-16
7280.7 1.0367e-16
7281.94 1.0359e-16
7283.19 1.0136e-16
7284.44 1.0023e-16
7285.69 1.0084e-16
7286.94 1.027e-16
7288.19 1.0229e-16
7289.44 1.0344e-16
7290.69 1.0353e-16
7291.93 1.0284e-16
7293.18 1.0498e-16
7294.43 1.0498e-16
7295.68 1.0272e-16
7296.93 1.0032e-16
7298.18 1.052e-16
7299.43 1.0453e-16
7300.68 1.0457e-16
7301.92 1.0642e-16
7303.17 1.0642e-16
7304.42 1.0509e-16
7305.67 1.0626e-16
7306.92 1.0854e-16
7308.17 1.1037e-16
7309.42 1.1216e-16
7310.67 1.1256e-16
7311.92 1.1292e-16
7313.16 1.1225e-16
7314.41 1.1476e-16
7315.66 1.1696e-16
7316.91 1.1068e-16
7318.16 1.1086e-16
7319.41 1.1767e-16
7320.66 1.1416e-16
7321.91 1.148e-16
7323.15 1.1562e-16
7324.4 1.1659e-16
7325.65 1.1677e-16
7326.9 1.161e-16
7328.15 1.1789e-16
7329.4 1.186e-16
7330.65 1.1519e-16
7331.9 1.1815e-16
7333.14 1.1389e-16
7334.39 1.1579e-16
7335.64 1.1613e-16
7336.89 1.1775e-16
7338.14 1.1714e-16
7339.39 1.1992e-16
7340.64 1.229e-16
7341.89 1.1693e-16
7343.14 1.1174e-16
7344.38 1.1634e-16
7345.63 1.1609e-16
7346.88 1.1854e-16
7348.13 1.2174e-16
7349.38 1.1836e-16
7350.63 1.1878e-16
7351.88 1.1777e-16
7353.13 1.1632e-16
7354.37 1.1929e-16
7355.62 1.2094e-16
7356.87 1.1686e-16
7358.12 1.1388e-16
7359.37 1.1557e-16
7360.62 1.1703e-16
7361.87 1.1572e-16
7363.12 1.1551e-16
7364.36 1.1341e-16
7365.61 1.1376e-16
7366.86 1.1406e-16
7368.11 1.1529e-16
7369.36 1.1424e-16
7370.61 1.0779e-16
7371.86 1.1195e-16
7373.11 1.1168e-16
7374.36 1.1089e-16
7375.6 1.1245e-16
7376.85 1.1138e-16
7378.1 1.1291e-16
7379.35 1.1088e-16
7380.6 1.1318e-16
7381.85 1.1121e-16
7383.1 1.0989e-16
7384.35 1.1278e-16
7385.59 1.1172e-16
7386.84 1.109e-16
7388.09 1.0893e-16
7389.34 1.0656e-16
7390.59 1.0863e-16
7391.84 1.0762e-16
7393.09 1.0568e-16
7394.34 1.059e-16
7395.58 1.0692e-16
7396.83 1.0552e-16
7398.08 1.0606e-16
7399.33 1.0667e-16
7400.58 1.043e-16
7401.83 1.0629e-16
7403.08 1.0347e-16
7404.33 1.0757e-16
7405.58 1.0362e-16
7406.82 1.0466e-16
7408.07 1.0397e-16
7409.32 1.0343e-16
7410.57 1.0531e-16
7411.82 1.0362e-16
7413.07 1.0293e-16
7414.32 1.0058e-16
7415.57 1.0373e-16
7416.81 9.9413e-17
7418.06 1.0114e-16
7419.31 1.0326e-16
7420.56 1.0117e-16
7421.81 1.0105e-16
7423.06 1.0385e-16
7424.31 1.0127e-16
7425.56 1.0264e-16
7426.8 1.0375e-16
7428.05 9.7773e-17
7429.3 9.9469e-17
7430.55 9.5204e-17
7431.8 9.9445e-17
7433.05 9.8288e-17
7434.3 1.0142e-16
7435.55 9.9974e-17
7436.8 1.0006e-16
7438.04 9.7081e-17
7439.29 9.7489e-17
7440.54 1.0243e-16
7441.79 1.0247e-16
7443.04 9.9056e-17
7444.29 1.0013e-16
7445.54 1.0017e-16
7446.79 9.9466e-17
7448.03 1.0345e-16
7449.28 1.0285e-16
7450.53 1.037e-16
7451.78 1.0129e-16
7453.03 1.0388e-16
7454.28 1.0479e-16
7455.53 1.022e-16
7456.78 1.0492e-16
7458.02 1.0401e-16
7459.27 1.0515e-16
7460.52 1.0637e-16
7461.77 1.0796e-16
7463.02 1.0472e-16
7464.27 1.0852e-16
7465.52 1.0921e-16
7466.77 1.0949e-16
7468.02 1.086e-16
7469.26 1.0985e-16
7470.51 1.1023e-16
7471.76 1.0831e-16
7473.01 1.103e-16
7474.26 1.079e-16
7475.51 1.0991e-16
7476.76 1.1283e-16
7478.01 1.1237e-16
7479.25 1.1284e-16
7480.5 1.1081e-16
7481.75 1.1105e-16
7483.0 1.094e-16
7484.25 1.1155e-16
7485.5 1.1364e-16
7486.75 1.1102e-16
7488.0 1.1161e-16
7489.24 1.1031e-16
7490.49 1.1143e-16
7491.74 1.0877e-16
7492.99 1.1102e-16
7494.24 1.1198e-16
7495.49 1.1118e-16
7496.74 1.1013e-16
7497.99 1.0933e-16
7499.24 1.0733e-16
7500.48 1.0537e-16
7501.73 1.0616e-16
7502.98 1.1197e-16
7504.23 1.0916e-16
7505.48 1.0758e-16
7506.73 1.0782e-16
7507.98 1.0761e-16
7509.23 1.0876e-16
7510.47 1.0761e-16
7511.72 1.0848e-16
7512.97 1.1015e-16
7514.22 1.0879e-16
7515.47 1.074e-16
7516.72 1.0503e-16
7517.97 1.0683e-16
7519.22 1.0717e-16
7520.46 1.0746e-16
7521.71 1.0828e-16
7522.96 1.0655e-16
7524.21 1.0246e-16
7525.46 1.0057e-16
7526.71 1.0614e-16
7527.96 1.0501e-16
7529.21 1.0619e-16
7530.46 1.0596e-16
7531.7 1.0714e-16
7532.95 1.0453e-16
7534.2 1.0509e-16
7535.45 1.0746e-16
7536.7 1.0494e-16
7537.95 1.0405e-16
7539.2 1.0543e-16
7540.45 1.0346e-16
7541.69 1.0415e-16
7542.94 1.062e-16
7544.19 1.0695e-16
7545.44 1.0707e-16
7546.69 1.0696e-16
7547.94 1.0668e-16
7549.19 1.0541e-16
7550.44 1.0146e-16
7551.68 1.0273e-16
7552.93 1.057e-16
7554.18 1.0334e-16
7555.43 1.0563e-16
7556.68 9.9695e-17
7557.93 1.0338e-16
7559.18 1.0374e-16
7560.43 1.0263e-16
7561.68 1.0385e-16
7562.92 1.0366e-16
7564.17 1.0417e-16
7565.42 1.066e-16
7566.67 1.0324e-16
7567.92 1.0187e-16
7569.17 1.0374e-16
7570.42 9.8746e-17
7571.67 1.0053e-16
7572.91 1.0122e-16
7574.16 1.0573e-16
7575.41 1.0562e-16
7576.66 1.0332e-16
7577.91 1.0242e-16
7579.16 1.0225e-16
7580.41 1.0158e-16
7581.66 1.026e-16
7582.9 1.0055e-16
7584.15 1.0163e-16
7585.4 1.029e-16
7586.65 1.0094e-16
7587.9 1.0177e-16
7589.15 1.0028e-16
7590.4 1.0126e-16
7591.65 1.0632e-16
7592.9 1.2794e-16
7594.14 1.1328e-16
7595.39 9.5456e-17
7596.64 9.865e-17
7597.89 1.0012e-16
7599.14 1.0362e-16
7600.39 9.8045e-17
7601.64 9.3578e-17
7602.89 9.0158e-17
7604.13 9.3682e-17
7605.38 9.3576e-17
7606.63 9.0617e-17
7607.88 9.1449e-17
7609.13 9.7079e-17
7610.38 9.1819e-17
7611.63 9.5684e-17
7612.88 9.3726e-17
7614.12 9.6003e-17
7615.37 9.8188e-17
7616.62 9.6369e-17
7617.87 9.7349e-17
7619.12 9.7634e-17
7620.37 9.5932e-17
7621.62 9.4968e-17
7622.87 9.2609e-17
7624.12 9.3717e-17
7625.36 9.06e-17
7626.61 9.432e-17
7627.86 9.0991e-17
7629.11 9.1805e-17
7630.36 8.9086e-17
7631.61 9.1561e-17
7632.86 9.0279e-17
7634.11 9.4598e-17
7635.35 9.1227e-17
7636.6 9.1778e-17
7637.85 9.3198e-17
7639.1 9.3871e-17
7640.35 8.7695e-17
7641.6 9.3458e-17
7642.85 9.9314e-17
7644.1 9.0169e-17
7645.35 9.0093e-17
7646.59 9.6494e-17
7647.84 9.4916e-17
7649.09 9.1361e-17
7650.34 8.7315e-17
7651.59 9.694e-17
7652.84 9.9835e-17
7654.09 8.9275e-17
7655.34 8.7804e-17
7656.58 9.3351e-17
7657.83 9.6509e-17
7659.08 9.4491e-17
7660.33 9.235e-17
7661.58 9.2286e-17
7662.83 9.3948e-17
7664.08 9.4765e-17
7665.33 9.3338e-17
7666.57 9.0834e-17
7667.82 9.244e-17
7669.07 9.2069e-17
7670.32 9.1316e-17
7671.57 9.2582e-17
7672.82 9.0866e-17
7674.07 9.3275e-17
7675.32 9.1272e-17
7676.57 9.0674e-17
7677.81 9.0095e-17
7679.06 9.115e-17
7680.31 9.0174e-17
7681.56 8.805e-17
7682.81 9.1201e-17
7684.06 9.0958e-17
7685.31 8.7798e-17
7686.56 8.9698e-17
7687.8 8.9604e-17
7689.05 8.6479e-17
7690.3 8.97e-17
7691.55 8.9169e-17
7692.8 9.0155e-17
7694.05 9.2122e-17
7695.3 8.8972e-17
7696.55 8.9987e-17
7697.79 9.2829e-17
7699.04 9.3924e-17
7700.29 9.2102e-17
7701.54 9.5222e-17
7702.79 9.6923e-17
7704.04 9.768e-17
7705.29 1.0011e-16
7706.54 9.935e-17
7707.79 1.0043e-16
7709.03 1.0239e-16
7710.28 1.05e-16
7711.53 1.0576e-16
7712.78 1.0297e-16
7714.03 1.0375e-16
7715.28 1.0898e-16
7716.53 1.0316e-16
7717.78 1.0024e-16
7719.02 1.022e-16
7720.27 1.0754e-16
7721.52 1.0417e-16
7722.77 1.0552e-16
7724.02 1.0338e-16
7725.27 1.0451e-16
7726.52 1.0492e-16
7727.77 1.0484e-16
7729.01 1.0333e-16
7730.26 1.019e-16
7731.51 9.9305e-17
7732.76 9.8572e-17
7734.01 9.8177e-17
7735.26 9.3776e-17
7736.51 9.502e-17
7737.76 9.0643e-17
7739.01 8.7999e-17
7740.25 8.644e-17
7741.5 8.4007e-17
7742.75 8.0087e-17
7744.0 7.87e-17
7745.25 7.7853e-17
7746.5 7.5515e-17
7747.75 7.5995e-17
7749.0 7.4981e-17
7750.24 7.0478e-17
7751.49 6.2128e-17
7752.74 7.2741e-17
7753.99 7.3428e-17
7755.24 7.2206e-17
7756.49 7.1404e-17
7757.74 7.1846e-17
7758.99 7.0707e-17
7760.23 7.2278e-17
7761.48 7.1112e-17
7762.73 7.43e-17
7763.98 7.5548e-17
7765.23 8.1257e-17
7766.48 7.8569e-17
7767.73 8.4328e-17
7768.98 8.4065e-17
7770.23 8.2643e-17
7771.47 8.6471e-17
7772.72 8.45e-17
7773.97 8.8586e-17
7775.22 8.9502e-17
7776.47 8.9862e-17
7777.72 9.2771e-17
7778.97 9.3066e-17
7780.22 9.0459e-17
7781.46 9.2183e-17
7782.71 9.4467e-17
7783.96 9.691e-17
7785.21 9.6536e-17
7786.46 9.7734e-17
7787.71 9.7609e-17
7788.96 9.9982e-17
7790.21 1.0129e-16
7791.45 1.0046e-16
7792.7 1.033e-16
7793.95 1.0051e-16
7795.2 9.7714e-17
7796.45 1.0511e-16
7797.7 1.0219e-16
7798.95 1.0519e-16
7800.2 1.0486e-16
7801.45 1.006e-16
7802.69 1.0519e-16
7803.94 1.0698e-16
7805.19 1.0547e-16
7806.44 1.0546e-16
7807.69 1.0748e-16
7808.94 1.0607e-16
7810.19 1.0669e-16
7811.44 1.0303e-16
7812.68 1.0658e-16
7813.93 1.0699e-16
7815.18 1.0371e-16
7816.43 1.0407e-16
7817.68 1.0605e-16
7818.93 1.078e-16
7820.18 1.0928e-16
7821.43 9.7613e-17
7822.67 9.3993e-17
7823.92 1.1041e-16
7825.17 1.0739e-16
7826.42 1.0282e-16
7827.67 1.0373e-16
7828.92 1.0199e-16
7830.17 1.0063e-16
7831.42 1.0538e-16
7832.67 1.0265e-16
7833.91 1.0208e-16
7835.16 1.0136e-16
7836.41 1.0466e-16
7837.66 1.0386e-16
7838.91 1.0365e-16
7840.16 1.0095e-16
7841.41 9.8315e-17
7842.66 1.0007e-16
7843.9 1.0079e-16
7845.15 9.9273e-17
7846.4 9.6453e-17
7847.65 9.9096e-17
7848.9 9.8708e-17
7850.15 9.8275e-17
7851.4 1.006e-16
7852.65 9.3079e-17
7853.89 8.6219e-17
7855.14 9.6733e-17
7856.39 1.0026e-16
7857.64 9.726e-17
7858.89 9.5905e-17
7860.14 9.6173e-17
7861.39 9.2381e-17
7862.64 9.454e-17
7863.89 9.7002e-17
7865.13 9.2404e-17
7866.38 9.4376e-17
7867.63 9.6003e-17
7868.88 9.8913e-17
7870.13 9.5189e-17
7871.38 9.4366e-17
7872.63 9.2063e-17
7873.88 9.4575e-17
7875.12 9.4291e-17
7876.37 9.4952e-17
7877.62 9.881e-17
7878.87 9.3898e-17
7880.12 9.8661e-17
7881.37 9.4378e-17
7882.62 9.5033e-17
7883.87 9.4893e-17
7885.11 9.2329e-17
7886.36 9.2937e-17
7887.61 9.4822e-17
7888.86 9.2582e-17
7890.11 8.8521e-17
7891.36 9.1024e-17
7892.61 9.7864e-17
7893.86 9.5872e-17
7895.11 9.5318e-17
7896.35 9.3746e-17
7897.6 9.3633e-17
7898.85 9.6328e-17
7900.1 9.1952e-17
7901.35 9.3531e-17
7902.6 9.0423e-17
7903.85 9.5753e-17
7905.1 9.3202e-17
7906.34 9.3714e-17
7907.59 9.1658e-17
7908.84 9.5076e-17
7910.09 9.0135e-17
7911.34 9.283e-17
7912.59 9.8535e-17
7913.84 8.922e-17
7915.09 8.7381e-17
7916.33 9.6484e-17
7917.58 9.6209e-17
7918.83 9.5482e-17
7920.08 9.305e-17
7921.33 8.8175e-17
7922.58 9.0347e-17
7923.83 9.6378e-17
7925.08 9.6943e-17
7926.33 9.2804e-17
7927.57 9.3408e-17
7928.82 9.278e-17
7930.07 9.1849e-17
7931.32 8.8947e-17
7932.57 9.0686e-17
7933.82 9.1203e-17
7935.07 9.3825e-17
7936.32 9.5363e-17
7937.56 9.2614e-17
7938.81 9.1257e-17
7940.06 9.2933e-17
7941.31 8.8513e-17
7942.56 9.2701e-17
7943.81 9.347e-17
7945.06 9.5623e-17
7946.31 9.1263e-17
7947.55 9.1274e-17
7948.8 9.1111e-17
7950.05 9.0546e-17
7951.3 9.4369e-17
7952.55 9.0634e-17
7953.8 9.1423e-17
7955.05 9.1868e-17
7956.3 9.3622e-17
7957.55 9.4052e-17
7958.79 9.0767e-17
7960.04 9.0259e-17
7961.29 9.0544e-17
7962.54 9.1197e-17
7963.79 9.4478e-17
7965.04 9.2331e-17
7966.29 9.2083e-17
7967.54 8.7551e-17
7968.78 9.0798e-17
7970.03 8.9049e-17
7971.28 8.7513e-17
7972.53 9.1935e-17
7973.78 8.807e-17
7975.03 9.1994e-17
7976.28 9.4036e-17
7977.53 9.2174e-17
7978.78 9.1822e-17
7980.02 8.9519e-17
7981.27 9.1179e-17
7982.52 9.3133e-17
7983.77 9.1662e-17
7985.02 9.0907e-17
7986.27 8.9025e-17
7987.52 8.9438e-17
7988.77 9.1162e-17
7990.01 8.8398e-17
7991.26 9.1347e-17
7992.51 9.6567e-17
7993.76 9.0958e-17
7995.01 8.9342e-17
7996.26 8.9609e-17
7997.51 8.9452e-17
7998.76 9.0712e-17
8000.0 9.0766e-17
8001.25 8.7033e-17
8002.5 9.0645e-17
8003.75 9.1185e-17
8005.0 8.6675e-17
8006.25 8.9538e-17
8007.5 9.1428e-17
8008.75 9.0975e-17
8010.0 9.2153e-17
8011.24 8.9575e-17
8012.49 8.8469e-17
8013.74 8.9143e-17
8014.99 9.0806e-17
8016.24 9.3081e-17
8017.49 9.4256e-17
8018.74 8.7742e-17
8019.99 8.9698e-17
8021.23 8.9098e-17
8022.48 9.1107e-17
8023.73 9.1272e-17
8024.98 8.9128e-17
8026.23 8.8063e-17
8027.48 9.0821e-17
8028.73 9.1984e-17
8029.98 8.8386e-17
8031.22 8.8031e-17
8032.47 8.9355e-17
8033.72 8.9214e-17
8034.97 8.9546e-17
8036.22 8.696e-17
8037.47 8.8849e-17
8038.72 8.9495e-17
8039.97 9.0402e-17
8041.22 9.2031e-17
8042.46 8.9003e-17
8043.71 8.9097e-17
8044.96 8.7887e-17
8046.21 8.9473e-17
8047.46 8.7364e-17
8048.71 9.0546e-17
8049.96 9.2951e-17
8051.21 8.8953e-17
8052.45 9.0947e-17
8053.7 9.2202e-17
8054.95 8.9085e-17
8056.2 8.9056e-17
8057.45 8.822e-17
8058.7 8.8441e-17
8059.95 9.0546e-17
8061.2 8.9725e-17
8062.44 8.9013e-17
8063.69 8.76e-17
8064.94 9.0936e-17
8066.19 8.9346e-17
8067.44 9.0509e-17
8068.69 8.9414e-17
8069.94 8.8223e-17
8071.19 9.1334e-17
8072.44 8.9626e-17
8073.68 8.9594e-17
8074.93 8.6571e-17
8076.18 8.9038e-17
8077.43 9.2154e-17
8078.68 8.5967e-17
8079.93 8.8117e-17
8081.18 8.6806e-17
8082.43 8.6204e-17
8083.67 9.0653e-17
8084.92 8.9032e-17
8086.17 8.5674e-17
8087.42 8.8487e-17
8088.67 8.7282e-17
8089.92 8.9201e-17
8091.17 8.8853e-17
8092.42 8.8802e-17
8093.66 8.6892e-17
8094.91 8.7701e-17
8096.16 8.9222e-17
8097.41 8.7968e-17
8098.66 8.6141e-17
8099.91 8.6645e-17
8101.16 8.596e-17
8102.41 8.8573e-17
8103.66 8.6922e-17
8104.9 8.8606e-17
8106.15 8.9261e-17
8107.4 9.0522e-17
8108.65 8.96e-17
8109.9 8.7935e-17
8111.15 8.9577e-17
8112.4 8.5588e-17
8113.65 8.4168e-17
8114.89 8.7852e-17
8116.14 8.7263e-17
8117.39 8.5948e-17
8118.64 8.7163e-17
8119.89 8.5644e-17
8121.14 8.6674e-17
8122.39 8.8686e-17
8123.64 8.6025e-17
8124.88 8.7376e-17
8126.13 8.9577e-17
8127.38 8.9177e-17
8128.63 8.8935e-17
8129.88 8.437e-17
8131.13 8.4599e-17
8132.38 8.8693e-17
8133.63 8.682e-17
8134.88 8.7658e-17
8136.12 8.7654e-17
8137.37 8.9361e-17
8138.62 8.7571e-17
8139.87 8.7457e-17
8141.12 8.5817e-17
8142.37 8.6236e-17
8143.62 8.678e-17
8144.87 8.6445e-17
8146.11 8.8591e-17
8147.36 8.6878e-17
8148.61 8.4614e-17
8149.86 8.5903e-17
8151.11 8.6212e-17
8152.36 8.4554e-17
8153.61 8.3281e-17
8154.86 8.8932e-17
8156.1 8.2628e-17
8157.35 8.5174e-17
8158.6 8.2797e-17
8159.85 8.054e-17
8161.1 8.1627e-17
8162.35 8.5053e-17
8163.6 8.5675e-17
8164.85 8.9934e-17
8166.1 8.285e-17
8167.34 8.5331e-17
8168.59 8.3162e-17
8169.84 8.1759e-17
8171.09 8.44e-17
8172.34 8.343e-17
8173.59 7.833e-17
8174.84 8.2781e-17
8176.09 7.8142e-17
8177.33 7.9618e-17
8178.58 8.4472e-17
8179.83 8.6567e-17
8181.08 8.1419e-17
8182.33 8.3461e-17
8183.58 8.306e-17
8184.83 8.1091e-17
8186.08 7.9028e-17
8187.32 8.3265e-17
8188.57 8.251e-17
8189.82 8.1641e-17
8191.07 8.673e-17
8192.32 8.2107e-17
8193.57 8.7418e-17
8194.82 8.4478e-17
8196.07 6.8483e-17
8197.32 7.4506e-17
8198.56 8.1444e-17
8199.81 8.5116e-17
8201.06 8.223e-17
8202.31 8.379e-17
8203.56 8.0096e-17
8204.81 8.1114e-17
8206.06 8.3157e-17
8207.31 8.4068e-17
8208.55 8.3134e-17
8209.8 8.6244e-17
8211.05 8.2577e-17
8212.3 8.3823e-17
8213.55 8.5193e-17
8214.8 8.3649e-17
8216.05 8.2539e-17
8217.3 8.1907e-17
8218.54 7.7238e-17
8219.79 8.6701e-17
8221.04 8.1628e-17
8222.29 8.4588e-17
8223.54 8.3937e-17
8224.79 8.2435e-17
8226.04 8.6882e-17
8227.29 8.8765e-17
8228.54 8.7119e-17
8229.78 8.7335e-17
8231.03 8.7444e-17
8232.28 8.5976e-17
8233.53 8.6441e-17
8234.78 8.3908e-17
8236.03 8.1506e-17
8237.28 8.3285e-17
8238.53 8.2414e-17
8239.77 8.3687e-17
8241.02 8.2044e-17
8242.27 8.3944e-17
8243.52 8.0042e-17
8244.77 8.8982e-17
8246.02 8.2123e-17
8247.27 8.661e-17
8248.52 8.4793e-17
8249.76 9.0227e-17
8251.01 8.3807e-17
8252.26 8.2529e-17
8253.51 8.4514e-17
8254.76 8.4295e-17
8256.01 8.5131e-17
8257.26 8.4868e-17
8258.51 8.6296e-17
8259.76 8.5417e-17
8261.0 8.627e-17
8262.25 9.1033e-17
8263.5 8.9201e-17
8264.75 8.4591e-17
8266.0 8.4685e-17
8267.25 8.8417e-17
8268.5 8.7018e-17
8269.75 8.7711e-17
8270.99 8.9398e-17
8272.24 8.8716e-17
8273.49 8.6596e-17
8274.74 8.5632e-17
8275.99 8.9166e-17
8277.24 8.5318e-17
8278.49 8.3664e-17
8279.74 9.0077e-17
8280.98 9.2144e-17
8282.23 8.4714e-17
8283.48 8.7805e-17
8284.73 8.5683e-17
8285.98 8.6146e-17
8287.23 8.5711e-17
8288.48 8.6964e-17
8289.73 8.8046e-17
8290.98 8.5801e-17
8292.22 8.5577e-17
8293.47 8.6166e-17
8294.72 8.7346e-17
8295.97 8.7059e-17
8297.22 8.9134e-17
8298.47 8.3225e-17
8299.72 7.784e-17
8300.97 8.3565e-17
8302.21 8.5636e-17
8303.46 8.2077e-17
8304.71 8.1631e-17
8305.96 8.6415e-17
8307.21 8.3693e-17
8308.46 8.6909e-17
8309.71 8.0234e-17
8310.96 8.2861e-17
8312.21 7.639e-17
8313.45 7.8284e-17
8314.7 7.892e-17
8315.95 8.024e-17
8317.2 7.8756e-17
8318.45 8.0585e-17
8319.7 8.0337e-17
8320.95 7.6469e-17
8322.2 7.9074e-17
8323.44 8.2663e-17
8324.69 7.8885e-17
8325.94 7.9577e-17
8327.19 8.0631e-17
8328.44 8.2342e-17
8329.69 7.771e-17
8330.94 8.1367e-17
8332.19 8.1927e-17
8333.43 7.9515e-17
8334.68 8.1644e-17
8335.93 8.0534e-17
8337.18 8.2083e-17
8338.43 8.0901e-17
8339.68 8.0668e-17
8340.93 7.9855e-17
8342.18 8.5488e-17
8343.43 8.9542e-17
8344.67 7.4889e-17
8345.92 8.1225e-17
8347.17 8.2326e-17
8348.42 7.4759e-17
8349.67 7.2142e-17
8350.92 7.3937e-17
8352.17 6.9436e-17
8353.42 7.5036e-17
8354.66 7.3955e-17
8355.91 6.861e-17
8357.16 6.7032e-17
8358.41 6.5672e-17
8359.66 6.6072e-17
8360.91 6.7085e-17
8362.16 6.5676e-17
8363.41 6.081e-17
8364.65 5.7961e-17
8365.9 6.1084e-17
8367.15 5.5477e-17
8368.4 5.4023e-17
8369.65 5.3365e-17
8370.9 4.7438e-17
8372.15 4.9444e-17
8373.4 4.8493e-17
8374.65 4.6399e-17
8375.89 4.4275e-17
8377.14 4.2427e-17
8378.39 4.2077e-17
8379.64 4.0056e-17
8380.89 3.8184e-17
8382.14 3.2441e-17
8383.39 3.3996e-17
8384.64 3.5212e-17
8385.88 3.1886e-17
8387.13 2.9986e-17
8388.38 2.9295e-17
8389.63 2.7942e-17
8390.88 2.8045e-17
8392.13 2.4498e-17
8393.38 2.3107e-17
8394.63 2.2065e-17
8395.87 1.9662e-17
8397.12 2.4886e-17
8398.37 2.4012e-17
8399.62 1.4239e-17
8400.87 1.8575e-17
8402.12 2.2934e-17
8403.37 2.0537e-17
8404.62 1.9199e-17
8405.87 1.5732e-17
8407.11 1.9134e-17
8408.36 1.5713e-17
8409.61 1.8116e-17
8410.86 1.6563e-17
8412.11 1.6509e-17
8413.36 1.5362e-17
8414.61 1.4085e-17
8415.86 1.59e-17
8417.1 2.076e-17
8418.35 1.7121e-17
8419.6 1.6148e-17
8420.85 1.7551e-17
8422.1 1.8981e-17
8423.35 1.6771e-17
8424.6 1.939e-17
8425.85 2.1034e-17
8427.09 1.8046e-17
8428.34 1.3455e-17
8429.59 2.3879e-17
8430.84 2.6702e-17
8432.09 2.0316e-17
8433.34 1.3928e-17
8434.59 1.8094e-17
8435.84 1.8468e-17
8437.09 1.93e-17
8438.33 1.9358e-17
8439.58 1.9966e-17
8440.83 1.9979e-17
8442.08 1.9583e-17
8443.33 1.6094e-17
8444.58 1.9627e-17
8445.83 1.997e-17
8447.08 1.9943e-17
8448.32 2.0893e-17
8449.57 2.2123e-17
8450.82 2.0564e-17
8452.07 2.2027e-17
8453.32 2.2985e-17
8454.57 2.7525e-17
8455.82 2.4029e-17
8457.07 2.3556e-17
8458.31 2.3261e-17
8459.56 2.1879e-17
8460.81 2.3255e-17
8462.06 2.4814e-17
8463.31 2.5128e-17
8464.56 2.9272e-17
8465.81 3.6938e-17
8467.06 2.9867e-17
8468.31 2.8854e-17
8469.55 2.8033e-17
8470.8 2.9013e-17
8472.05 2.7845e-17
8473.3 2.6281e-17
8474.55 3.1947e-17
8475.8 3.0543e-17
8477.05 3.1094e-17
8478.3 3.1536e-17
8479.54 3.2855e-17
8480.79 3.4653e-17
8482.04 3.3064e-17
8483.29 3.2726e-17
8484.54 3.1295e-17
8485.79 3.3728e-17
8487.04 3.8384e-17
8488.29 4.0052e-17
8489.53 4.1668e-17
8490.78 3.8799e-17
8492.03 4.0789e-17
8493.28 4.1711e-17
8494.53 4.6946e-17
8495.78 4.5547e-17
8497.03 4.4759e-17
8498.28 4.763e-17
8499.53 4.5698e-17
8500.77 4.9482e-17
8502.02 4.9336e-17
8503.27 4.7656e-17
8504.52 5.6435e-17
8505.77 5.9364e-17
8507.02 5.6603e-17
8508.27 5.6044e-17
8509.52 5.6316e-17
8510.76 5.5856e-17
8512.01 5.9338e-17
8513.26 5.88e-17
8514.51 6.299e-17
8515.76 5.9123e-17
8517.01 6.2023e-17
8518.26 6.244e-17
8519.51 6.5463e-17
8520.75 6.6028e-17
8522.0 6.3508e-17
8523.25 6.1138e-17
8524.5 6.1632e-17
8525.75 6.564e-17
8527.0 6.322e-17
8528.25 6.328e-17
8529.5 6.1965e-17
8530.75 6.2881e-17
8531.99 6.348e-17
8533.24 6.6907e-17
8534.49 6.3231e-17
8535.74 5.9871e-17
8536.99 6.2659e-17
8538.24 6.0478e-17
8539.49 6.2216e-17
8540.74 6.1325e-17
8541.98 6.3722e-17
8543.23 6.1735e-17
8544.48 5.7768e-17
8545.73 5.9823e-17
8546.98 6.0561e-17
8548.23 5.4283e-17
8549.48 5.5948e-17
8550.73 5.7016e-17
8551.97 5.7001e-17
8553.22 5.6794e-17
8554.47 5.7282e-17
8555.72 5.5057e-17
8556.97 5.3985e-17
8558.22 5.5248e-17
8559.47 5.538e-17
8560.72 5.1026e-17
8561.97 4.9362e-17
8563.21 4.9905e-17
8564.46 4.7935e-17
8565.71 5.0847e-17
8566.96 5.0775e-17
8568.21 5.1812e-17
8569.46 5.1478e-17
8570.71 5.2714e-17
8571.96 5.3766e-17
8573.2 4.9998e-17
8574.45 5.188e-17
8575.7 4.8984e-17
8576.95 4.8505e-17
8578.2 4.5752e-17
8579.45 4.6287e-17
8580.7 4.578e-17
8581.95 4.73e-17
8583.19 4.8178e-17
8584.44 4.9551e-17
8585.69 4.9452e-17
8586.94 5.1294e-17
8588.19 5.0651e-17
8589.44 5.0867e-17
8590.69 5.0842e-17
8591.94 5.3945e-17
8593.19 5.3107e-17
8594.43 5.0958e-17
8595.68 4.9909e-17
8596.93 5.4394e-17
8598.18 5.5674e-17
8599.43 5.486e-17
8600.68 5.7651e-17
8601.93 5.8409e-17
8603.18 5.6406e-17
8604.42 5.388e-17
8605.67 5.4096e-17
8606.92 5.6811e-17
8608.17 5.7283e-17
8609.42 6.1796e-17
8610.67 5.9698e-17
8611.92 5.9575e-17
8613.17 6.119e-17
8614.41 5.9859e-17
8615.66 6.7398e-17
8616.91 6.4938e-17
8618.16 6.5963e-17
8619.41 6.8175e-17
8620.66 6.7609e-17
8621.91 7.0216e-17
8623.16 7.1344e-17
8624.41 7.2174e-17
8625.65 7.4334e-17
8626.9 7.2506e-17
8628.15 8.1834e-17
8629.4 8.1134e-17
8630.65 8.1261e-17
8631.9 8.5576e-17
8633.15 8.7527e-17
8634.4 9.0011e-17
8635.64 9.1175e-17
8636.89 9.4649e-17
8638.14 9.7896e-17
8639.39 1.0219e-16
8640.64 1.0502e-16
8641.89 1.0848e-16
8643.14 1.1392e-16
8644.39 1.404e-16
8645.64 1.1186e-16
8646.88 1.1405e-16
8648.13 1.1405e-16
8649.38 1.1505e-16
8650.63 1.1314e-16
8651.88 1.1947e-16
8653.13 1.2536e-16
8654.38 1.2516e-16
8655.63 1.2625e-16
8656.87 1.2825e-16
8658.12 1.3071e-16
8659.37 1.3282e-16
8660.62 1.3314e-16
8661.87 1.3892e-16
8663.12 1.3494e-16
8664.37 1.3648e-16
8665.62 1.4279e-16
8666.86 1.4458e-16
8668.11 1.4285e-16
8669.36 1.4599e-16
8670.61 1.4482e-16
8671.86 1.5066e-16
8673.11 1.5361e-16
8674.36 1.5059e-16
8675.61 1.5578e-16
8676.86 1.601e-16
8678.1 1.5481e-16
8679.35 1.5523e-16
8680.6 1.6051e-16
8681.85 1.5949e-16
8683.1 1.606e-16
8684.35 1.5998e-16
8685.6 1.5805e-16
8686.85 1.6124e-16
8688.09 1.5857e-16
8689.34 1.6099e-16
8690.59 1.6552e-16
8691.84 1.6109e-16
8693.09 1.5901e-16
8694.34 1.5617e-16
8695.59 1.603e-16
8696.84 1.6032e-16
8698.08 1.5969e-16
8699.33 1.5963e-16
8700.58 1.5958e-16
8701.83 1.5644e-16
8703.08 1.5603e-16
8704.33 1.5747e-16
8705.58 1.6106e-16
8706.83 1.592e-16
8708.08 1.6141e-16
8709.32 1.6421e-16
8710.57 1.6241e-16
8711.82 1.5613e-16
8713.07 1.5584e-16
8714.32 1.5753e-16
8715.57 1.5608e-16
8716.82 1.5572e-16
8718.07 1.5383e-16
8719.31 1.5325e-16
8720.56 1.5349e-16
8721.81 1.5201e-16
8723.06 1.5427e-16
8724.31 1.524e-16
8725.56 1.4523e-16
8726.81 1.4605e-16
8728.06 1.4708e-16
8729.3 1.4432e-16
8730.55 1.4378e-16
8731.8 1.4108e-16
8733.05 1.419e-16
8734.3 1.4776e-16
8735.55 1.455e-16
8736.8 1.4565e-16
8738.05 1.417e-16
8739.3 1.399e-16
8740.54 1.4107e-16
8741.79 1.4156e-16
8743.04 1.4345e-16
8744.29 1.4223e-16
8745.54 1.4001e-16
8746.79 1.431e-16
8748.04 1.4054e-16
8749.29 1.3651e-16
8750.53 1.3645e-16
8751.78 1.3548e-16
8753.03 1.3513e-16
8754.28 1.3746e-16
8755.53 1.3458e-16
8756.78 1.3366e-16
8758.03 1.3209e-16
8759.28 1.2939e-16
8760.52 1.3019e-16
8761.77 1.3358e-16
8763.02 1.2946e-16
8764.27 1.2608e-16
8765.52 1.2649e-16
8766.77 1.2382e-16
8768.02 1.2843e-16
8769.27 1.2725e-16
8770.52 1.2164e-16
8771.76 1.2242e-16
8773.01 1.2246e-16
8774.26 1.2423e-16
8775.51 1.1528e-16
8776.76 1.2172e-16
8778.01 1.1639e-16
8779.26 1.1518e-16
8780.51 1.2547e-16
8781.75 1.1743e-16
8783.0 1.1987e-16
8784.25 1.2169e-16
8785.5 1.1276e-16
8786.75 1.1835e-16
8788.0 1.1307e-16
8789.25 1.1259e-16
8790.5 1.0548e-16
8791.74 1.1557e-16
8792.99 1.1597e-16
8794.24 1.1357e-16
8795.49 1.1147e-16
8796.74 1.0994e-16
8797.99 1.1417e-16
8799.24 1.1386e-16
8800.49 1.1218e-16
8801.74 1.0868e-16
8802.98 1.0662e-16
8804.23 1.0255e-16
8805.48 1.039e-16
8806.73 1.0424e-16
8807.98 1.0036e-16
8809.23 1.0314e-16
8810.48 1.0342e-16
8811.73 1.057e-16
8812.97 1.013e-16
8814.22 9.6959e-17
8815.47 1.0061e-16
8816.72 9.6939e-17
8817.97 1.0157e-16
8819.22 1.033e-16
8820.47 1.0002e-16
8821.72 9.8039e-17
8822.96 9.9415e-17
8824.21 1.0065e-16
8825.46 1.0664e-16
8826.71 9.9558e-17
8827.96 9.8206e-17
8829.21 8.5258e-17
8830.46 9.5782e-17
8831.71 9.4793e-17
8832.96 9.232e-17
8834.2 9.3307e-17
8835.45 9.1567e-17
8836.7 9.3789e-17
8837.95 9.2382e-17
8839.2 9.1642e-17
8840.45 9.0451e-17
8841.7 8.5638e-17
8842.95 8.5868e-17
8844.19 8.382e-17
8845.44 8.6575e-17
8846.69 8.7262e-17
8847.94 8.2522e-17
8849.19 8.255e-17
8850.44 8.8751e-17
8851.69 8.8507e-17
8852.94 8.2321e-17
8854.18 8.33e-17
8855.43 8.5358e-17
8856.68 8.5586e-17
8857.93 8.1937e-17
8859.18 7.9285e-17
8860.43 8.232e-17
8861.68 8.4625e-17
8862.93 8.6736e-17
8864.18 8.6038e-17
8865.42 8.336e-17
8866.67 8.6904e-17
8867.92 9.0262e-17
8869.17 8.7466e-17
8870.42 8.6191e-17
8871.67 7.8263e-17
8872.92 7.8249e-17
8874.17 7.8494e-17
8875.41 8.0566e-17
8876.66 7.9372e-17
8877.91 7.3636e-17
8879.16 7.5524e-17
8880.41 7.5996e-17
8881.66 7.1281e-17
8882.91 7.16e-17
8884.16 7.6516e-17
8885.4 6.4981e-17
8886.65 7.5742e-17
8887.9 7.0174e-17
8889.15 6.7414e-17
8890.4 6.5699e-17
8891.65 6.9879e-17
8892.9 6.5087e-17
8894.15 6.5234e-17
8895.4 6.5794e-17
8896.64 6.7194e-17
8897.89 6.6737e-17
8899.14 6.6261e-17
8900.39 6.2812e-17
8901.64 6.0617e-17
8902.89 7.2397e-17
8904.14 7.574e-17
8905.39 6.3672e-17
8906.63 6.402e-17
8907.88 6.3897e-17
8909.13 6.3766e-17
8910.38 6.5181e-17
8911.63 6.4691e-17
8912.88 6.4391e-17
8914.13 6.6107e-17
8915.38 6.1677e-17
8916.62 6.3642e-17
8917.87 6.4976e-17
8919.12 5.1204e-17
8920.37 6.7993e-17
8921.62 7.1574e-17
8922.87 6.5271e-17
8924.12 7.0815e-17
8925.37 7.0046e-17
8926.62 6.9802e-17
8927.86 7.266e-17
8929.11 7.353e-17
8930.36 6.874e-17
8931.61 7.094e-17
8932.86 7.2513e-17
8934.11 7.4389e-17
8935.36 7.2303e-17
8936.61 7.5963e-17
8937.85 7.5961e-17
8939.1 7.779e-17
8940.35 7.7947e-17
8941.6 7.8089e-17
8942.85 8.1226e-17
8944.1 8.5363e-17
8945.35 1.0083e-16
8946.6 1.4475e-16
8947.84 1.4837e-16
8949.09 9.9261e-17
8950.34 7.7368e-17
8951.59 7.3309e-17
8952.84 7.3955e-17
8954.09 7.7794e-17
8955.34 8.288e-17
8956.59 8.6113e-17
8957.84 8.5588e-17
8959.08 7.957e-17
8960.33 7.0887e-17
8961.58 7.3856e-17
8962.83 7.5602e-17
8964.08 7.4936e-17
8965.33 7.6161e-17
8966.58 7.6902e-17
8967.83 7.6637e-17
8969.07 7.6773e-17
8970.32 7.5643e-17
8971.57 7.5212e-17
8972.82 8.0273e-17
8974.07 7.8191e-17
8975.32 7.5219e-17
8976.57 7.4318e-17
8977.82 7.6318e-17
8979.06 7.5377e-17
8980.31 6.876e-17
8981.56 7.5946e-17
8982.81 7.5439e-17
8984.06 7.5179e-17
8985.31 7.5355e-17
8986.56 6.8051e-17
8987.81 6.7638e-17
8989.06 7.796e-17
8990.3 8.0519e-17
8991.55 9.4837e-17
8992.8 1.1535e-16
8994.05 9.2877e-17
8995.3 7.5656e-17
8996.55 7.4353e-17
8997.8 7.635e-17
8999.05 7.9117e-17
9000.29 7.3394e-17
9001.54 7.7928e-17
9002.79 7.7194e-17
9004.04 6.9316e-17
9005.29 7.4014e-17
9006.54 7.6748e-17
9007.79 7.237e-17
9009.04 7.5173e-17
9010.29 7.5957e-17
9011.53 6.8277e-17
9012.78 7.5893e-17
9014.03 7.4964e-17
9015.28 7.8473e-17
9016.53 7.5504e-17
9017.78 7.7275e-17
9019.03 7.6034e-17
9020.28 7.4269e-17
9021.52 6.9168e-17
9022.77 6.7517e-17
9024.02 7.1462e-17
9025.27 7.1791e-17
9026.52 6.9253e-17
9027.77 7.1041e-17
9029.02 6.3681e-17
9030.27 6.304e-17
9031.51 6.0276e-17
9032.76 6.1459e-17
9034.01 6.1619e-17
9035.26 6.1983e-17
9036.51 6.0966e-17
9037.76 6.1966e-17
9039.01 6.3396e-17
9040.26 5.4367e-17
9041.51 5.4999e-17
9042.75 5.6425e-17
9044.0 5.252e-17
9045.25 5.2901e-17
9046.5 5.5162e-17
9047.75 5.3707e-17
9049.0 5.0063e-17
9050.25 5.9557e-17
9051.5 5.1407e-17
9052.74 5.1651e-17
9053.99 5.5092e-17
9055.24 5.5064e-17
9056.49 5.0563e-17
9057.74 5.1948e-17
9058.99 4.9171e-17
9060.24 4.9902e-17
9061.49 4.7739e-17
9062.73 4.9134e-17
9063.98 4.5347e-17
9065.23 4.9531e-17
9066.48 4.3644e-17
9067.73 4.7897e-17
9068.98 5.1896e-17
9070.23 4.7661e-17
9071.48 4.771e-17
9072.73 4.6352e-17
9073.97 4.8143e-17
9075.22 4.7903e-17
9076.47 4.907e-17
9077.72 5.0668e-17
9078.97 5.1856e-17
9080.22 5.0255e-17
9081.47 4.8692e-17
9082.72 5.1817e-17
9083.96 4.8119e-17
9085.21 5.2447e-17
9086.46 4.7348e-17
9087.71 4.8558e-17
9088.96 5.2539e-17
9090.21 5.474e-17
9091.46 5.2563e-17
9092.71 5.6828e-17
9093.95 5.2875e-17
9095.2 5.7012e-17
9096.45 5.5995e-17
9097.7 6.2545e-17
9098.95 5.6554e-17
9100.2 5.822e-17
9101.45 6.1652e-17
9102.7 6.9001e-17
9103.95 6.4061e-17
9105.19 6.1341e-17
9106.44 6.7143e-17
9107.69 7.181e-17
9108.94 7.0836e-17
9110.19 6.5451e-17
9111.44 6.3229e-17
9112.69 6.6582e-17
9113.94 7.6601e-17
9115.18 7.4411e-17
9116.43 7.0444e-17
9117.68 7.908e-17
9118.93 7.2109e-17
9120.18 7.6249e-17
9121.43 7.4238e-17
9122.68 7.5333e-17
9123.93 7.2982e-17
9125.17 7.2062e-17
9126.42 7.8023e-17
9127.67 7.4828e-17
9128.92 7.3812e-17
9130.17 7.5218e-17
9131.42 7.3344e-17
9132.67 7.3872e-17
9133.92 6.9362e-17
9135.17 7.0115e-17
9136.41 7.1867e-17
9137.66 7.3053e-17
9138.91 7.5492e-17
9140.16 7.5115e-17
9141.41 7.3072e-17
9142.66 7.1451e-17
9143.91 7.3081e-17
9145.16 7.1906e-17
9146.4 7.258e-17
9147.65 7.3185e-17
9148.9 7.1777e-17
9150.15 7.4425e-17
9151.4 7.3418e-17
9152.65 7.0451e-17
9153.9 7.3665e-17
9155.15 7.0416e-17
9156.39 6.9099e-17
9157.64 7.5273e-17
9158.89 7.4049e-17
9160.14 6.7919e-17
9161.39 7.2388e-17
9162.64 6.8172e-17
9163.89 7.32e-17
9165.14 7.4063e-17
9166.39 7.1047e-17
9167.63 6.974e-17
9168.88 6.9459e-17
9170.13 6.7859e-17
9171.38 6.8653e-17
9172.63 6.8204e-17
9173.88 6.5995e-17
9175.13 6.8086e-17
9176.38 6.824e-17
9177.62 6.1072e-17
9178.87 6.5762e-17
9180.12 6.2494e-17
9181.37 6.1363e-17
9182.62 6.0912e-17
9183.87 5.43e-17
9185.12 5.6861e-17
9186.37 6.0613e-17
9187.61 5.8743e-17
9188.86 5.4988e-17
9190.11 5.4512e-17
9191.36 5.0859e-17
9192.61 5.5751e-17
9193.86 5.0917e-17
9195.11 4.506e-17
9196.36 5.2426e-17
9197.61 5.4837e-17
9198.85 5.5789e-17
9200.1 4.86e-17
9201.35 5.2925e-17
9202.6 5.7032e-17
9203.85 5.2238e-17
9205.1 5.2801e-17
9206.35 5.2903e-17
9207.6 5.1925e-17
9208.84 5.5042e-17
9210.09 5.8051e-17
9211.34 5.0282e-17
9212.59 5.6471e-17
9213.84 4.9435e-17
9215.09 5.7272e-17
9216.34 5.2055e-17
9217.59 5.2059e-17
9218.83 5.2718e-17
9220.08 5.432e-17
9221.33 5.6352e-17
9222.58 5.9913e-17
9223.83 5.3924e-17
9225.08 5.9435e-17
9226.33 5.6026e-17
9227.58 5.7354e-17
9228.83 6.0177e-17
9230.07 5.7145e-17
9231.32 5.9534e-17
9232.57 5.7286e-17
9233.82 5.5095e-17
9235.07 5.5581e-17
9236.32 5.9037e-17
9237.57 5.7919e-17
9238.82 5.8499e-17
9240.06 5.9309e-17
9241.31 6.2827e-17
9242.56 6.038e-17
9243.81 5.9042e-17
9245.06 6.6534e-17
9246.31 6.0788e-17
9247.56 6.1724e-17
9248.81 6.963e-17
9250.05 6.944e-17
9251.3 6.3176e-17
9252.55 6.0983e-17
9253.8 6.8163e-17
9255.05 6.9623e-17
9256.3 6.7217e-17
9257.55 6.5378e-17
9258.8 6.5789e-17
9260.05 6.6179e-17
9261.29 6.3499e-17
9262.54 6.7787e-17
9263.79 6.6793e-17
9265.04 6.9488e-17
9266.29 6.9826e-17
9267.54 6.7573e-17
9268.79 6.2245e-17
9270.04 7.1336e-17
9271.28 6.9318e-17
9272.53 6.761e-17
9273.78 6.7623e-17
9275.03 6.6047e-17
9276.28 6.5618e-17
9277.53 6.4991e-17
9278.78 6.2327e-17
9280.03 6.648e-17
9281.27 6.9453e-17
9282.52 6.3432e-17
9283.77 6.9429e-17
9285.02 7.1288e-17
9286.27 6.7006e-17
9287.52 6.4609e-17
9288.77 6.7797e-17
9290.02 6.6033e-17
9291.27 7.3636e-17
9292.51 7.052e-17
9293.76 7.3411e-17
9295.01 7.1961e-17
9296.26 6.7305e-17
9297.51 6.7374e-17
9298.76 7.0145e-17
9300.01 7.1235e-17
9301.26 7.2959e-17
9302.5 7.4892e-17
9303.75 6.7911e-17
9305.0 6.9795e-17
9306.25 7.2275e-17
9307.5 7.7413e-17
9308.75 5.903e-17
9310.0 6.4978e-17
9311.25 8.0078e-17
9312.49 7.4293e-17
9313.74 7.4381e-17
9314.99 4.7107e-17
9316.24 4.8842e-17
9317.49 6.6828e-17
9318.74 6.4435e-17
9319.99 6.4212e-17
9321.24 7.0352e-17
9322.49 6.8602e-17
9323.73 5.9679e-17
9324.98 3.538e-17
9326.23 6.3895e-17
9327.48 6.8432e-17
9328.73 6.7183e-17
9329.98 6.3832e-17
9331.23 6.6438e-17
9332.48 6.0328e-17
9333.72 6.6645e-17
9334.97 6.7775e-17
9336.22 6.3584e-17
9337.47 6.5276e-17
9338.72 5.6666e-17
9339.97 5.6442e-17
9341.22 7.1018e-17
9342.47 6.3007e-17
9343.72 4.7162e-17
9344.96 4.7319e-17
9346.21 6.253e-17
9347.46 6.2667e-17
9348.71 5.9732e-17
9349.96 5.8626e-17
9351.21 6.1644e-17
9352.46 6.1311e-17
9353.71 5.2485e-17
9354.95 5.7319e-17
9356.2 6.5402e-17
9357.45 5.0905e-17
9358.7 4.9077e-17
9359.95 5.2758e-17
9361.2 5.3518e-17
9362.45 6.2997e-17
9363.7 6.0042e-17
9364.94 5.1886e-17
9366.19 5.1141e-17
9367.44 5.4559e-17
9368.69 5.0619e-17
9369.94 4.697e-17
9371.19 4.9797e-17
9372.44 5.1475e-17
9373.69 6.7169e-17
9374.94 4.0893e-17
9376.18 4.4331e-17
9377.43 3.4834e-17
9378.68 4.9048e-17
9379.93 5.3537e-17
9381.18 5.0078e-17
9382.43 4.6687e-17
9383.68 4.8349e-17
9384.93 4.475e-17
9386.17 4.5967e-17
9387.42 4.1965e-17
9388.67 5.1927e-17
9389.92 4.9755e-17
9391.17 4.4377e-17
9392.42 4.9058e-17
9393.67 5.4446e-17
9394.92 5.5365e-17
9396.16 5.7602e-17
9397.41 9.579e-17
9398.66 1.5079e-16
9399.91 9.041e-17
9401.16 5.6969e-17
9402.41 4.9614e-17
9403.66 4.9358e-17
9404.91 5.0452e-17
9406.16 5.2596e-17
9407.4 5.1349e-17
9408.65 5.4878e-17
9409.9 5.8543e-17
9411.15 5.847e-17
9412.4 5.6742e-17
9413.65 6.2492e-17
9414.9 6.0505e-17
9416.15 5.6345e-17
9417.39 6.0381e-17
9418.64 6.0425e-17
9419.89 6.3116e-17
9421.14 5.6507e-17
9422.39 5.5864e-17
9423.64 6.1373e-17
9424.89 6.8846e-17
9426.14 5.5745e-17
9427.38 4.7171e-17
9428.63 5.893e-17
9429.88 6.4295e-17
9431.13 5.5024e-17
9432.38 6.0025e-17
9433.63 5.9064e-17
9434.88 6.9035e-17
9436.13 6.2308e-17
9437.38 6.145e-17
9438.62 6.7126e-17
9439.87 4.6585e-17
9441.12 4.5838e-17
9442.37 6.6885e-17
9443.62 6.0403e-17
9444.87 6.619e-17
9446.12 6.2965e-17
9447.37 6.3025e-17
9448.61 6.218e-17
9449.86 6.3613e-17
9451.11 6.7242e-17
9452.36 5.9998e-17
9453.61 5.5742e-17
9454.86 6.0589e-17
9456.11 5.7488e-17
9457.36 7.1897e-17
9458.6 6.9411e-17
9459.85 5.3163e-17
9461.1 5.2638e-17
9462.35 6.6165e-17
9463.6 6.3055e-17
9464.85 5.91e-17
9466.1 6.5527e-17
9467.35 5.9278e-17
9468.6 5.1539e-17
9469.84 5.7031e-17
9471.09 6.5744e-17
9472.34 6.182e-17
9473.59 5.6035e-17
9474.84 5.8572e-17
9476.09 7.8758e-17
9477.34 4.7462e-17
9478.59 4.859e-17
9479.83 6.0184e-17
9481.08 6.3274e-17
9482.33 6.0949e-17
9483.58 6.2489e-17
9484.83 5.8486e-17
9486.08 5.693e-17
9487.33 6.1815e-17
9488.58 5.7356e-17
9489.82 5.9615e-17
9491.07 6.2864e-17
9492.32 6.236e-17
9493.57 5.4597e-17
9494.82 5.7177e-17
9496.07 5.7449e-17
9497.32 6.5634e-17
9498.57 6.0622e-17
9499.82 5.2893e-17
9501.06 5.1663e-17
9502.31 6.4349e-17
9503.56 4.4019e-17
9504.81 6.1215e-17
9506.06 5.466e-17
9507.31 5.774e-17
9508.56 5.6362e-17
9509.81 5.2965e-17
9511.05 5.2781e-17
9512.3 5.1871e-17
9513.55 5.6052e-17
9514.8 5.8284e-17
9516.05 4.7843e-17
9517.3 4.7009e-17
9518.55 5.8944e-17
9519.8 4.577e-17
9521.04 4.534e-17
9522.29 5.3854e-17
9523.54 5.5462e-17
9524.79 5.158e-17
9526.04 5.5915e-17
9527.29 5.0002e-17
9528.54 5.1964e-17
9529.79 4.9394e-17
9531.04 5.5464e-17
9532.28 5.4414e-17
9533.53 5.4145e-17
9534.78 4.8528e-17
9536.03 5.9779e-17
9537.28 5.2898e-17
9538.53 5.4539e-17
9539.78 6.1287e-17
9541.03 6.2288e-17
9542.27 5.9596e-17
9543.52 5.4113e-17
9544.77 6.1117e-17
9546.02 5.9763e-17
9547.27 6.1429e-17
9548.52 5.9672e-17
9549.77 5.8332e-17
9551.02 5.318e-17
9552.26 5.5138e-17
9553.51 4.7811e-17
