# wavelength flux
3900.00117 5.25352e-18
3901.99555 5.27808e-18
3903.99995 5.33713e-18
3906.00435 5.41673e-18
3907.99872 5.46807e-18
3910.00312 5.48786e-18
3911.99750 5.51334e-18
3914.00190 5.57348e-18
3915.99628 5.62241e-18
3918.00068 5.61142e-18
3920.00508 5.67871e-18
3921.99946 5.74579e-18
3924.00386 5.80594e-18
3925.99824 5.78859e-18
3928.00264 5.78302e-18
3929.99701 5.76164e-18
3932.00141 5.77931e-18
3933.99579 5.84149e-18
3936.00019 5.86349e-18
3938.00459 5.85969e-18
3939.99897 5.89323e-18
3942.00337 5.96284e-18
3943.99775 6.01369e-18
3946.00215 6.03361e-18
3947.99653 6.16499e-18
3950.00093 6.22760e-18
3951.99530 6.25492e-18
3953.99970 6.29215e-18
3956.00410 6.25296e-18
3957.99848 6.24357e-18
3960.00288 6.31401e-18
3961.99726 6.34667e-18
3964.00166 6.36075e-18
3965.99604 6.35876e-18
3968.00044 6.36119e-18
3970.00484 6.31987e-18
3971.99922 6.32636e-18
3974.00362 6.36125e-18
3975.99799 6.42865e-18
3978.00239 6.47088e-18
3979.99677 6.52770e-18
3982.00117 6.52682e-18
3983.99555 6.52260e-18
3985.99995 6.55131e-18
3988.00435 6.59225e-18
3989.99873 6.63711e-18
3992.00313 6.67272e-18
3993.99751 6.67622e-18
3996.00191 6.68904e-18
3997.99628 6.71692e-18
4000.00068 6.72206e-18
4001.99506 6.73863e-18
4003.99946 6.75658e-18
4006.00386 6.76905e-18
4007.99824 6.78352e-18
4010.00264 6.81157e-18
4011.99702 6.82883e-18
4014.00142 6.88636e-18
4015.99580 6.92844e-18
4018.00020 6.95033e-18
4020.00460 6.93792e-18
4021.99897 6.91937e-18
4024.00337 6.96016e-18
4025.99775 6.97263e-18
4028.00215 6.97149e-18
4029.99653 6.94887e-18
4032.00093 6.91653e-18
4033.99531 6.86280e-18
4035.99971 6.83419e-18
4038.00411 6.84789e-18
4039.99849 6.81401e-18
4042.00289 6.75402e-18
4043.99726 6.70609e-18
4046.00166 6.69068e-18
4047.99604 6.66231e-18
4050.00044 6.64135e-18
4052.00484 6.64533e-18
4053.99922 6.66710e-18
4056.00362 6.64735e-18
4057.99800 6.61551e-18
4060.00240 6.62533e-18
4061.99678 6.61233e-18
4064.00118 6.57273e-18
4065.99555 6.56796e-18
4067.99995 6.58599e-18
4070.00435 6.58913e-18
4071.99873 6.60012e-18
4074.00313 6.57467e-18
4075.99751 6.55839e-18
4078.00191 6.53047e-18
4079.99629 6.49218e-18
4082.00069 6.43678e-18
4083.99507 6.38706e-18
4085.99947 6.37578e-18
4088.00387 6.38120e-18
4089.99824 6.35302e-18
4092.00264 6.33576e-18
4093.99702 6.35194e-18
4096.00142 6.35420e-18
4097.99580 6.35049e-18
4100.00020 6.33396e-18
4102.00460 6.29426e-18
4103.99898 6.31326e-18
4106.00338 6.31796e-18
4107.99776 6.25611e-18
4110.00216 6.20948e-18
4111.99653 6.23748e-18
4114.00093 6.28358e-18
4115.99531 6.29827e-18
4117.99971 6.26752e-18
4120.00411 6.24984e-18
4121.99849 6.29901e-18
4124.00289 6.30709e-18
4125.99727 6.26282e-18
4128.00167 6.24589e-18
4129.99605 6.25106e-18
4132.00045 6.25779e-18
4134.00485 6.25270e-18
4135.99922 6.25933e-18
4138.00362 6.24758e-18
4139.99800 6.23456e-18
4142.00240 6.23355e-18
4143.99678 6.24072e-18
4146.00118 6.22994e-18
4147.99556 6.21485e-18
4149.99996 6.22374e-18
4152.00436 6.22814e-18
4153.99874 6.18020e-18
4156.00314 6.12481e-18
4157.99751 6.15160e-18
4160.00191 6.13802e-18
4161.99629 6.09931e-18
4164.00069 6.07275e-18
4165.99507 6.11785e-18
4167.99947 6.08096e-18
4170.00387 6.05935e-18
4171.99825 6.03678e-18
4174.00265 6.03424e-18
4175.99703 6.04560e-18
4178.00143 6.03256e-18
4179.99580 5.99259e-18
4182.00020 5.97091e-18
4184.00460 5.94367e-18
4185.99898 5.94048e-18
4188.00338 5.92723e-18
4189.99776 5.91883e-18
4192.00216 5.91942e-18
4193.99654 5.92139e-18
4196.00094 5.92935e-18
4197.99532 5.92700e-18
4199.99972 5.90472e-18
4202.00412 5.92351e-18
4203.99849 5.92347e-18
4206.00289 5.90254e-18
4207.99727 5.90041e-18
4210.00167 5.90815e-18
4211.99605 5.91255e-18
4214.00045 5.90070e-18
4216.00485 5.89822e-18
4217.99923 5.92837e-18
4220.00363 6.00131e-18
4221.99801 6.04661e-18
4224.00241 6.06626e-18
4225.99678 6.11080e-18
4228.00118 6.15576e-18
4229.99556 6.16870e-18
4231.99996 6.19016e-18
4234.00436 6.24820e-18
4235.99874 6.29207e-18
4238.00314 6.30331e-18
4239.99752 6.34386e-18
4242.00192 6.36217e-18
4243.99630 6.40754e-18
4246.00070 6.40161e-18
4247.99507 6.42741e-18
4249.99947 6.46894e-18
4252.00387 6.50163e-18
4253.99825 6.50804e-18
4256.00265 6.51576e-18
4257.99703 6.48159e-18
4260.00143 6.46735e-18
4261.99581 6.47424e-18
4264.00021 6.50124e-18
4266.00461 6.52139e-18
4267.99899 6.52220e-18
4270.00339 6.53113e-18
4271.99776 6.55058e-18
4274.00216 6.58018e-18
4275.99654 6.59770e-18
4278.00094 6.58231e-18
4279.99532 6.60388e-18
4281.99972 6.63038e-18
4284.00412 6.64843e-18
4285.99850 6.67273e-18
4288.00290 6.68041e-18
4289.99728 6.69090e-18
4292.00168 6.71901e-18
4293.99605 6.72677e-18
4296.00045 6.74656e-18
4297.99483 6.79602e-18
4299.99923 6.79413e-18
4302.00363 6.80250e-18
4303.99801 6.82767e-18
4306.00241 6.83870e-18
4307.99679 6.82693e-18
4310.00119 6.78169e-18
4311.99557 6.73089e-18
4313.99997 6.74705e-18
4316.00437 6.77203e-18
4317.99874 6.79043e-18
4320.00314 6.78790e-18
4321.99752 6.79357e-18
4324.00192 6.81103e-18
4325.99630 6.85191e-18
4328.00070 6.87007e-18
4330.00510 6.86830e-18
4331.99948 6.88391e-18
4334.00388 6.91395e-18
4335.99826 6.93220e-18
4338.00266 6.95408e-18
4339.99703 6.96778e-18
4342.00143 6.99246e-18
4343.99581 7.00844e-18
4346.00021 7.02283e-18
4348.00461 7.08119e-18
4349.99899 7.08971e-18
4352.00339 7.08651e-18
4353.99777 7.11873e-18
4356.00217 7.13771e-18
4357.99655 7.14385e-18
4360.00095 7.15093e-18
4361.99532 7.19352e-18
4363.99972 7.23417e-18
4366.00412 7.24950e-18
4367.99850 7.24455e-18
4370.00290 7.24814e-18
4371.99728 7.28119e-18
4374.00168 7.32418e-18
4375.99606 7.32898e-18
4378.00046 7.37386e-18
4380.00486 7.42777e-18
4381.99924 7.42830e-18
4384.00364 7.42547e-18
4385.99801 7.45736e-18
4388.00241 7.47300e-18
4389.99679 7.49996e-18
4392.00119 7.53016e-18
4393.99557 7.55450e-18
4395.99997 7.57388e-18
4398.00437 7.60830e-18
4399.99875 7.61622e-18
4402.00315 7.65098e-18
4403.99753 7.72708e-18
4406.00193 7.77783e-18
4407.99630 7.80885e-18
4410.00070 7.84057e-18
4411.99508 7.87752e-18
4413.99948 7.90720e-18
4416.00388 7.92944e-18
4417.99826 7.95238e-18
4420.00266 7.98317e-18
4421.99704 8.02711e-18
4424.00144 8.03938e-18
4425.99582 8.06347e-18
4428.00022 8.11661e-18
4430.00462 8.15370e-18
4431.99899 8.17453e-18
4434.00339 8.24669e-18
4435.99777 8.31731e-18
4438.00217 8.36564e-18
4439.99655 8.41939e-18
4442.00095 8.48737e-18
4443.99533 8.56197e-18
4445.99973 8.64207e-18
4448.00413 8.70986e-18
4449.99851 8.75205e-18
4452.00291 8.82809e-18
4453.99728 8.89802e-18
4456.00168 8.95839e-18
4457.99606 9.06197e-18
4460.00046 9.15972e-18
4462.00486 9.23893e-18
4463.99924 9.34724e-18
4466.00364 9.45626e-18
4467.99802 9.54550e-18
4470.00242 9.64481e-18
4471.99680 9.74573e-18
4474.00120 9.83869e-18
4475.99557 9.93981e-18
4477.99997 1.00030e-17
4480.00437 1.01427e-17
4481.99875 1.02721e-17
4484.00315 1.03806e-17
4485.99753 1.04633e-17
4488.00193 1.05486e-17
4489.99631 1.06360e-17
4492.00071 1.07320e-17
4493.99509 1.08265e-17
4495.99949 1.09075e-17
4498.00389 1.10247e-17
4499.99826 1.11341e-17
4502.00266 1.11734e-17
4503.99704 1.12660e-17
4506.00144 1.13886e-17
4507.99582 1.14710e-17
4510.00022 1.15063e-17
4512.00462 1.16058e-17
4513.99900 1.17369e-17
4516.00340 1.18694e-17
4517.99778 1.19467e-17
4520.00218 1.19664e-17
4521.99655 1.20331e-17
4524.00095 1.21197e-17
4525.99533 1.21810e-17
4527.99973 1.22697e-17
4530.00413 1.23929e-17
4531.99851 1.24823e-17
4534.00291 1.25715e-17
4535.99729 1.26673e-17
4538.00169 1.27584e-17
4539.99607 1.28231e-17
4542.00047 1.28976e-17
4543.99484 1.29740e-17
4545.99924 1.30677e-17
4548.00364 1.30948e-17
4549.99802 1.31670e-17
4552.00242 1.32596e-17
4553.99680 1.32720e-17
4556.00120 1.33011e-17
4557.99558 1.33615e-17
4559.99998 1.33994e-17
4562.00438 1.33947e-17
4563.99876 1.34134e-17
4566.00316 1.34569e-17
4567.99753 1.34918e-17
4570.00193 1.35096e-17
4571.99631 1.35420e-17
4574.00071 1.35680e-17
4576.00511 1.35674e-17
4577.99949 1.35900e-17
4580.00389 1.36044e-17
4581.99827 1.36363e-17
4584.00267 1.36993e-17
4585.99705 1.37665e-17
4588.00145 1.38376e-17
4589.99582 1.38934e-17
4592.00022 1.39499e-17
4594.00462 1.39884e-17
4595.99900 1.40171e-17
4598.00340 1.40178e-17
4599.99778 1.40586e-17
4602.00218 1.40945e-17
4603.99656 1.40712e-17
4606.00096 1.40340e-17
4607.99534 1.40386e-17
4609.99974 1.40637e-17
4612.00414 1.40996e-17
4613.99851 1.41279e-17
4616.00291 1.41292e-17
4617.99729 1.40874e-17
4620.00169 1.40696e-17
4621.99607 1.40298e-17
4624.00047 1.39833e-17
4626.00487 1.39365e-17
4627.99925 1.39025e-17
4630.00365 1.38476e-17
4631.99803 1.37677e-17
4634.00243 1.36663e-17
4635.99680 1.36047e-17
4638.00120 1.35536e-17
4639.99558 1.34951e-17
4641.99998 1.34322e-17
4644.00438 1.33980e-17
4645.99876 1.33580e-17
4648.00316 1.33134e-17
4649.99754 1.32663e-17
4652.00194 1.32270e-17
4653.99632 1.32043e-17
4656.00072 1.31666e-17
4657.99509 1.30672e-17
4659.99949 1.29677e-17
4662.00389 1.28841e-17
4663.99827 1.28005e-17
4666.00267 1.26886e-17
4667.99705 1.25795e-17
4670.00145 1.24762e-17
4671.99583 1.23899e-17
4674.00023 1.22847e-17
4676.00463 1.21235e-17
4677.99901 1.20199e-17
4680.00341 1.19508e-17
4681.99778 1.18923e-17
4684.00218 1.18349e-17
4685.99656 1.17624e-17
4688.00096 1.16920e-17
4689.99534 1.16756e-17
4691.99974 1.16633e-17
4694.00414 1.16417e-17
4695.99852 1.16104e-17
4698.00292 1.15577e-17
4699.99730 1.15279e-17
4702.00170 1.14686e-17
4703.99607 1.14168e-17
4706.00047 1.13799e-17
4708.00487 1.13334e-17
4709.99925 1.12824e-17
4712.00365 1.12054e-17
4713.99803 1.11427e-17
4716.00243 1.10767e-17
4717.99681 1.10235e-17
4720.00121 1.09721e-17
4721.99559 1.09648e-17
4723.99999 1.09652e-17
4726.00439 1.09585e-17
4727.99876 1.09644e-17
4730.00316 1.09940e-17
4731.99754 1.10392e-17
4734.00194 1.10629e-17
4735.99632 1.10677e-17
4738.00072 1.10933e-17
4739.99510 1.11181e-17
4741.99950 1.11449e-17
4744.00390 1.11622e-17
4745.99828 1.11666e-17
4748.00268 1.11607e-17
4749.99705 1.11507e-17
4752.00145 1.11340e-17
4753.99583 1.11329e-17
4756.00023 1.11354e-17
4758.00463 1.11262e-17
4759.99901 1.11261e-17
4762.00341 1.11157e-17
4763.99779 1.10609e-17
4766.00219 1.09965e-17
4767.99657 1.09937e-17
4770.00097 1.09953e-17
4771.99534 1.09677e-17
4773.99974 1.09224e-17
4776.00414 1.08866e-17
4777.99852 1.08190e-17
4780.00292 1.07672e-17
4781.99730 1.07599e-17
4784.00170 1.07779e-17
4785.99608 1.08176e-17
4788.00048 1.08800e-17
4789.99486 1.09138e-17
4791.99926 1.09094e-17
4794.00366 1.09229e-17
4795.99803 1.09759e-17
4798.00243 1.09891e-17
4799.99681 1.10349e-17
4802.00121 1.10635e-17
4803.99559 1.11044e-17
4805.99999 1.11538e-17
4808.00439 1.11686e-17
4809.99877 1.11826e-17
4812.00317 1.11939e-17
4813.99755 1.11838e-17
4816.00195 1.11813e-17
4817.99632 1.11589e-17
4820.00072 1.11121e-17
4822.00512 1.11214e-17
4823.99950 1.11438e-17
4826.00390 1.11795e-17
4827.99828 1.12160e-17
4830.00268 1.12573e-17
4831.99706 1.12869e-17
4834.00146 1.13136e-17
4835.99584 1.13278e-17
4838.00024 1.13734e-17
4840.00464 1.14127e-17
4841.99901 1.14211e-17
4844.00341 1.14511e-17
4845.99779 1.14776e-17
4848.00219 1.14909e-17
4849.99657 1.15115e-17
4852.00097 1.15495e-17
4853.99535 1.15326e-17
4855.99975 1.15108e-17
4858.00415 1.15260e-17
4859.99853 1.15285e-17
4862.00293 1.15048e-17
4863.99730 1.14707e-17
4866.00170 1.14769e-17
4867.99608 1.14866e-17
4870.00048 1.14795e-17
4872.00488 1.14798e-17
4873.99926 1.14844e-17
4876.00366 1.15063e-17
4877.99804 1.15005e-17
4880.00244 1.15044e-17
4881.99682 1.15032e-17
4884.00122 1.15210e-17
4885.99559 1.15198e-17
4887.99999 1.15264e-17
4890.00439 1.15342e-17
4891.99877 1.15432e-17
4894.00317 1.15446e-17
4895.99755 1.15417e-17
4898.00195 1.15124e-17
4899.99633 1.14664e-17
4902.00073 1.14317e-17
4903.99511 1.13823e-17
4905.99951 1.13307e-17
4908.00391 1.12651e-17
4909.99828 1.11987e-17
4912.00268 1.11023e-17
4913.99706 1.10519e-17
4916.00146 1.10005e-17
4917.99584 1.09059e-17
4920.00024 1.08032e-17
4922.00464 1.07238e-17
4923.99902 1.06611e-17
4926.00342 1.06241e-17
4927.99780 1.05908e-17
4930.00220 1.05416e-17
4931.99657 1.05220e-17
4934.00097 1.05357e-17
4935.99535 1.05426e-17
4937.99975 1.05257e-17
4940.00415 1.05196e-17
4941.99853 1.05065e-17
4944.00293 1.04931e-17
4945.99731 1.05047e-17
4948.00171 1.05385e-17
4949.99609 1.05868e-17
4952.00049 1.06370e-17
4953.99486 1.06688e-17
4955.99926 1.07347e-17
4958.00366 1.07564e-17
4959.99804 1.07944e-17
4962.00244 1.08470e-17
4963.99682 1.08590e-17
4966.00122 1.08760e-17
4967.99560 1.08937e-17
4970.00000 1.08907e-17
4972.00440 1.08804e-17
4973.99878 1.08654e-17
4976.00318 1.08151e-17
4977.99755 1.07884e-17
4980.00195 1.07437e-17
4981.99633 1.06969e-17
4984.00073 1.06743e-17
4985.99511 1.06552e-17
4987.99951 1.06575e-17
4990.00391 1.06460e-17
4991.99829 1.06068e-17
4994.00269 1.05510e-17
4995.99707 1.05110e-17
4998.00147 1.04495e-17
4999.99584 1.03942e-17
5002.00024 1.03596e-17
5004.00464 1.03053e-17
5005.99902 1.02548e-17
5008.00342 1.02215e-17
5009.99780 1.01888e-17
5012.00220 1.01308e-17
5013.99658 1.01168e-17
5016.00098 1.01110e-17
5017.99536 1.00804e-17
5019.99976 1.00595e-17
5022.00416 1.00276e-17
5023.99853 9.99982e-18
5026.00293 9.96039e-18
5027.99731 9.89965e-18
5030.00171 9.86750e-18
5031.99609 9.83937e-18
5034.00049 9.83734e-18
5036.00489 9.86823e-18
5037.99927 9.88198e-18
5040.00367 9.87606e-18
5041.99805 9.90632e-18
5044.00245 9.94580e-18
5045.99682 9.96056e-18
5048.00122 9.97286e-18
5049.99560 1.00178e-17
5052.00000 1.00731e-17
5054.00440 1.01217e-17
5055.99878 1.01498e-17
5058.00318 1.01917e-17
5059.99756 1.02291e-17
5062.00196 1.02699e-17
5063.99634 1.03133e-17
5066.00074 1.03701e-17
5068.00514 1.04456e-17
5069.99951 1.05234e-17
5072.00391 1.05807e-17
5073.99829 1.06231e-17
5076.00269 1.06740e-17
5077.99707 1.07356e-17
5080.00147 1.07962e-17
5081.99585 1.08545e-17
5084.00025 1.09207e-17
5086.00465 1.09823e-17
5087.99903 1.10562e-17
5090.00343 1.11244e-17
5091.99780 1.11858e-17
5094.00220 1.12374e-17
5095.99658 1.13145e-17
5098.00098 1.14033e-17
5099.99536 1.14785e-17
5101.99976 1.15330e-17
5104.00416 1.15887e-17
5105.99854 1.16254e-17
5108.00294 1.16767e-17
5109.99732 1.17499e-17
5112.00172 1.18105e-17
5113.99609 1.18526e-17
5116.00049 1.18984e-17
5118.00489 1.19396e-17
5119.99927 1.19926e-17
5122.00367 1.20258e-17
5123.99805 1.20443e-17
5126.00245 1.20864e-17
5127.99683 1.21650e-17
5130.00123 1.22363e-17
5131.99561 1.22844e-17
5134.00001 1.23649e-17
5136.00441 1.24259e-17
5137.99878 1.24813e-17
5140.00318 1.25357e-17
5141.99756 1.26081e-17
5144.00196 1.26685e-17
5145.99634 1.27045e-17
5148.00074 1.27384e-17
5149.99512 1.27694e-17
5151.99952 1.28296e-17
5154.00392 1.28507e-17
5155.99830 1.29115e-17
5158.00270 1.29616e-17
5159.99707 1.29913e-17
5162.00147 1.29987e-17
5163.99585 1.30604e-17
5166.00025 1.31135e-17
5168.00465 1.31618e-17
5169.99903 1.31966e-17
5172.00343 1.32333e-17
5173.99781 1.33052e-17
5176.00221 1.33793e-17
5177.99659 1.34580e-17
5180.00099 1.35283e-17
5181.99536 1.35895e-17
5183.99976 1.36922e-17
5186.00416 1.37991e-17
5187.99854 1.39173e-17
5190.00294 1.39875e-17
5191.99732 1.40730e-17
5194.00172 1.41773e-17
5195.99610 1.42528e-17
5198.00050 1.43305e-17
5199.99488 1.43436e-17
5201.99928 1.44042e-17
5204.00368 1.44575e-17
5205.99805 1.44815e-17
5208.00245 1.44902e-17
5209.99683 1.44908e-17
5212.00123 1.45295e-17
5213.99561 1.45383e-17
5216.00001 1.45201e-17
5218.00441 1.45026e-17
5219.99879 1.45086e-17
5222.00319 1.44795e-17
5223.99757 1.44643e-17
5226.00197 1.44728e-17
5227.99634 1.45062e-17
5230.00074 1.45539e-17
5231.99512 1.45405e-17
5233.99952 1.45546e-17
5236.00392 1.45983e-17
5237.99830 1.46264e-17
5240.00270 1.46179e-17
5241.99708 1.46099e-17
5244.00148 1.46285e-17
5245.99586 1.46871e-17
5248.00026 1.47486e-17
5250.00466 1.47864e-17
5251.99903 1.48173e-17
5254.00343 1.49139e-17
5255.99781 1.49661e-17
5258.00221 1.50170e-17
5259.99659 1.50461e-17
5262.00099 1.50771e-17
5263.99537 1.51532e-17
5265.99977 1.52432e-17
5268.00417 1.52940e-17
5269.99855 1.53392e-17
5272.00295 1.53920e-17
5273.99732 1.54437e-17
5276.00172 1.54807e-17
5277.99610 1.54997e-17
5280.00050 1.55157e-17
5282.00490 1.55273e-17
5283.99928 1.55463e-17
5286.00368 1.55897e-17
5287.99806 1.56299e-17
5290.00246 1.56978e-17
5291.99684 1.57720e-17
5294.00124 1.58209e-17
5295.99561 1.58604e-17
5298.00001 1.59378e-17
5300.00441 1.60011e-17
5301.99879 1.60509e-17
5304.00319 1.61115e-17
5305.99757 1.61502e-17
5308.00197 1.61735e-17
5309.99635 1.62079e-17
5312.00075 1.62584e-17
5313.99513 1.62921e-17
5315.99953 1.62978e-17
5318.00393 1.62824e-17
5319.99830 1.62937e-17
5322.00270 1.62767e-17
5323.99708 1.62632e-17
5326.00148 1.62628e-17
5327.99586 1.62340e-17
5330.00026 1.61823e-17
5332.00466 1.62074e-17
5333.99904 1.62191e-17
5336.00344 1.62379e-17
5337.99782 1.62729e-17
5340.00222 1.63135e-17
5341.99659 1.63396e-17
5344.00099 1.63419e-17
5345.99537 1.63645e-17
5347.99977 1.63738e-17
5350.00417 1.63744e-17
5351.99855 1.63835e-17
5354.00295 1.63798e-17
5355.99733 1.63769e-17
5358.00173 1.63544e-17
5359.99611 1.63551e-17
5362.00051 1.63540e-17
5364.00491 1.63367e-17
5365.99928 1.63543e-17
5368.00368 1.63813e-17
5369.99806 1.64001e-17
5372.00246 1.64156e-17
5373.99684 1.64413e-17
5376.00124 1.64845e-17
5377.99562 1.64945e-17
5380.00002 1.65033e-17
5382.00442 1.65100e-17
5383.99880 1.65225e-17
5386.00320 1.64928e-17
5387.99757 1.64750e-17
5390.00197 1.64719e-17
5391.99635 1.64266e-17
5394.00075 1.63897e-17
5395.99513 1.63883e-17
5397.99953 1.63992e-17
5400.00393 1.63869e-17
5401.99831 1.63700e-17
5404.00271 1.63702e-17
5405.99709 1.63750e-17
5408.00149 1.63496e-17
5409.99586 1.63318e-17
5412.00026 1.63088e-17
5414.00466 1.62863e-17
5415.99904 1.62838e-17
5418.00344 1.62824e-17
5419.99782 1.62637e-17
5422.00222 1.62424e-17
5423.99660 1.62342e-17
5426.00100 1.62218e-17
5427.99538 1.61950e-17
5429.99978 1.61720e-17
5432.00418 1.61654e-17
5433.99855 1.61972e-17
5436.00295 1.62470e-17
5437.99733 1.63057e-17
5440.00173 1.63773e-17
5441.99611 1.64353e-17
5444.00051 1.65133e-17
5445.99489 1.66294e-17
5447.99929 1.67551e-17
5450.00369 1.68772e-17
5451.99807 1.69908e-17
5454.00247 1.70738e-17
5455.99684 1.71513e-17
5458.00124 1.72439e-17
5459.99562 1.73306e-17
5462.00002 1.73770e-17
5464.00442 1.74401e-17
5465.99880 1.75089e-17
5468.00320 1.75568e-17
5469.99758 1.75830e-17
5472.00198 1.75883e-17
5473.99636 1.75921e-17
5476.00076 1.76428e-17
5477.99513 1.76833e-17
5479.99953 1.77016e-17
5482.00393 1.77168e-17
5483.99831 1.77206e-17
5486.00271 1.77163e-17
5487.99709 1.76932e-17
5490.00149 1.76602e-17
5491.99587 1.75952e-17
5494.00027 1.75189e-17
5496.00467 1.74463e-17
5497.99905 1.74387e-17
5500.00345 1.74146e-17
5501.99782 1.73573e-17
5504.00222 1.73063e-17
5505.99660 1.72484e-17
5508.00100 1.71628e-17
5509.99538 1.71098e-17
5511.99978 1.70037e-17
5514.00418 1.68673e-17
5515.99856 1.67516e-17
5518.00296 1.66833e-17
5519.99734 1.66036e-17
5522.00174 1.64776e-17
5523.99611 1.63519e-17
5526.00051 1.62124e-17
5528.00491 1.60591e-17
5529.99929 1.59255e-17
5532.00369 1.57972e-17
5533.99807 1.56484e-17
5536.00247 1.55121e-17
5537.99685 1.53725e-17
5540.00125 1.51964e-17
5541.99563 1.50584e-17
5544.00003 1.49377e-17
5546.00443 1.48053e-17
5547.99880 1.46851e-17
5550.00320 1.45885e-17
5551.99758 1.45140e-17
5554.00198 1.44429e-17
5555.99636 1.43707e-17
5558.00076 1.43119e-17
5559.99514 1.42587e-17
5561.99954 1.42160e-17
5564.00394 1.41578e-17
5565.99832 1.40934e-17
5568.00272 1.40677e-17
5569.99709 1.40466e-17
5572.00149 1.40056e-17
5573.99587 1.39347e-17
5576.00027 1.38884e-17
5578.00467 1.38805e-17
5579.99905 1.38405e-17
5582.00345 1.37812e-17
5583.99783 1.37049e-17
5586.00223 1.36503e-17
5587.99661 1.36241e-17
5590.00101 1.36335e-17
5591.99538 1.36330e-17
5593.99978 1.36311e-17
5596.00418 1.36132e-17
5597.99856 1.36345e-17
5600.00296 1.37531e-17
5601.99734 1.37702e-17
5604.00174 1.37081e-17
5605.99612 1.36773e-17
5608.00052 1.36641e-17
5610.00492 1.36029e-17
5611.99930 1.35443e-17
5614.00370 1.34937e-17
5615.99807 1.34346e-17
5618.00247 1.33676e-17
5619.99685 1.33112e-17
5622.00125 1.32391e-17
5623.99563 1.31669e-17
5626.00003 1.31132e-17
5628.00443 1.30606e-17
5629.99881 1.29772e-17
5632.00321 1.28999e-17
5633.99759 1.28746e-17
5636.00199 1.28311e-17
5637.99636 1.27500e-17
5640.00076 1.26568e-17
5641.99514 1.25888e-17
5643.99954 1.25087e-17
5646.00394 1.23741e-17
5647.99832 1.22217e-17
5650.00272 1.20971e-17
5651.99710 1.20000e-17
5654.00150 1.19099e-17
5655.99588 1.18074e-17
5658.00028 1.17329e-17
5660.00468 1.16648e-17
5661.99905 1.15633e-17
5664.00345 1.14742e-17
5665.99783 1.13907e-17
5668.00223 1.13306e-17
5669.99661 1.12543e-17
5672.00101 1.11849e-17
5673.99539 1.11247e-17
5675.99979 1.10798e-17
5678.00419 1.10436e-17
5679.99857 1.10154e-17
5682.00297 1.09659e-17
5683.99734 1.08956e-17
5686.00174 1.08668e-17
5687.99612 1.08087e-17
5690.00052 1.07744e-17
5691.99490 1.07396e-17
5693.99930 1.07015e-17
5696.00370 1.06359e-17
5697.99808 1.05702e-17
5700.00248 1.05180e-17
5701.99686 1.04780e-17
5704.00126 1.04383e-17
5705.99563 1.04046e-17
5708.00003 1.03643e-17
5710.00443 1.03513e-17
5711.99881 1.03451e-17
5714.00321 1.03500e-17
5715.99759 1.03545e-17
5718.00199 1.03646e-17
5719.99637 1.04024e-17
5722.00077 1.04438e-17
5723.99515 1.05080e-17
5725.99955 1.05575e-17
5728.00395 1.05786e-17
5729.99832 1.06257e-17
5732.00272 1.07017e-17
5733.99710 1.07599e-17
5736.00150 1.07921e-17
5737.99588 1.08198e-17
5740.00028 1.08429e-17
5742.00468 1.08978e-17
5743.99906 1.09292e-17
5746.00346 1.09502e-17
5747.99784 1.09723e-17
5750.00224 1.10140e-17
5751.99661 1.10563e-17
5754.00101 1.10660e-17
5755.99539 1.10624e-17
5757.99979 1.10450e-17
5760.00419 1.10201e-17
5761.99857 1.10066e-17
5764.00297 1.10020e-17
5765.99735 1.09687e-17
5768.00175 1.09505e-17
5769.99613 1.09520e-17
5772.00053 1.09416e-17
5774.00493 1.09301e-17
5775.99930 1.09432e-17
5778.00370 1.09345e-17
5779.99808 1.09324e-17
5782.00248 1.09711e-17
5783.99686 1.10275e-17
5786.00126 1.10822e-17
5787.99564 1.11226e-17
5790.00004 1.11970e-17
5792.00444 1.12836e-17
5793.99882 1.13275e-17
5796.00322 1.13662e-17
5797.99759 1.14647e-17
5800.00199 1.15599e-17
5801.99637 1.16634e-17
5804.00077 1.17600e-17
5805.99515 1.18600e-17
5807.99955 1.20269e-17
5810.00395 1.21102e-17
5811.99833 1.22054e-17
5814.00273 1.23416e-17
5815.99711 1.24743e-17
5818.00151 1.25672e-17
5819.99588 1.27104e-17
5822.00028 1.28251e-17
5824.00468 1.29354e-17
5825.99906 1.30668e-17
5828.00346 1.32127e-17
5829.99784 1.33585e-17
5832.00224 1.34537e-17
5833.99662 1.35561e-17
5836.00102 1.36716e-17
5837.99540 1.37650e-17
5839.99980 1.38517e-17
5842.00420 1.39563e-17
5843.99857 1.40211e-17
5846.00297 1.40916e-17
5847.99735 1.41797e-17
5850.00175 1.42914e-17
5851.99613 1.43968e-17
5854.00053 1.44630e-17
5856.00493 1.45330e-17
5857.99931 1.46007e-17
5860.00371 1.46609e-17
5861.99809 1.47099e-17
5864.00249 1.47539e-17
5865.99686 1.47994e-17
5868.00126 1.48245e-17
5869.99564 1.48556e-17
5872.00004 1.48978e-17
5874.00444 1.49220e-17
5875.99882 1.49563e-17
5878.00322 1.49404e-17
5879.99760 1.49402e-17
5882.00200 1.49723e-17
5883.99638 1.49634e-17
5886.00078 1.48965e-17
5887.99515 1.48402e-17
5889.99955 1.47723e-17
5892.00395 1.47102e-17
5893.99833 1.46831e-17
5896.00273 1.46523e-17
5897.99711 1.46255e-17
5900.00151 1.46446e-17
5901.99589 1.46691e-17
5904.00029 1.46568e-17
5906.00469 1.46697e-17
5907.99907 1.47778e-17
5910.00347 1.48427e-17
5911.99784 1.48825e-17
5914.00224 1.49494e-17
5915.99662 1.50276e-17
5918.00102 1.50728e-17
5919.99540 1.51121e-17
5921.99980 1.51601e-17
5924.00420 1.51928e-17
5925.99858 1.52115e-17
5928.00298 1.52252e-17
5929.99736 1.52545e-17
5932.00176 1.52886e-17
5933.99613 1.53239e-17
5936.00053 1.53222e-17
5937.99491 1.53210e-17
5939.99931 1.53394e-17
5942.00371 1.53292e-17
5943.99809 1.53629e-17
5946.00249 1.53761e-17
5947.99687 1.53598e-17
5950.00127 1.53073e-17
5951.99565 1.52251e-17
5954.00005 1.52017e-17
5956.00445 1.52121e-17
5957.99882 1.52323e-17
5960.00322 1.52411e-17
5961.99760 1.52180e-17
5964.00200 1.52071e-17
5965.99638 1.51843e-17
5968.00078 1.51547e-17
5970.00518 1.51189e-17
5971.99956 1.50939e-17
5974.00396 1.50900e-17
5975.99834 1.50706e-17
5978.00274 1.50525e-17
5979.99711 1.50167e-17
5982.00151 1.49710e-17
5983.99589 1.49588e-17
5986.00029 1.49815e-17
5988.00469 1.49843e-17
5989.99907 1.49742e-17
5992.00347 1.49542e-17
5993.99785 1.49253e-17
5996.00225 1.48926e-17
5997.99663 1.48938e-17
6000.00103 1.48485e-17
6001.99540 1.47847e-17
6003.99980 1.47441e-17
6006.00420 1.47251e-17
6007.99858 1.46542e-17
6010.00298 1.45973e-17
6011.99736 1.45303e-17
6014.00176 1.44778e-17
6015.99614 1.44609e-17
6018.00054 1.44405e-17
6020.00494 1.43478e-17
6021.99932 1.42423e-17
6024.00372 1.41662e-17
6025.99809 1.41316e-17
6028.00249 1.40923e-17
6029.99687 1.39859e-17
6032.00127 1.38977e-17
6033.99565 1.38234e-17
6036.00005 1.37219e-17
6038.00445 1.36127e-17
6039.99883 1.35499e-17
6042.00323 1.34961e-17
6043.99761 1.34339e-17
6046.00201 1.33662e-17
6047.99638 1.32931e-17
6050.00078 1.32052e-17
6051.99516 1.31398e-17
6053.99956 1.31459e-17
6056.00396 1.31568e-17
6057.99834 1.31789e-17
6060.00274 1.32170e-17
6061.99712 1.32566e-17
6064.00152 1.33155e-17
6065.99590 1.33446e-17
6068.00030 1.33849e-17
6070.00470 1.34162e-17
6071.99907 1.34472e-17
6074.00347 1.34904e-17
6075.99785 1.35348e-17
6078.00225 1.35704e-17
6079.99663 1.36160e-17
6082.00103 1.36678e-17
6083.99541 1.37117e-17
6085.99981 1.37259e-17
6088.00421 1.37602e-17
6089.99859 1.38051e-17
6092.00299 1.38544e-17
6093.99736 1.39064e-17
6096.00176 1.39451e-17
6097.99614 1.39707e-17
6100.00054 1.40183e-17
6101.99492 1.40768e-17
6103.99932 1.41208e-17
6106.00372 1.41549e-17
6107.99810 1.41845e-17
6110.00250 1.42431e-17
6111.99688 1.43146e-17
6114.00128 1.43636e-17
6115.99565 1.43885e-17
6118.00005 1.44476e-17
6120.00445 1.44943e-17
6121.99883 1.45233e-17
6124.00323 1.45441e-17
6125.99761 1.45775e-17
6128.00201 1.46170e-17
6129.99639 1.46229e-17
6132.00079 1.46435e-17
6133.99517 1.46669e-17
6135.99957 1.46887e-17
6138.00397 1.47081e-17
6139.99834 1.47214e-17
6142.00274 1.47784e-17
6143.99712 1.48325e-17
6146.00152 1.48865e-17
6147.99590 1.49317e-17
6150.00030 1.49692e-17
6152.00470 1.50325e-17
6153.99908 1.51159e-17
6156.00348 1.51682e-17
6157.99786 1.52376e-17
6160.00226 1.53376e-17
6161.99663 1.54151e-17
6164.00103 1.55265e-17
6165.99541 1.56049e-17
6167.99981 1.57111e-17
6170.00421 1.58245e-17
6171.99859 1.59132e-17
6174.00299 1.59922e-17
6175.99737 1.60964e-17
6178.00177 1.62195e-17
6179.99615 1.63374e-17
6182.00055 1.64533e-17
6183.99492 1.65654e-17
6185.99932 1.66949e-17
6188.00372 1.68206e-17
6189.99810 1.69193e-17
6192.00250 1.69757e-17
6193.99688 1.70292e-17
6196.00128 1.71093e-17
6197.99566 1.71323e-17
6200.00006 1.71618e-17
6202.00446 1.71976e-17
6203.99884 1.72258e-17
6206.00324 1.72588e-17
6207.99761 1.72658e-17
6210.00201 1.73202e-17
6211.99639 1.73603e-17
6214.00079 1.73641e-17
6215.99517 1.73808e-17
6217.99957 1.74143e-17
6220.00397 1.74393e-17
6221.99835 1.74586e-17
6224.00275 1.74658e-17
6225.99713 1.74612e-17
6228.00153 1.73956e-17
6229.99590 1.73558e-17
6232.00030 1.73351e-17
6234.00470 1.73235e-17
6235.99908 1.73112e-17
6238.00348 1.72788e-17
6239.99786 1.72468e-17
6242.00226 1.71981e-17
6243.99664 1.71996e-17
6246.00104 1.72217e-17
6247.99542 1.72510e-17
6249.99982 1.72720e-17
6252.00422 1.72240e-17
6253.99859 1.71760e-17
6256.00299 1.70873e-17
6257.99737 1.70239e-17
6260.00177 1.69788e-17
6261.99615 1.69113e-17
6264.00055 1.68543e-17
6266.00495 1.67914e-17
6267.99933 1.67419e-17
6270.00373 1.67498e-17
6271.99811 1.67966e-17
6274.00251 1.68092e-17
6275.99688 1.67381e-17
6278.00128 1.66910e-17
6279.99566 1.66653e-17
6282.00006 1.66424e-17
6284.00446 1.66346e-17
6285.99884 1.65729e-17
6288.00324 1.65664e-17
6289.99762 1.66057e-17
6292.00202 1.66037e-17
6293.99640 1.65639e-17
6296.00080 1.65242e-17
6297.99517 1.64930e-17
6299.99957 1.64455e-17
6302.00397 1.63961e-17
6303.99835 1.63402e-17
6306.00275 1.63029e-17
6307.99713 1.62729e-17
6310.00153 1.63004e-17
6311.99591 1.63175e-17
6314.00031 1.63397e-17
6316.00471 1.63639e-17
6317.99909 1.63894e-17
6320.00349 1.63722e-17
6321.99786 1.63218e-17
6324.00226 1.63211e-17
6325.99664 1.63422e-17
6328.00104 1.63311e-17
6329.99542 1.63102e-17
6331.99982 1.62551e-17
6334.00422 1.61542e-17
6335.99860 1.60728e-17
6338.00300 1.60544e-17
6339.99738 1.60371e-17
6342.00178 1.59426e-17
6343.99615 1.58876e-17
6346.00055 1.58463e-17
6347.99493 1.57986e-17
6349.99933 1.57683e-17
6352.00373 1.57633e-17
6353.99811 1.57617e-17
6356.00251 1.57360e-17
6357.99689 1.56844e-17
6360.00129 1.56006e-17
6361.99567 1.55360e-17
6364.00007 1.54820e-17
6366.00447 1.54403e-17
6367.99884 1.53872e-17
6370.00324 1.53787e-17
6371.99762 1.54263e-17
6374.00202 1.54319e-17
6375.99640 1.54589e-17
6378.00080 1.55374e-17
6379.99518 1.56141e-17
6381.99958 1.56470e-17
6384.00398 1.56638e-17
6385.99836 1.56688e-17
6388.00276 1.57242e-17
6389.99713 1.57795e-17
6392.00153 1.58000e-17
6393.99591 1.58076e-17
6396.00031 1.58302e-17
6398.00471 1.58318e-17
6399.99909 1.58258e-17
6402.00349 1.58403e-17
6403.99787 1.58665e-17
6406.00227 1.58880e-17
6407.99665 1.59391e-17
6410.00105 1.59773e-17
6411.99542 1.59919e-17
6413.99982 1.60120e-17
6416.00422 1.60709e-17
6417.99860 1.61144e-17
6420.00300 1.61392e-17
6421.99738 1.61450e-17
6424.00178 1.61484e-17
6425.99616 1.61517e-17
6428.00056 1.61394e-17
6429.99494 1.61218e-17
6431.99934 1.61129e-17
6434.00374 1.60925e-17
6435.99811 1.60673e-17
6438.00251 1.60525e-17
6439.99689 1.60162e-17
6442.00129 1.60091e-17
6443.99567 1.59972e-17
6446.00007 1.59709e-17
6448.00447 1.59486e-17
6449.99885 1.59678e-17
6452.00325 1.59603e-17
6453.99763 1.59591e-17
6456.00203 1.59991e-17
6457.99640 1.60485e-17
6460.00080 1.60521e-17
6461.99518 1.60315e-17
6463.99958 1.60378e-17
6466.00398 1.60412e-17
6467.99836 1.60106e-17
6470.00276 1.59739e-17
6471.99714 1.59307e-17
6474.00154 1.58681e-17
6475.99592 1.58138e-17
6478.00032 1.57889e-17
6480.00472 1.57398e-17
6481.99909 1.56698e-17
6484.00349 1.56272e-17
6485.99787 1.56237e-17
6488.00227 1.56658e-17
6489.99665 1.56903e-17
6492.00105 1.56341e-17
6493.99543 1.55573e-17
6495.99983 1.55475e-17
6498.00423 1.55513e-17
6499.99861 1.55404e-17
6502.00301 1.55503e-17
6503.99738 1.55510e-17
6506.00178 1.55221e-17
6507.99616 1.54981e-17
6510.00056 1.55259e-17
6512.00496 1.55692e-17
6513.99934 1.55790e-17
6516.00374 1.55494e-17
6517.99812 1.55028e-17
6520.00252 1.54853e-17
6521.99690 1.55341e-17
6524.00130 1.56093e-17
6525.99567 1.56627e-17
6528.00007 1.56845e-17
6530.00447 1.55891e-17
6531.99885 1.56064e-17
6534.00325 1.56627e-17
6535.99763 1.56820e-17
6538.00203 1.56854e-17
6539.99641 1.56935e-17
6542.00081 1.56668e-17
6543.99519 1.56501e-17
6545.99959 1.56450e-17
6548.00399 1.56195e-17
6549.99836 1.55880e-17
6552.00276 1.55720e-17
6553.99714 1.55594e-17
6556.00154 1.55584e-17
6557.99592 1.55138e-17
6560.00032 1.54304e-17
6562.00472 1.53572e-17
6563.99910 1.53400e-17
6566.00350 1.53199e-17
6567.99788 1.52663e-17
6570.00228 1.52098e-17
6571.99665 1.51594e-17
6574.00105 1.51033e-17
6575.99543 1.50730e-17
6577.99983 1.50529e-17
6580.00423 1.50108e-17
6581.99861 1.49523e-17
6584.00301 1.49164e-17
6585.99739 1.48962e-17
6588.00179 1.48345e-17
6589.99617 1.48103e-17
6592.00057 1.48055e-17
6593.99494 1.47650e-17
6595.99934 1.47494e-17
6598.00374 1.47266e-17
6599.99812 1.46582e-17
6602.00252 1.45964e-17
6603.99690 1.45717e-17
6606.00130 1.45124e-17
6607.99568 1.44427e-17
6610.00008 1.44055e-17
6612.00448 1.43434e-17
6613.99886 1.42852e-17
6616.00326 1.42366e-17
6617.99763 1.41797e-17
6620.00203 1.41344e-17
6621.99641 1.41133e-17
6624.00081 1.40713e-17
6625.99519 1.40066e-17
6627.99959 1.39840e-17
6630.00399 1.39838e-17
6631.99837 1.39946e-17
6634.00277 1.39828e-17
6635.99715 1.39768e-17
6638.00155 1.39867e-17
6639.99592 1.39552e-17
6642.00032 1.39101e-17
6644.00472 1.39027e-17
6645.99910 1.39038e-17
6648.00350 1.38801e-17
6649.99788 1.38480e-17
6652.00228 1.38288e-17
6653.99666 1.37956e-17
6656.00106 1.37526e-17
6657.99544 1.37027e-17
6659.99984 1.36496e-17
6662.00424 1.36223e-17
6663.99861 1.36057e-17
6666.00301 1.35590e-17
6667.99739 1.35161e-17
6670.00179 1.35024e-17
6671.99617 1.34824e-17
6674.00057 1.34149e-17
6676.00497 1.33640e-17
6677.99935 1.33447e-17
6680.00375 1.33085e-17
6681.99813 1.32469e-17
6684.00253 1.31974e-17
6685.99690 1.31728e-17
6688.00130 1.31113e-17
6689.99568 1.30653e-17
6692.00008 1.30174e-17
6694.00448 1.29438e-17
6695.99886 1.28656e-17
6698.00326 1.28246e-17
6699.99764 1.27725e-17
6702.00204 1.27115e-17
6703.99642 1.26611e-17
6706.00082 1.26166e-17
6707.99519 1.25548e-17
6709.99959 1.25085e-17
6712.00399 1.24742e-17
6713.99837 1.24333e-17
6716.00277 1.23966e-17
6717.99715 1.23819e-17
6720.00155 1.23556e-17
6721.99593 1.23215e-17
6724.00033 1.23060e-17
6726.00473 1.22954e-17
6727.99911 1.22658e-17
6730.00351 1.22469e-17
6731.99788 1.22243e-17
6734.00228 1.21944e-17
6735.99666 1.21657e-17
6738.00106 1.21451e-17
6739.99544 1.21162e-17
6741.99984 1.20851e-17
6744.00424 1.20599e-17
6745.99862 1.20354e-17
6748.00302 1.20172e-17
6749.99740 1.20020e-17
6752.00180 1.19783e-17
6753.99617 1.19668e-17
6756.00057 1.19755e-17
6758.00497 1.19865e-17
6759.99935 1.19711e-17
6762.00375 1.19341e-17
6763.99813 1.19098e-17
6766.00253 1.18863e-17
6767.99691 1.18645e-17
6770.00131 1.18371e-17
6771.99569 1.18102e-17
6774.00009 1.17780e-17
6776.00449 1.17757e-17
6777.99886 1.17475e-17
6780.00326 1.17033e-17
6781.99764 1.16531e-17
6784.00204 1.16295e-17
6785.99642 1.15797e-17
6788.00082 1.15271e-17
6789.99520 1.14913e-17
6791.99960 1.14593e-17
6794.00400 1.14205e-17
6795.99838 1.13712e-17
6798.00278 1.13443e-17
6799.99715 1.13243e-17
6802.00155 1.13118e-17
6803.99593 1.13001e-17
6806.00033 1.12599e-17
6808.00473 1.12284e-17
6809.99911 1.12086e-17
6812.00351 1.11884e-17
6813.99789 1.11613e-17
6816.00229 1.11449e-17
6817.99667 1.11173e-17
6820.00107 1.11052e-17
6821.99544 1.10679e-17
6823.99984 1.10221e-17
6826.00424 1.09893e-17
6827.99862 1.09895e-17
6830.00302 1.10042e-17
6831.99740 1.09743e-17
6834.00180 1.09277e-17
6835.99618 1.08820e-17
6838.00058 1.08448e-17
6839.99496 1.08070e-17
6841.99936 1.07929e-17
6844.00376 1.08137e-17
6845.99813 1.08369e-17
6848.00253 1.08601e-17
6849.99691 1.08833e-17
6852.00131 1.09065e-17
6853.99569 1.09297e-17
6856.00009 1.09529e-17
6858.00449 1.09761e-17
6859.99887 1.09993e-17
6862.00327 1.10225e-17
6863.99765 1.10456e-17
6866.00205 1.10688e-17
6867.99642 1.10920e-17
6870.00082 1.11152e-17
6871.99520 1.11383e-17
6873.99960 1.11615e-17
6876.00400 1.11847e-17
6877.99838 1.12079e-17
6880.00278 1.12310e-17
6881.99716 1.12542e-17
6884.00156 1.12773e-17
6885.99594 1.13005e-17
6888.00034 1.13236e-17
6890.00474 1.13468e-17
6891.99911 1.13699e-17
6894.00351 1.13931e-17
6895.99789 1.14162e-17
6898.00229 1.14394e-17
6899.99667 1.14625e-17
6902.00107 1.14856e-17
6903.99545 1.15088e-17
6905.99985 1.15319e-17
6908.00425 1.15550e-17
6909.99863 1.15781e-17
6912.00303 1.16012e-17
6913.99740 1.16244e-17
6916.00180 1.16475e-17
6917.99618 1.16706e-17
6920.00058 1.16937e-17
6922.00498 1.17168e-17
6923.99936 1.17399e-17
6926.00376 1.17630e-17
6927.99814 1.17861e-17
6930.00254 1.18092e-17
6931.99692 1.18323e-17
6934.00132 1.18554e-17
6935.99569 1.18785e-17
6938.00009 1.19321e-17
6940.00449 1.19911e-17
6941.99887 1.20109e-17
6944.00327 1.19978e-17
6945.99765 1.19992e-17
6948.00205 1.20159e-17
6949.99643 1.20234e-17
6952.00083 1.20273e-17
6953.99521 1.20330e-17
6955.99961 1.20216e-17
6958.00401 1.19730e-17
6959.99838 1.19225e-17
6962.00278 1.19039e-17
6963.99716 1.18983e-17
6966.00156 1.19065e-17
6967.99594 1.19116e-17
6970.00034 1.19159e-17
6972.00474 1.18955e-17
6973.99912 1.18826e-17
6976.00352 1.18993e-17
6977.99790 1.19315e-17
6980.00230 1.19570e-17
6981.99667 1.19654e-17
6984.00107 1.19759e-17
6985.99545 1.20196e-17
6987.99985 1.20545e-17
6990.00425 1.20380e-17
6991.99863 1.20209e-17
6994.00303 1.20437e-17
6995.99741 1.20258e-17
6998.00181 1.20081e-17
6999.99619 1.20160e-17
7002.00059 1.20234e-17
7003.99496 1.20097e-17
7005.99936 1.19516e-17
7008.00376 1.19419e-17
7009.99814 1.19683e-17
7012.00254 1.20209e-17
7013.99692 1.20375e-17
7016.00132 1.20274e-17
7017.99570 1.20871e-17
7020.00010 1.20981e-17
7022.00450 1.20751e-17
7023.99888 1.20815e-17
7026.00328 1.20892e-17
7027.99765 1.20935e-17
7030.00205 1.20687e-17
7031.99643 1.20843e-17
7034.00083 1.21405e-17
7035.99521 1.21952e-17
7037.99961 1.22351e-17
7040.00401 1.22701e-17
7041.99839 1.22797e-17
7044.00279 1.22875e-17
7045.99717 1.23273e-17
7048.00157 1.23609e-17
7049.99594 1.23693e-17
7052.00034 1.23861e-17
7054.00474 1.24222e-17
7055.99912 1.24409e-17
7058.00352 1.24100e-17
7059.99790 1.23801e-17
7062.00230 1.24055e-17
7063.99668 1.24286e-17
7066.00108 1.24417e-17
7067.99546 1.24487e-17
7069.99986 1.24664e-17
7072.00426 1.24771e-17
7073.99863 1.24552e-17
7076.00303 1.24373e-17
7077.99741 1.24352e-17
7080.00181 1.24508e-17
7081.99619 1.24602e-17
7084.00059 1.24654e-17
7085.99497 1.24579e-17
7087.99937 1.24638e-17
7090.00377 1.24835e-17
7091.99815 1.25038e-17
7094.00255 1.24962e-17
7095.99692 1.25459e-17
7098.00132 1.25634e-17
7099.99570 1.25665e-17
7102.00010 1.25693e-17
7104.00450 1.25865e-17
7105.99888 1.26058e-17
7108.00328 1.26565e-17
7109.99766 1.27076e-17
7112.00206 1.27297e-17
7113.99644 1.27352e-17
7116.00084 1.27532e-17
7117.99521 1.27794e-17
7119.99961 1.28016e-17
7122.00401 1.28183e-17
7123.99839 1.28432e-17
7126.00279 1.28587e-17
7127.99717 1.28437e-17
7130.00157 1.28054e-17
7131.99595 1.28409e-17
7134.00035 1.29057e-17
7136.00475 1.29283e-17
7137.99913 1.29162e-17
7140.00353 1.29389e-17
7141.99790 1.29557e-17
7144.00230 1.30179e-17
7145.99668 1.31155e-17
7148.00108 1.31803e-17
7149.99546 1.32205e-17
7151.99986 1.32649e-17
7154.00426 1.32680e-17
7155.99864 1.32841e-17
7158.00304 1.33489e-17
7159.99742 1.34090e-17
7162.00182 1.34993e-17
7163.99619 1.36078e-17
7166.00059 1.37194e-17
7168.00499 1.38007e-17
7169.99937 1.38623e-17
7172.00377 1.39514e-17
7173.99815 1.40126e-17
7176.00255 1.40386e-17
7177.99693 1.40681e-17
7180.00133 1.41332e-17
7181.99571 1.41898e-17
7184.00011 1.42943e-17
7186.00451 1.43590e-17
7187.99888 1.43958e-17
7190.00328 1.44095e-17
7191.99766 1.44434e-17
7194.00206 1.44821e-17
7195.99644 1.45370e-17
7198.00084 1.45622e-17
7199.99522 1.45974e-17
7201.99962 1.46348e-17
7204.00402 1.45931e-17
7205.99840 1.45303e-17
7208.00280 1.44841e-17
7209.99717 1.44348e-17
7212.00157 1.44062e-17
7213.99595 1.43984e-17
7216.00035 1.44763e-17
7218.00475 1.45888e-17
7219.99913 1.46192e-17
7222.00353 1.46351e-17
7223.99791 1.47020e-17
7226.00231 1.47935e-17
7227.99669 1.48578e-17
7230.00109 1.49285e-17
7231.99546 1.49906e-17
7233.99986 1.50574e-17
7236.00426 1.51115e-17
7237.99864 1.51467e-17
7240.00304 1.51634e-17
7241.99742 1.51249e-17
7244.00182 1.51339e-17
7245.99620 1.51822e-17
7248.00060 1.51984e-17
7249.99498 1.52167e-17
7251.99938 1.52574e-17
7254.00378 1.52769e-17
7255.99815 1.52862e-17
7258.00255 1.52887e-17
7259.99693 1.52757e-17
7262.00133 1.52472e-17
7263.99571 1.52556e-17
7266.00011 1.52833e-17
7268.00451 1.53100e-17
7269.99889 1.53346e-17
7272.00329 1.53786e-17
7273.99767 1.53570e-17
7276.00207 1.52886e-17
7277.99644 1.52327e-17
7280.00084 1.51794e-17
7281.99522 1.51198e-17
7283.99962 1.50731e-17
7286.00402 1.50862e-17
7287.99840 1.50920e-17
7290.00280 1.50823e-17
7291.99718 1.50518e-17
7294.00158 1.49898e-17
7295.99596 1.49348e-17
7298.00036 1.48903e-17
7300.00476 1.48437e-17
7301.99913 1.48120e-17
7304.00353 1.47961e-17
7305.99791 1.47821e-17
7308.00231 1.47727e-17
7309.99669 1.47218e-17
7312.00109 1.46691e-17
7313.99547 1.46334e-17
7315.99987 1.45873e-17
7318.00427 1.45121e-17
7319.99865 1.44225e-17
7322.00305 1.43583e-17
7323.99742 1.43080e-17
7326.00182 1.42145e-17
7327.99620 1.41404e-17
7330.00060 1.40992e-17
7331.99498 1.40697e-17
7333.99938 1.40567e-17
7336.00378 1.40030e-17
7337.99816 1.38746e-17
7340.00256 1.37922e-17
7341.99694 1.37822e-17
7344.00134 1.37425e-17
7345.99571 1.36495e-17
7348.00011 1.35708e-17
7350.00451 1.35263e-17
7351.99889 1.34743e-17
7354.00329 1.33930e-17
7355.99767 1.33226e-17
7358.00207 1.32766e-17
7359.99645 1.32589e-17
7362.00085 1.32395e-17
7363.99523 1.31932e-17
7365.99963 1.31073e-17
7368.00403 1.30103e-17
7369.99840 1.29681e-17
7372.00280 1.29197e-17
7373.99718 1.28068e-17
7376.00158 1.27267e-17
7377.99596 1.26650e-17
7380.00036 1.25845e-17
7382.00476 1.25090e-17
7383.99914 1.24316e-17
7386.00354 1.23717e-17
7387.99792 1.23026e-17
7390.00232 1.22289e-17
7391.99669 1.21317e-17
7394.00109 1.19880e-17
7395.99547 1.19299e-17
7397.99987 1.18723e-17
7400.00427 1.17660e-17
7401.99865 1.16435e-17
7404.00305 1.15277e-17
7405.99743 1.14054e-17
7408.00183 1.12926e-17
7409.99621 1.11359e-17
7412.00061 1.09960e-17
7414.00501 1.09121e-17
7415.99938 1.08428e-17
7418.00378 1.07516e-17
7419.99816 1.06636e-17
7422.00256 1.05759e-17
7423.99694 1.04887e-17
7426.00134 1.03935e-17
7427.99572 1.02953e-17
7430.00012 1.02263e-17
7432.00452 1.01477e-17
7433.99890 1.00575e-17
7436.00330 9.98327e-18
7437.99767 9.93295e-18
7440.00207 9.84711e-18
7441.99645 9.75433e-18
7444.00085 9.67516e-18
7445.99523 9.61615e-18
7447.99963 9.54675e-18
7450.00403 9.44107e-18
7451.99841 9.35683e-18
7454.00281 9.29292e-18
7455.99719 9.23554e-18
7458.00159 9.16666e-18
7459.99596 9.07615e-18
7462.00036 9.00044e-18
7464.00476 8.94622e-18
7465.99914 8.86782e-18
7468.00354 8.77214e-18
7469.99792 8.69245e-18
7472.00232 8.60474e-18
7473.99670 8.55523e-18
7476.00110 8.50606e-18
7477.99548 8.44515e-18
7479.99988 8.38098e-18
7482.00428 8.32442e-18
7483.99865 8.26325e-18
7486.00305 8.20809e-18
7487.99743 8.15136e-18
7490.00183 8.10308e-18
7491.99621 8.05131e-18
7494.00061 7.98766e-18
7495.99499 7.94536e-18
7497.99939 7.88211e-18
7500.00379 7.82417e-18
7501.99817 7.77721e-18
7504.00257 7.71088e-18
7505.99694 7.64847e-18
7508.00134 7.57026e-18
7509.99572 7.49817e-18
7512.00012 7.43624e-18
7514.00452 7.38660e-18
7515.99890 7.31375e-18
7518.00330 7.23750e-18
7519.99768 7.17281e-18
7522.00208 7.10781e-18
7523.99646 7.04935e-18
7526.00086 6.99749e-18
7527.99523 6.93694e-18
7529.99963 6.85686e-18
7532.00403 6.78370e-18
7533.99841 6.71843e-18
7536.00281 6.66494e-18
7537.99719 6.62713e-18
7540.00159 6.59323e-18
7541.99597 6.55237e-18
7544.00037 6.51979e-18
7546.00477 6.50133e-18
7547.99915 6.49169e-18
7550.00355 6.44353e-18
7551.99792 6.47713e-18
7554.00232 6.51072e-18
7555.99670 6.54431e-18
7558.00110 6.57789e-18
7559.99548 6.61147e-18
7561.99988 6.64504e-18
7564.00428 6.67861e-18
7565.99866 6.71218e-18
7568.00306 6.74574e-18
7569.99744 6.77929e-18
7572.00184 6.81285e-18
7573.99621 6.84640e-18
7576.00061 6.87994e-18
7577.99499 6.91348e-18
7579.99939 6.94702e-18
7582.00379 6.98055e-18
7583.99817 7.01408e-18
7586.00257 7.04760e-18
7587.99695 7.08112e-18
7590.00135 7.11463e-18
7591.99573 7.14814e-18
7594.00013 7.18165e-18
7596.00453 7.21515e-18
7597.99890 7.24865e-18
7600.00330 7.28214e-18
7601.99768 7.31563e-18
7604.00208 7.34912e-18
7605.99646 7.38260e-18
7608.00086 7.41608e-18
7609.99524 7.44955e-18
7611.99964 7.48302e-18
7614.00404 7.51648e-18
7615.99842 7.54994e-18
7618.00282 7.58339e-18
7619.99719 7.61685e-18
7622.00159 7.65029e-18
7623.99597 7.68374e-18
7626.00037 7.71718e-18
7628.00477 7.75061e-18
7629.99915 7.78404e-18
7632.00355 7.81747e-18
7633.99793 7.85089e-18
7636.00233 7.88430e-18
7637.99671 7.91772e-18
7640.00111 7.95113e-18
7641.99548 7.98453e-18
7643.99988 8.01793e-18
7646.00428 8.05133e-18
7647.99866 8.08472e-18
7650.00306 8.11811e-18
7651.99744 8.15149e-18
7654.00184 8.18487e-18
7655.99622 8.21825e-18
7658.00062 8.25162e-18
7660.00502 8.28498e-18
7661.99940 8.31834e-18
7664.00380 8.35170e-18
7665.99817 8.38506e-18
7668.00257 8.41841e-18
7669.99695 8.45175e-18
7672.00135 8.48509e-18
7673.99573 8.51843e-18
7676.00013 8.55176e-18
7678.00453 8.58509e-18
7679.99891 8.61842e-18
7682.00331 8.80185e-18
7683.99769 8.88954e-18
7686.00209 8.96213e-18
7687.99646 9.07420e-18
7690.00086 9.17555e-18
7691.99524 9.24517e-18
7693.99964 9.34301e-18
7696.00404 9.39961e-18
7697.99842 9.43006e-18
7700.00282 9.47901e-18
7701.99720 9.55196e-18
7704.00160 9.61374e-18
7705.99598 9.64335e-18
7708.00038 9.70178e-18
7710.00478 9.70775e-18
7711.99915 9.68686e-18
7714.00355 9.68051e-18
7715.99793 9.67346e-18
7718.00233 9.66334e-18
7719.99671 9.66634e-18
7722.00111 9.65396e-18
7723.99549 9.61069e-18
7725.99989 9.59533e-18
7728.00429 9.56863e-18
7729.99867 9.54648e-18
7732.00307 9.51536e-18
7733.99744 9.48080e-18
7736.00184 9.44342e-18
7737.99622 9.45558e-18
7740.00062 9.45443e-18
7741.99500 9.47228e-18
7743.99940 9.47094e-18
7746.00380 9.44049e-18
7747.99818 9.41927e-18
7750.00258 9.43205e-18
7751.99696 9.42452e-18
7754.00136 9.39992e-18
7755.99573 9.39690e-18
7758.00013 9.41540e-18
7760.00453 9.44341e-18
7761.99891 9.42454e-18
7764.00331 9.41552e-18
7765.99769 9.43318e-18
7768.00209 9.44904e-18
7769.99647 9.47078e-18
7772.00087 9.45973e-18
7773.99525 9.39697e-18
7775.99965 9.34437e-18
7778.00405 9.36529e-18
7779.99842 9.41384e-18
7782.00282 9.42067e-18
7783.99720 9.39239e-18
7786.00160 9.39414e-18
7787.99598 9.42334e-18
7790.00038 9.43391e-18
7792.00478 9.47230e-18
7793.99916 9.50841e-18
7796.00356 9.54650e-18
7797.99794 9.56268e-18
7800.00234 9.59838e-18
7801.99671 9.64561e-18
7804.00111 9.68471e-18
7805.99549 9.70886e-18
7807.99989 9.74265e-18
7810.00429 9.78915e-18
7811.99867 9.84808e-18
7814.00307 9.94039e-18
7815.99745 9.97097e-18
7818.00185 9.96889e-18
7819.99623 9.96032e-18
7822.00063 9.93778e-18
7823.99500 9.87545e-18
7825.99940 9.79267e-18
7828.00380 9.77198e-18
7829.99818 9.74011e-18
7832.00258 9.74303e-18
7833.99696 9.71770e-18
7836.00136 9.64110e-18
7837.99574 9.62921e-18
7840.00014 9.64398e-18
7842.00454 9.65871e-18
7843.99892 9.63713e-18
7846.00332 9.59138e-18
7847.99769 9.58196e-18
7850.00209 9.56852e-18
7851.99647 9.55659e-18
7854.00087 9.54071e-18
7855.99525 9.47993e-18
7857.99965 9.41719e-18
7860.00405 9.39552e-18
7861.99843 9.39738e-18
7864.00283 9.38969e-18
7865.99721 9.38211e-18
7868.00161 9.36153e-18
7869.99598 9.31514e-18
7872.00038 9.28258e-18
7874.00478 9.23949e-18
7875.99916 9.19330e-18
7878.00356 9.13530e-18
7879.99794 9.06467e-18
7882.00234 8.95109e-18
7883.99672 8.88968e-18
7886.00112 8.85516e-18
7887.99550 8.81801e-18
7889.99990 8.79511e-18
7892.00430 8.80640e-18
7893.99867 8.79143e-18
7896.00307 8.75589e-18
7897.99745 8.74786e-18
7900.00185 8.75648e-18
7901.99623 8.75016e-18
7904.00063 8.72727e-18
7906.00503 8.69877e-18
7907.99941 8.67183e-18
7910.00381 8.67242e-18
7911.99819 8.69474e-18
7914.00259 8.67392e-18
7915.99696 8.64089e-18
7918.00136 8.62262e-18
7919.99574 8.60037e-18
7922.00014 8.56071e-18
7924.00454 8.51491e-18
7925.99892 8.48107e-18
7928.00332 8.49433e-18
7929.99770 8.51503e-18
7932.00210 8.50854e-18
7933.99648 8.47723e-18
7936.00088 8.43913e-18
7937.99525 8.37527e-18
7939.99965 8.29788e-18
7942.00405 8.25521e-18
7943.99843 8.20492e-18
7946.00283 8.14802e-18
7947.99721 8.08369e-18
7950.00161 8.02079e-18
7951.99599 7.96768e-18
7954.00039 7.95750e-18
7956.00479 7.95697e-18
7957.99917 7.96554e-18
7960.00357 7.96386e-18
7961.99794 7.94475e-18
7964.00234 7.88877e-18
7965.99672 7.82301e-18
7968.00112 7.77449e-18
7969.99550 7.75538e-18
7971.99990 7.70405e-18
7974.00430 7.68740e-18
7975.99868 7.65455e-18
7978.00308 7.57661e-18
7979.99746 7.51618e-18
7982.00186 7.49003e-18
7983.99623 7.45898e-18
7986.00063 7.39959e-18
7987.99501 7.33263e-18
7989.99941 7.27895e-18
7992.00381 7.25507e-18
7993.99819 7.21063e-18
7996.00259 7.15400e-18
7997.99697 7.10689e-18
8000.00137 7.08569e-18
8001.99575 7.07338e-18
8004.00015 7.03409e-18
8006.00455 7.01814e-18
8007.99892 6.97305e-18
8010.00332 6.90255e-18
8011.99770 6.85616e-18
8014.00210 6.84609e-18
8015.99648 6.84908e-18
8018.00088 6.86220e-18
8019.99526 6.85251e-18
8021.99966 6.84041e-18
8024.00406 6.83702e-18
8025.99844 6.83535e-18
8028.00284 6.83536e-18
8029.99721 6.79459e-18
8032.00161 6.72243e-18
8033.99599 6.65907e-18
8036.00039 6.58880e-18
8037.99477 6.51206e-18
8039.99917 6.43781e-18
8042.00357 6.37510e-18
8043.99795 6.32837e-18
8046.00235 6.28150e-18
8047.99673 6.21280e-18
8050.00113 6.15657e-18
8051.99550 6.11801e-18
8053.99990 6.05887e-18
8056.00430 5.97786e-18
8057.99868 5.91676e-18
8060.00308 5.84147e-18
8061.99746 5.80617e-18
8064.00186 5.76431e-18
8065.99624 5.71588e-18
8068.00064 5.66008e-18
8070.00504 5.62223e-18
8071.99942 5.59027e-18
8074.00382 5.54969e-18
8075.99819 5.50216e-18
8078.00259 5.46253e-18
8079.99697 5.41134e-18
8082.00137 5.35604e-18
8083.99575 5.32820e-18
8086.00015 5.28853e-18
8088.00455 5.24656e-18
8089.99893 5.20225e-18
8092.00333 5.17570e-18
8093.99771 5.12985e-18
8096.00211 5.07024e-18
8097.99648 5.01822e-18
8100.00088 4.99697e-18
8101.99526 4.97040e-18
8103.99966 4.93366e-18
8106.00406 4.91494e-18
8107.99844 4.89751e-18
8110.00284 4.86598e-18
8111.99722 4.81683e-18
8114.00162 4.78977e-18
8115.99600 4.80014e-18
8118.00040 4.78370e-18
8120.00480 4.74238e-18
8121.99917 4.72279e-18
8124.00357 4.71974e-18
8125.99795 4.68909e-18
8128.00235 4.67798e-18
8129.99673 4.66640e-18
8132.00113 4.64919e-18
8133.99551 4.62617e-18
8135.99991 4.62502e-18
8138.00431 4.62606e-18
8139.99869 4.61647e-18
8142.00309 4.60765e-18
8143.99746 4.59045e-18
8146.00186 4.57223e-18
8147.99624 4.56846e-18
8150.00064 4.55987e-18
8151.99502 4.55320e-18
8153.99942 4.54994e-18
8156.00382 4.55039e-18
8157.99820 4.55913e-18
8160.00260 4.56498e-18
8161.99698 4.56262e-18
8164.00138 4.56944e-18
8165.99575 4.55122e-18
8168.00015 4.50492e-18
8170.00455 4.44435e-18
8171.99893 4.40439e-18
8174.00333 4.39498e-18
8175.99771 4.40528e-18
8178.00211 4.39620e-18
8179.99649 4.37788e-18
8182.00089 4.35337e-18
8183.99527 4.35429e-18
8185.99967 4.35153e-18
8188.00407 4.34516e-18
8189.99844 4.34865e-18
8192.00284 4.36454e-18
8193.99722 4.35295e-18
8196.00162 4.34710e-18
8197.99600 4.34199e-18
8200.00040 4.33487e-18
8202.00480 4.32217e-18
8203.99918 4.27260e-18
8206.00358 4.22869e-18
8207.99796 4.19903e-18
8210.00236 4.17265e-18
8211.99673 4.15160e-18
8214.00113 4.14227e-18
8215.99551 4.14231e-18
8217.99991 4.16196e-18
8220.00431 4.20545e-18
8221.99869 4.26787e-18
8224.00309 4.31925e-18
8225.99747 4.35672e-18
8228.00187 4.36077e-18
8229.99625 4.34206e-18
8232.00065 4.30772e-18
8233.99502 4.27742e-18
8235.99942 4.24552e-18
8238.00382 4.20769e-18
8239.99820 4.18668e-18
8242.00260 4.17437e-18
8243.99698 4.17810e-18
8246.00138 4.17825e-18
8247.99576 4.16340e-18
8250.00016 4.16214e-18
8252.00456 4.18761e-18
8253.99894 4.21921e-18
8256.00334 4.24809e-18
8257.99771 4.27399e-18
8260.00211 4.28567e-18
8261.99649 4.31123e-18
8264.00089 4.33526e-18
8265.99527 4.34853e-18
8267.99967 4.36643e-18
8270.00407 4.39804e-18
8271.99845 4.46044e-18
8274.00285 4.53367e-18
8275.99723 4.57913e-18
8278.00163 4.61123e-18
8279.99600 4.64804e-18
8282.00040 4.67888e-18
8284.00480 4.71828e-18
8285.99918 4.76459e-18
8288.00358 4.82929e-18
8289.99796 4.91655e-18
8292.00236 4.98612e-18
8293.99674 5.03223e-18
8296.00114 5.09512e-18
8297.99552 5.15005e-18
8299.99992 5.19587e-18
8302.00432 5.24824e-18
8303.99869 5.30673e-18
8306.00309 5.37911e-18
8307.99747 5.42601e-18
8310.00187 5.46336e-18
8311.99625 5.51976e-18
8314.00065 5.60900e-18
8316.00505 5.69941e-18
8317.99943 5.75384e-18
8320.00383 5.81397e-18
8321.99821 5.88060e-18
8324.00261 5.95870e-18
8325.99698 6.05845e-18
8328.00138 6.11718e-18
8329.99576 6.15911e-18
8332.00016 6.24004e-18
8334.00456 6.36954e-18
8335.99894 6.45875e-18
8338.00334 6.50921e-18
8339.99772 6.59186e-18
8342.00212 6.66255e-18
8343.99650 6.73231e-18
8346.00090 6.82132e-18
8347.99527 6.91625e-18
8349.99967 7.04559e-18
8352.00407 7.20079e-18
8353.99845 7.33752e-18
8356.00285 7.48948e-18
8357.99723 7.62114e-18
8360.00163 7.72896e-18
8361.99601 7.78213e-18
8364.00041 7.84272e-18
8365.99479 7.93954e-18
8367.99919 8.05289e-18
8370.00359 8.15672e-18
8371.99796 8.27912e-18
8374.00236 8.41529e-18
8375.99674 8.53667e-18
8378.00114 8.63856e-18
8379.99552 8.76014e-18
8381.99992 8.91750e-18
8384.00432 9.06120e-18
8385.99870 9.18543e-18
8388.00310 9.33332e-18
8389.99748 9.47625e-18
8392.00188 9.57719e-18
8393.99625 9.65848e-18
8396.00065 9.79185e-18
8397.99503 9.95940e-18
8399.99943 1.01137e-17
8402.00383 1.02256e-17
8403.99821 1.03136e-17
8406.00261 1.04220e-17
8407.99699 1.05447e-17
8410.00139 1.06026e-17
8411.99577 1.06688e-17
8414.00017 1.08361e-17
8416.00457 1.09796e-17
8417.99894 1.10822e-17
8420.00334 1.12290e-17
8421.99772 1.13986e-17
8424.00212 1.15810e-17
8425.99650 1.17056e-17
8428.00090 1.18266e-17
8430.00530 1.19651e-17
8431.99968 1.21353e-17
8434.00408 1.22775e-17
8435.99846 1.24350e-17
8438.00286 1.25711e-17
8439.99723 1.27352e-17
8442.00163 1.29178e-17
8443.99601 1.31056e-17
8446.00041 1.32416e-17
8448.00481 1.33707e-17
8449.99919 1.34918e-17
8452.00359 1.36070e-17
8453.99797 1.37302e-17
8456.00237 1.38557e-17
8457.99675 1.40018e-17
8460.00115 1.41828e-17
8461.99552 1.43510e-17
8463.99992 1.45077e-17
8466.00432 1.46813e-17
8467.99870 1.48595e-17
8470.00310 1.49984e-17
8471.99748 1.51444e-17
8474.00188 1.52965e-17
8475.99626 1.54195e-17
8478.00066 1.55352e-17
8479.99504 1.56594e-17
8481.99944 1.57668e-17
8484.00384 1.58636e-17
8485.99821 1.59477e-17
8488.00261 1.60240e-17
8489.99699 1.60796e-17
8492.00139 1.61335e-17
8493.99577 1.61937e-17
8496.00017 1.62562e-17
8498.00457 1.63308e-17
8499.99895 1.64569e-17
8502.00335 1.66136e-17
8503.99773 1.67926e-17
8506.00213 1.69758e-17
8507.99650 1.71506e-17
8510.00090 1.73625e-17
8511.99528 1.75908e-17
8513.99968 1.78507e-17
8516.00408 1.80424e-17
8517.99846 1.82841e-17
8520.00286 1.85503e-17
8521.99724 1.88304e-17
8524.00164 1.90970e-17
8525.99602 1.93848e-17
8528.00042 1.96724e-17
8530.00482 1.99256e-17
8531.99919 2.01262e-17
8534.00359 2.02662e-17
8535.99797 2.03457e-17
8538.00237 2.03711e-17
8539.99675 2.04470e-17
8542.00115 2.05838e-17
8543.99553 2.07175e-17
8545.99993 2.08223e-17
8548.00433 2.09254e-17
8549.99871 2.10861e-17
8552.00311 2.12994e-17
8553.99748 2.15270e-17
8556.00188 2.18033e-17
8557.99626 2.21791e-17
8560.00066 2.25248e-17
8562.00506 2.28314e-17
8563.99944 2.30772e-17
8566.00384 2.33008e-17
8567.99822 2.35201e-17
8570.00262 2.37317e-17
8571.99700 2.38506e-17
8574.00140 2.39250e-17
8575.99577 2.39420e-17
8578.00017 2.39676e-17
8580.00457 2.40044e-17
8581.99895 2.39903e-17
8584.00335 2.40679e-17
8585.99773 2.41266e-17
8588.00213 2.41366e-17
8589.99651 2.42001e-17
8592.00091 2.43515e-17
8593.99529 2.44512e-17
8595.99969 2.45127e-17
8598.00409 2.45136e-17
8599.99846 2.45044e-17
8602.00286 2.44519e-17
8603.99724 2.44140e-17
8606.00164 2.43777e-17
8607.99602 2.43695e-17
8610.00042 2.43235e-17
8611.99480 2.42663e-17
8613.99920 2.41959e-17
8616.00360 2.41273e-17
8617.99798 2.40597e-17
8620.00238 2.40730e-17
8621.99675 2.41347e-17
8624.00115 2.41450e-17
8625.99553 2.41918e-17
8627.99993 2.42067e-17
8630.00433 2.41488e-17
8631.99871 2.40976e-17
8634.00311 2.41261e-17
8635.99749 2.41330e-17
8638.00189 2.41133e-17
8639.99627 2.40718e-17
8642.00067 2.39860e-17
8643.99504 2.38904e-17
8645.99944 2.37868e-17
8648.00384 2.36359e-17
8649.99822 2.34192e-17
8652.00262 2.32100e-17
8653.99700 2.30164e-17
8656.00140 2.27976e-17
8657.99578 2.24998e-17
8660.00018 2.23228e-17
8662.00458 2.22588e-17
8663.99896 2.22438e-17
8666.00336 2.22472e-17
8667.99773 2.23170e-17
8670.00213 2.23552e-17
8671.99651 2.23406e-17
8674.00091 2.23389e-17
8676.00531 2.23558e-17
8677.99969 2.23419e-17
8680.00409 2.22772e-17
8681.99847 2.21948e-17
8684.00287 2.21221e-17
8685.99725 2.20589e-17
8688.00165 2.19613e-17
8689.99602 2.18413e-17
8692.00042 2.17562e-17
8694.00482 2.16750e-17
8695.99920 2.15761e-17
8698.00360 2.14569e-17
8699.99798 2.13447e-17
8702.00238 2.12931e-17
8703.99676 2.12159e-17
8706.00116 2.11173e-17
8707.99554 2.10160e-17
8709.99994 2.09082e-17
8712.00434 2.07634e-17
8713.99871 2.06537e-17
8716.00311 2.05106e-17
8717.99749 2.04088e-17
8720.00189 2.03182e-17
8721.99627 2.02076e-17
8724.00067 2.00183e-17
8725.99505 1.98631e-17
8727.99945 1.97928e-17
8730.00385 1.96529e-17
8731.99823 1.95248e-17
8734.00263 1.94569e-17
8735.99700 1.93987e-17
8738.00140 1.92807e-17
8739.99578 1.91738e-17
8742.00018 1.90540e-17
8744.00458 1.88989e-17
8745.99896 1.87526e-17
8748.00336 1.85936e-17
8749.99774 1.84760e-17
8752.00214 1.83618e-17
8753.99652 1.82398e-17
8756.00092 1.81304e-17
8757.99529 1.80276e-17
8759.99969 1.78921e-17
8762.00409 1.77284e-17
8763.99847 1.75237e-17
8766.00287 1.73733e-17
8767.99725 1.72368e-17
8770.00165 1.70842e-17
8771.99603 1.69124e-17
8774.00043 1.67355e-17
8776.00483 1.65508e-17
8777.99921 1.64096e-17
8780.00361 1.62335e-17
8781.99798 1.60453e-17
8784.00238 1.58811e-17
8785.99676 1.57350e-17
8788.00116 1.55996e-17
8789.99554 1.54899e-17
8791.99994 1.53829e-17
8794.00434 1.52600e-17
8795.99872 1.51428e-17
8798.00312 1.50368e-17
8799.99750 1.49550e-17
