# wavelength flux
3300.0 1.5613107458391074e-16
3301.0 1.5613091377476076e-16
3302.0 1.5613075296577064e-16
3303.0 1.5613059215694025e-16
3304.0 1.5613043134826962e-16
3305.0 1.5613027053975878e-16
3306.0 1.561301097314077e-16
3307.0 1.561299489232164e-16
3308.0 1.5612978811518484e-16
3309.0 1.5612962730731308e-16
3310.0 1.561294664996011e-16
3311.0 1.561293056920489e-16
3312.0 1.5612914488465642e-16
3313.0 1.5612898407742376e-16
3314.0 1.5612882327035083e-16
3315.0 1.5612866246343768e-16
3316.0 1.5612850165668436e-16
3317.0 1.5612834085009075e-16
3318.0 1.561281800436569e-16
3319.0 1.5612801923738287e-16
3320.0 1.5612785843126857e-16
3321.0 1.5612769762531406e-16
3322.0 1.561275368195193e-16
3323.0 1.5612737601388433e-16
3324.0 1.5612721520840913e-16
3325.0 1.5612705440309365e-16
3326.0 1.5612689359793802e-16
3327.0 1.5612673279294212e-16
3328.0 1.56126571988106e-16
3329.0 1.5612641118342962e-16
3330.0 1.56126250378913e-16
3331.0 1.561260895745562e-16
3332.0 1.5612592877035912e-16
3333.0 1.5612576796632184e-16
3334.0 1.561256071624443e-16
3335.0 1.5612544635872655e-16
3336.0 1.561252855551686e-16
3337.0 1.5612512475177035e-16
3338.0 1.561249639485319e-16
3339.0 1.561248031454532e-16
3340.0 1.5612464234253428e-16
3341.0 1.561244815397751e-16
3342.0 1.5612432073717572e-16
3343.0 1.561241599347361e-16
3344.0 1.5612399913245626e-16
3345.0 1.5612383833033616e-16
3346.0 1.5612367752837583e-16
3347.0 1.5612351672657527e-16
3348.0 1.5612335592493448e-16
3349.0 1.5612319512345346e-16
3350.0 1.561230343221322e-16
3351.0 1.5612287352097067e-16
3352.0 1.5612271271996895e-16
3353.0 1.5612255191912698e-16
3354.0 1.5612239111844477e-16
3355.0 1.5612223031792234e-16
3356.0 1.5612206951755962e-16
3357.0 1.5612190871735673e-16
3358.0 1.5612174791731357e-16
3359.0 1.5612158711743021e-16
3360.0 1.5612142631770658e-16
3361.0 1.561212655181427e-16
3362.0 1.5612110471873863e-16
3363.0 1.5612094391949427e-16
3364.0 1.5612078312040976e-16
3365.0 1.5612062232148494e-16
3366.0 1.561204615227199e-16
3367.0 1.5612030072411459e-16
3368.0 1.561201399256691e-16
3369.0 1.561199791273833e-16
3370.0 1.5611981832925736e-16
3371.0 1.561196575312911e-16
3372.0 1.5611949673348462e-16
3373.0 1.5611933593583793e-16
3374.0 1.56119175138351e-16
3375.0 1.561190143410238e-16
3376.0 1.5611885354385637e-16
3377.0 1.5611869274684873e-16
3378.0 1.561185319500008e-16
3379.0 1.5611837115331268e-16
3380.0 1.5611821035678427e-16
3381.0 1.5611804956041568e-16
3382.0 1.5611788876420681e-16
3383.0 1.5611772796815774e-16
3384.0 1.5611756717226836e-16
3385.0 1.5611740637653882e-16
3386.0 1.5611724558096898e-16
3387.0 1.561170847855589e-16
3388.0 1.5611692399030862e-16
3389.0 1.561167631952181e-16
3390.0 1.561166024002873e-16
3391.0 1.5611644160551627e-16
3392.0 1.56116280810905e-16
3393.0 1.561161200164535e-16
3394.0 1.5611595922216175e-16
3395.0 1.5611579842802978e-16
3396.0 1.5611563763405753e-16
3397.0 1.5611547684024507e-16
3398.0 1.5611531604659235e-16
3399.0 1.561151552530994e-16
3400.0 1.561149944597662e-16
3401.0 1.5611483366659273e-16
3402.0 1.5611467287357907e-16
3403.0 1.5611451208072513e-16
3404.0 1.5611435128803095e-16
3405.0 1.5611419049549655e-16
3406.0 1.5611402970312189e-16
3407.0 1.56113868910907e-16
3408.0 1.5611370811885182e-16
3409.0 1.5611354732695647e-16
3410.0 1.5611338653522084e-16
3411.0 1.5611322574364497e-16
3412.0 1.5611306495222883e-16
3413.0 1.5611290416097248e-16
3414.0 1.5611274336987585e-16
3415.0 1.5611258257893896e-16
3416.0 1.561124217881619e-16
3417.0 1.5611226099754457e-16
3418.0 1.5611210020708694e-16
3419.0 1.561119394167891e-16
3420.0 1.5611177862665106e-16
3421.0 1.5611161783667274e-16
3422.0 1.5611145704685416e-16
3423.0 1.5611129625719532e-16
3424.0 1.5611113546769623e-16
3425.0 1.5611097467835694e-16
3426.0 1.5611081388917739e-16
3427.0 1.561106531001576e-16
3428.0 1.5611049231129754e-16
3429.0 1.5611033152259722e-16
3430.0 1.5611017073405667e-16
3431.0 1.561100099456759e-16
3432.0 1.5610984915745486e-16
3433.0 1.5610968836939354e-16
3434.0 1.5610952758149207e-16
3435.0 1.5610936679375026e-16
3436.0 1.5610920600616823e-16
3437.0 1.5610904521874596e-16
3438.0 1.5610888443148344e-16
3439.0 1.5610872364438064e-16
3440.0 1.5610856285743763e-16
3441.0 1.5610840207065434e-16
3442.0 1.5610824128403083e-16
3443.0 1.5610808049756705e-16
3444.0 1.5610791971126305e-16
3445.0 1.5610775892511878e-16
3446.0 1.5610759813913427e-16
3447.0 1.5610743735330947e-16
3448.0 1.5610727656764447e-16
3449.0 1.561071157821392e-16
3450.0 1.561069549967937e-16
3451.0 1.561067942116079e-16
3452.0 1.5610663342658192e-16
3453.0 1.5610647264171564e-16
3454.0 1.5610631185700912e-16
3455.0 1.5610615107246233e-16
3456.0 1.5610599028807533e-16
3457.0 1.5610582950384805e-16
3458.0 1.5610566871978054e-16
3459.0 1.5610550793587277e-16
3460.0 1.5610534715212473e-16
3461.0 1.5610518636853645e-16
3462.0 1.5610502558510794e-16
3463.0 1.5610486480183913e-16
3464.0 1.5610470401873013e-16
3465.0 1.5610454323578085e-16
3466.0 1.561043824529913e-16
3467.0 1.561042216703615e-16
3468.0 1.5610406088789144e-16
3469.0 1.5610390010558117e-16
3470.0 1.561037393234306e-16
3471.0 1.5610357854143983e-16
3472.0 1.5610341775960874e-16
3473.0 1.5610325697793744e-16
3474.0 1.5610309619642586e-16
3475.0 1.5610293541507403e-16
3476.0 1.5610277463388197e-16
3477.0 1.5610261385284967e-16
3478.0 1.5610245307197707e-16
3479.0 1.5610229229126424e-16
3480.0 1.5610213151071118e-16
3481.0 1.561019707303178e-16
3482.0 1.561018099500842e-16
3483.0 1.5610164917001034e-16
3484.0 1.5610148839009623e-16
3485.0 1.5610132761034186e-16
3486.0 1.5610116683074724e-16
3487.0 1.5610100605131237e-16
3488.0 1.561008452720372e-16
3489.0 1.5610068449292185e-16
3490.0 1.561005237139662e-16
3491.0 1.561003629351703e-16
3492.0 1.5610020215653415e-16
3493.0 1.5610004137805774e-16
3494.0 1.5609988059974108e-16
3495.0 1.5609971982158413e-16
3496.0 1.5609955904358695e-16
3497.0 1.5609939826574952e-16
3498.0 1.5609923748807178e-16
3499.0 1.5609907671055384e-16
3500.0 1.5609891593319564e-16
3501.0 1.5609875515599716e-16
3502.0 1.5609859437895842e-16
3502.1 4.1e-17
3506.17 4.3423e-17
3510.25 3.8776e-17
3514.32 3.4618e-17
3518.4 3.6719e-17
3522.47 3.7452e-17
3526.54 4.7789e-17
3530.62 4.3027e-17
3534.69 3.6019e-17
3538.77 3.8953e-17
3542.84 3.8299e-17
3546.91 4.607e-17
3550.99 3.9987e-17
3555.06 3.478e-17
3559.14 3.7356e-17
3563.21 3.0967e-17
3567.29 2.8021e-17
3571.36 4.4599e-17
3575.43 4.1247e-17
3579.51 3.5072e-17
3583.58 4.2873e-17
3587.66 3.4834e-17
3591.73 3.4308e-17
3595.8 4.3366e-17
3599.88 4.1902e-17
3603.95 4.1248e-17
3608.03 3.8704e-17
3612.1 3.4465e-17
3616.18 3.5193e-17
3620.25 3.958e-17
3624.32 5.1027e-17
3628.4 4.1813e-17
3632.47 4.2774e-17
3636.55 3.6162e-17
3640.62 3.903e-17
3644.7 3.4821e-17
3648.77 3.5446e-17
3652.84 4.2569e-17
3656.92 4.2366e-17
3660.99 3.3611e-17
3665.07 3.455e-17
3669.14 3.9792e-17
3673.21 3.9841e-17
3677.29 3.8703e-17
3681.36 3.601e-17
3685.44 3.9375e-17
3689.51 3.8657e-17
3693.59 3.5357e-17
3697.66 3.6793e-17
3701.73 3.7187e-17
3705.81 4.0825e-17
3709.88 3.6724e-17
3713.96 3.7001e-17
3718.03 4.1343e-17
3722.1 3.5728e-17
3726.18 3.6555e-17
3730.25 4.216e-17
3734.33 4.176e-17
3738.4 3.9345e-17
3742.48 4.6191e-17
3746.55 6.7023e-17
3750.62 7.9519e-17
3754.7 7.3867e-17
3758.77 8.1128e-17
3762.85 6.7458e-17
3766.92 4.8759e-17
3771.0 4.4112e-17
3775.07 4.1877e-17
3779.14 3.6445e-17
3783.22 4.269e-17
3787.29 4.1221e-17
3791.37 3.3369e-17
3795.44 3.4769e-17
3799.51 3.641e-17
3803.59 3.4207e-17
3807.66 3.186e-17
3811.74 3.7787e-17
3815.81 3.7618e-17
3819.89 3.7049e-17
3823.96 4.1979e-17
3828.03 3.9305e-17
3832.11 3.5702e-17
3836.18 3.9361e-17
3840.26 3.9574e-17
3844.33 4.0276e-17
3848.4 3.3451e-17
3852.48 3.4909e-17
3856.55 3.309e-17
3860.63 3.1705e-17
3864.7 3.1236e-17
3868.78 3.3623e-17
3872.85 3.539e-17
3876.92 3.9005e-17
3881.0 3.9854e-17
3885.07 4.2514e-17
3889.15 4.3185e-17
3893.22 4.8576e-17
3897.3 4.7752e-17
3901.37 4.3277e-17
3905.44 4.3342e-17
3909.52 4.0798e-17
3913.59 4.3406e-17
3917.67 4.3458e-17
3921.74 4.9313e-17
3925.81 5.3685e-17
3929.89 5.1223e-17
3933.96 5.1392e-17
3938.04 4.9041e-17
3942.11 5.5651e-17
3946.19 5.6742e-17
3950.26 5.3603e-17
3954.33 5.701e-17
3958.41 6.8586e-17
3962.48 6.9341e-17
3966.56 6.7509e-17
3970.63 6.585e-17
3974.7 6.8205e-17
3978.78 7.8668e-17
3982.85 7.9476e-17
3986.93 7.6587e-17
3991.0 7.4331e-17
3995.08 6.8916e-17
3999.15 7.3678e-17
4003.22 7.48e-17
4007.3 7.1173e-17
4011.37 6.4732e-17
4015.45 5.2178e-17
4019.52 6.8787e-17
4023.6 7.1605e-17
4027.67 6.9522e-17
4031.74 7.2251e-17
4035.82 7.2725e-17
4039.89 7.2252e-17
4043.97 6.8591e-17
4048.04 5.6177e-17
4052.11 4.7637e-17
4056.19 4.6181e-17
4060.26 4.4136e-17
4064.34 4.3882e-17
4068.41 4.1922e-17
4072.49 4.2429e-17
4076.56 5.0575e-17
4080.63 5.0145e-17
4084.71 5.3059e-17
4088.78 6.4734e-17
4092.86 6.9233e-17
4096.93 7.7313e-17
4101.0 8.9143e-17
4105.08 9.1684e-17
4109.15 9.7541e-17
4113.23 9.6983e-17
4117.3 9.8936e-17
4121.38 1.0501e-16
4125.45 9.8912e-17
4129.52 9.4483e-17
4133.6 9.7521e-17
4137.67 9.4621e-17
4141.75 8.7052e-17
4145.82 8.4248e-17
4149.89 8.3051e-17
4153.97 8.238e-17
4158.04 8.3927e-17
4162.12 8.5171e-17
4166.19 9.0131e-17
4170.27 9.5214e-17
4174.34 9.6166e-17
4178.41 8.6723e-17
4182.49 7.9958e-17
4186.56 7.9551e-17
4190.64 7.7497e-17
4194.71 7.0038e-17
4198.79 6.8986e-17
4202.86 6.4788e-17
4206.93 5.6258e-17
4211.01 6.7258e-17
4215.08 6.7145e-17
4219.16 6.9704e-17
4223.23 7.0091e-17
4227.3 7.4935e-17
4231.38 7.9515e-17
4235.45 8.1877e-17
4239.53 8.1595e-17
4243.6 8.021e-17
4247.68 7.453e-17
4251.75 7.6981e-17
4255.82 7.298e-17
4259.9 6.4529e-17
4263.97 6.0649e-17
4268.05 5.8173e-17
4272.12 4.8763e-17
4276.19 4.8996e-17
4280.27 4.8807e-17
4284.34 4.3197e-17
4288.42 4.2033e-17
4292.49 3.9283e-17
4296.57 3.6883e-17
4300.64 3.6017e-17
4304.71 3.6735e-17
4308.79 3.9052e-17
4312.86 4.0643e-17
4316.94 4.728e-17
4321.01 5.5912e-17
4325.09 5.8603e-17
4329.16 6.3064e-17
4333.23 6.9231e-17
4337.31 7.9191e-17
4341.38 7.8623e-17
4345.46 7.6807e-17
4349.53 7.887e-17
4353.6 7.8231e-17
4357.68 7.5217e-17
4361.75 7.0799e-17
4365.83 7.4354e-17
4369.9 7.8298e-17
4373.98 7.4734e-17
4378.05 7.4868e-17
4382.12 6.988e-17
4386.2 6.6598e-17
4390.27 7.3621e-17
4394.35 8.0373e-17
4398.42 7.6884e-17
4402.49 7.6252e-17
4406.57 8.2554e-17
4410.64 8.4569e-17
4414.72 7.8853e-17
4418.79 7.609e-17
4422.87 7.2862e-17
4426.94 7.1626e-17
4431.01 7.0583e-17
4435.09 7.4027e-17
4439.16 7.5469e-17
4443.24 7.3388e-17
4447.31 6.8604e-17
4451.39 6.9506e-17
4455.46 7.3652e-17
4459.53 7.7693e-17
4463.61 8.1775e-17
4467.68 8.7767e-17
4471.76 8.0076e-17
4475.83 7.5788e-17
4479.9 7.1998e-17
4483.98 6.5868e-17
4488.05 7.2055e-17
4492.13 6.8297e-17
4496.2 6.1035e-17
4500.28 6.0676e-17
4504.35 6.1588e-17
4508.42 5.7321e-17
4512.5 5.5847e-17
4516.57 5.2732e-17
4520.65 5.4646e-17
4524.72 6.0198e-17
4528.79 5.7038e-17
4532.87 5.107e-17
4536.94 5.6676e-17
4541.02 6.0392e-17
4545.09 6.6198e-17
4549.17 6.9088e-17
4553.24 6.8777e-17
4557.31 7.5921e-17
4561.39 7.7358e-17
4565.46 8.1865e-17
4569.54 9.4416e-17
4573.61 1.0591e-16
4577.69 1.1739e-16
4581.76 1.2316e-16
4585.83 1.2332e-16
4589.91 1.2873e-16
4593.98 1.4123e-16
4598.06 1.4395e-16
4602.13 1.4093e-16
4606.2 1.4573e-16
4610.28 1.3945e-16
4614.35 1.435e-16
4618.43 1.4612e-16
4622.5 1.4483e-16
4626.58 1.4879e-16
4630.65 1.4804e-16
4634.72 1.445e-16
4638.8 1.4361e-16
4642.87 1.4454e-16
4646.95 1.4634e-16
4651.02 1.5419e-16
4655.09 1.5122e-16
4659.17 1.4976e-16
4663.24 1.5346e-16
4667.32 1.5446e-16
4671.39 1.6068e-16
4675.47 1.6198e-16
4679.54 1.6308e-16
4683.61 1.6401e-16
4687.69 1.6342e-16
4691.76 1.6238e-16
4695.84 1.6017e-16
4699.91 1.5961e-16
4703.99 1.5638e-16
4708.06 1.5227e-16
4712.13 1.5705e-16
4716.21 1.5276e-16
4720.28 1.5422e-16
4724.36 1.5801e-16
4728.43 1.5976e-16
4732.5 1.6037e-16
4736.58 1.5793e-16
4740.65 1.5587e-16
4744.73 1.5157e-16
4748.8 1.5252e-16
4752.88 1.4863e-16
4756.95 1.4058e-16
4761.02 1.3007e-16
4765.1 1.1721e-16
4769.17 1.0111e-16
4773.25 8.8143e-17
4777.32 7.2262e-17
4781.39 5.9544e-17
4785.47 4.8592e-17
4789.54 3.7015e-17
4793.62 3.2894e-17
4797.69 3.3349e-17
4801.77 3.3657e-17
4805.84 3.4775e-17
4809.91 2.9305e-17
4813.99 2.8237e-17
4818.06 2.7474e-17
4822.14 2.6312e-17
4826.21 3.5821e-17
4830.29 4.5317e-17
4834.36 5.5028e-17
4838.43 7.3104e-17
4842.51 1.0095e-16
4846.58 1.3125e-16
4850.66 1.5851e-16
4854.73 1.7595e-16
4858.8 1.8245e-16
4862.88 1.8634e-16
4866.95 1.9187e-16
4871.03 1.9345e-16
4875.1 1.9716e-16
4879.18 1.9359e-16
4883.25 1.8726e-16
4887.32 1.87e-16
4891.4 1.7892e-16
4895.47 1.6525e-16
4899.55 1.7041e-16
4903.62 1.6815e-16
4907.69 1.5397e-16
4911.77 1.5472e-16
4915.84 1.7103e-16
4919.92 1.8533e-16
4923.99 1.8324e-16
4928.07 1.8762e-16
4932.14 2.0362e-16
4936.21 2.0966e-16
4940.29 2.1626e-16
4944.36 2.1982e-16
4948.44 2.0982e-16
4952.51 2.0817e-16
4956.59 2.0698e-16
4960.66 1.933e-16
4964.73 1.7875e-16
4968.81 1.6503e-16
4972.88 1.4615e-16
4976.96 1.2764e-16
4981.03 1.1749e-16
4985.1 1.1232e-16
4989.18 1.0705e-16
4993.25 1.0215e-16
4997.33 1.0213e-16
5001.4 1.1483e-16
5005.48 1.2536e-16
5009.55 1.3874e-16
5013.62 1.5516e-16
5017.7 1.6712e-16
5021.77 1.7347e-16
5025.85 1.8778e-16
5029.92 2.0198e-16
5033.99 2.1474e-16
5038.07 2.2098e-16
5042.14 2.2512e-16
5046.22 2.2563e-16
5050.29 2.207e-16
5054.37 2.1484e-16
5058.44 1.9279e-16
5062.51 1.9479e-16
5066.59 2.038e-16
5070.66 1.9995e-16
5074.74 1.9387e-16
5078.81 1.8978e-16
5082.89 1.7816e-16
5086.96 1.7125e-16
5091.03 1.6447e-16
5095.11 1.6062e-16
5099.18 1.5345e-16
5103.26 1.4786e-16
5107.33 1.4084e-16
5111.4 1.2616e-16
5115.48 1.1948e-16
5119.55 1.1492e-16
5123.63 1.0196e-16
5127.7 9.1198e-17
5131.78 8.7596e-17
5135.85 8.3328e-17
5139.92 8.2593e-17
5144.0 8.4716e-17
5148.07 8.4135e-17
5152.15 8.9422e-17
5156.22 9.3389e-17
5160.29 9.7391e-17
5164.37 1.0071e-16
5168.44 1.0455e-16
5172.52 1.0805e-16
5176.59 1.1679e-16
5180.67 1.277e-16
5184.74 1.2919e-16
5188.81 1.2493e-16
5192.89 1.319e-16
5196.96 1.3471e-16
5201.04 1.3606e-16
5205.11 1.3583e-16
5209.19 1.3432e-16
5213.26 1.3989e-16
5217.33 1.4768e-16
5221.41 1.527e-16
5225.48 1.5728e-16
5229.56 1.6297e-16
5233.63 1.6581e-16
5237.7 1.6128e-16
5241.78 1.5809e-16
5245.85 1.5794e-16
5249.93 1.5648e-16
5254.0 1.525e-16
5258.08 1.4695e-16
5262.15 1.445e-16
5266.22 1.471e-16
5270.3 1.5382e-16
5274.37 1.5484e-16
5278.45 1.5626e-16
5282.52 1.5398e-16
5286.59 1.5408e-16
5290.67 1.5775e-16
5294.74 1.6257e-16
5298.82 1.5936e-16
5302.89 1.6252e-16
5306.97 1.6474e-16
5311.04 1.6463e-16
5315.11 1.6351e-16
5319.19 1.6114e-16
5323.26 1.6656e-16
5327.34 1.6905e-16
5331.41 1.7422e-16
5335.49 1.7561e-16
5339.56 1.7813e-16
5343.63 1.7802e-16
5347.71 1.7889e-16
5351.78 1.8106e-16
5355.86 1.8208e-16
5359.93 1.8625e-16
5364.0 1.8347e-16
5368.08 1.8104e-16
5372.15 1.8356e-16
5376.23 1.772e-16
5380.3 1.7833e-16
5384.38 1.7962e-16
5388.45 1.7874e-16
5392.52 1.7725e-16
5396.6 1.7604e-16
5400.67 1.713e-16
5404.75 1.6794e-16
5408.82 1.6965e-16
5412.89 1.678e-16
5416.97 1.6981e-16
5421.04 1.7519e-16
5425.12 1.8005e-16
5429.19 1.8468e-16
5433.27 1.8182e-16
5437.34 1.7723e-16
5441.41 1.856e-16
5445.49 1.8879e-16
5449.56 1.8844e-16
5453.64 1.9805e-16
5457.71 2.0413e-16
5461.79 2.0845e-16
5465.86 2.1295e-16
5469.93 2.1264e-16
5474.01 2.17e-16
5478.08 2.1538e-16
5482.16 2.1687e-16
5486.23 2.1201e-16
5490.3 2.0748e-16
5494.38 2.0444e-16
5498.45 2.0053e-16
5502.53 1.9441e-16
5506.6 1.9028e-16
5510.68 1.9196e-16
5514.75 1.9205e-16
5518.82 1.9339e-16
5522.9 1.946e-16
5526.97 2.0183e-16
5531.05 2.1084e-16
5535.12 2.1237e-16
5539.19 2.2287e-16
5543.27 2.3791e-16
5547.34 2.4203e-16
5551.42 2.4832e-16
5555.49 2.4326e-16
5559.57 2.2364e-16
5563.64 2.4486e-16
5567.71 2.6412e-16
5571.79 2.6601e-16
5575.86 2.586e-16
5579.94 2.3971e-16
5584.01 2.2735e-16
5588.09 2.1867e-16
5592.16 2.1638e-16
5596.23 2.1976e-16
5600.31 2.1792e-16
5604.38 2.1231e-16
5608.46 2.1185e-16
5612.53 2.121e-16
5616.6 2.1278e-16
5620.68 2.1237e-16
5624.75 2.056e-16
5628.83 2.0328e-16
5632.9 2.0579e-16
5636.98 1.9422e-16
5641.05 1.8943e-16
5645.12 1.9069e-16
5649.2 1.8118e-16
5653.27 1.7459e-16
5657.35 1.7235e-16
5661.42 1.6746e-16
5665.49 1.6651e-16
5669.57 1.6892e-16
5673.64 1.6966e-16
5677.72 1.7091e-16
5681.79 1.714e-16
5685.87 1.7696e-16
5689.94 1.8448e-16
5694.01 1.8762e-16
5698.09 1.9055e-16
5702.16 1.8736e-16
5706.24 1.8992e-16
5710.31 1.9381e-16
5714.39 1.9043e-16
5718.46 1.8546e-16
5722.53 1.8739e-16
5726.61 1.9024e-16
5730.68 1.9159e-16
5734.76 1.8669e-16
5738.83 1.886e-16
5742.9 1.8769e-16
5746.98 1.7767e-16
5751.05 1.7306e-16
5755.13 1.6577e-16
5759.2 1.5631e-16
5763.28 1.4646e-16
5767.35 1.3185e-16
5771.42 1.1974e-16
5775.5 1.0481e-16
5779.57 9.2431e-17
5783.65 8.1943e-17
5787.72 6.6647e-17
5791.79 5.6559e-17
5795.87 4.6416e-17
5799.94 4.1212e-17
5804.02 3.8832e-17
5808.09 4.0939e-17
5812.17 4.2209e-17
5816.24 4.7274e-17
5820.31 4.8262e-17
5824.39 4.8733e-17
5828.46 5.5117e-17
5832.54 5.6245e-17
5836.61 5.7748e-17
5840.69 6.3519e-17
5844.76 7.1211e-17
5848.83 7.6838e-17
5852.91 8.0114e-17
5856.98 8.6314e-17
5861.06 9.9171e-17
5865.13 1.1088e-16
5869.2 1.2032e-16
5873.28 1.3461e-16
5877.35 1.4622e-16
5881.43 1.6761e-16
5885.5 1.9016e-16
5889.58 2.0349e-16
5893.65 2.1585e-16
5897.72 2.3185e-16
5901.8 2.509e-16
5905.87 2.7625e-16
5909.95 3.0893e-16
5914.02 3.2954e-16
5918.09 3.439e-16
5922.17 3.5523e-16
5926.24 3.5492e-16
5930.32 3.5229e-16
5934.39 3.5004e-16
5938.47 3.4117e-16
5942.54 3.3601e-16
5946.61 3.3432e-16
5950.69 3.3224e-16
5954.76 3.2373e-16
5958.84 3.1122e-16
5962.91 3.0379e-16
5966.99 2.973e-16
5971.06 2.9209e-16
5975.13 2.82e-16
5979.21 2.7955e-16
5983.28 2.8077e-16
5987.36 2.7822e-16
5991.43 2.7857e-16
5995.5 2.7806e-16
5999.58 2.7179e-16
6003.65 2.7151e-16
6007.73 2.761e-16
6011.8 2.7953e-16
6015.88 2.7896e-16
6019.95 2.734e-16
6024.02 2.6866e-16
6028.1 2.6831e-16
6032.17 2.6455e-16
6036.25 2.5769e-16
6040.32 2.4922e-16
6044.39 2.4276e-16
6048.47 2.3658e-16
6052.54 2.345e-16
6056.62 2.304e-16
6060.69 2.2784e-16
6064.77 2.2615e-16
6068.84 2.2004e-16
6072.91 2.1119e-16
6076.99 2.0163e-16
6081.06 1.9778e-16
6085.14 1.9768e-16
6089.21 1.9775e-16
6093.29 1.9699e-16
6097.36 1.8957e-16
6101.43 1.8577e-16
6105.51 1.8623e-16
6109.58 1.8782e-16
6113.66 1.8739e-16
6117.73 1.8867e-16
6121.8 1.8901e-16
6125.88 1.9035e-16
6129.95 1.9362e-16
6134.03 1.9068e-16
6138.1 1.9051e-16
6142.18 1.9531e-16
6146.25 1.9945e-16
6150.32 2.0387e-16
6154.4 2.0515e-16
6158.47 2.023e-16
6162.55 2.0805e-16
6166.62 2.1543e-16
6170.69 2.2189e-16
6174.77 2.2041e-16
6178.84 2.2381e-16
6182.92 2.3362e-16
6186.99 2.4356e-16
6191.07 2.4599e-16
6195.14 2.4154e-16
6199.21 2.3802e-16
6203.29 2.3337e-16
6207.36 2.3034e-16
6211.44 2.2832e-16
6215.51 2.2362e-16
6219.59 2.1994e-16
6223.66 2.1544e-16
6227.73 2.0486e-16
6231.81 2.0451e-16
6235.88 2.0382e-16
6239.96 2.0627e-16
6244.03 2.0084e-16
6248.1 1.9979e-16
6252.18 1.9962e-16
6256.25 2.0326e-16
6260.33 2.0633e-16
6264.4 2.0877e-16
6268.48 2.1383e-16
6272.55 2.2003e-16
6276.62 2.2608e-16
6280.7 2.3109e-16
6284.77 2.3887e-16
6288.85 2.4341e-16
6292.92 2.4904e-16
6296.99 2.4995e-16
6301.07 2.4612e-16
6305.14 2.4528e-16
6309.22 2.4058e-16
6313.29 2.4208e-16
6317.37 2.4782e-16
6321.44 2.5138e-16
6325.51 2.5347e-16
6329.59 2.5067e-16
6333.66 2.4983e-16
6337.74 2.5374e-16
6341.81 2.5225e-16
6345.89 2.5177e-16
6349.96 2.5436e-16
6354.03 2.5489e-16
6358.11 2.5364e-16
6362.18 2.4873e-16
6366.26 2.4756e-16
6370.33 2.4434e-16
6374.4 2.42e-16
6378.48 2.443e-16
6382.55 2.4373e-16
6386.63 2.4173e-16
6390.7 2.369e-16
6394.78 2.3087e-16
6398.85 2.2481e-16
6402.92 2.1274e-16
6407.0 1.9641e-16
6411.07 1.8289e-16
6415.15 1.6476e-16
6419.22 1.4296e-16
6423.29 1.227e-16
6427.37 9.8672e-17
6431.44 7.4832e-17
6435.52 5.934e-17
6439.59 4.7135e-17
6443.67 3.8465e-17
6447.74 3.6943e-17
6451.81 3.8764e-17
6455.89 4.0346e-17
6459.96 3.9889e-17
6464.04 4.518e-17
6468.11 5.2819e-17
6472.18 5.7888e-17
6476.26 6.0574e-17
6480.33 7.3778e-17
6484.41 8.3984e-17
6488.48 9.4407e-17
6492.56 1.0885e-16
6496.63 1.2312e-16
6500.7 1.2916e-16
6504.78 1.5599e-16
6508.85 1.9014e-16
6512.93 2.2797e-16
6517.0 2.7194e-16
6521.08 3.2653e-16
6525.15 3.9304e-16
6529.22 4.7399e-16
6533.3 5.7476e-16
6537.37 6.7968e-16
6541.45 7.8324e-16
6545.52 8.8335e-16
6549.59 9.703e-16
6553.67 1.048e-15
6557.74 1.1127e-15
6561.82 1.1727e-15
6565.89 1.2335e-15
6569.97 1.2659e-15
6574.04 1.2792e-15
6578.11 1.2903e-15
6582.19 1.2917e-15
6586.26 1.2791e-15
6590.34 1.244e-15
6594.41 1.202e-15
6598.48 1.1932e-15
6602.56 1.184e-15
6606.63 1.1251e-15
6610.71 1.049e-15
6614.78 9.7316e-16
6618.86 8.9095e-16
6622.93 8.0145e-16
6627.0 7.4098e-16
6631.08 7.0499e-16
6635.15 6.6421e-16
6639.23 6.147e-16
6643.3 5.6367e-16
6647.38 5.2255e-16
6651.45 4.9299e-16
6655.52 4.6612e-16
6659.6 4.4451e-16
6663.67 4.2653e-16
6667.75 4.04e-16
6671.82 3.8042e-16
6675.89 3.6293e-16
6679.97 3.5019e-16
6684.04 3.3787e-16
6688.12 3.2184e-16
6692.19 3.0856e-16
6696.27 2.976e-16
6700.34 2.9089e-16
6704.41 2.86e-16
6708.49 2.7819e-16
6712.56 2.7017e-16
6716.64 2.6448e-16
6720.71 2.5874e-16
6724.78 2.5043e-16
6728.86 2.4315e-16
6732.93 2.3725e-16
6737.01 2.2818e-16
6741.08 2.2233e-16
6745.16 2.1547e-16
6749.23 2.1623e-16
6753.3 2.1714e-16
6757.38 2.1782e-16
6761.45 2.1965e-16
6765.53 2.1742e-16
6769.6 2.1408e-16
6773.68 2.0768e-16
6777.75 1.9855e-16
6781.82 1.9489e-16
6785.9 1.9107e-16
6789.97 1.8334e-16
6794.05 1.784e-16
6798.12 1.7883e-16
6802.19 1.8072e-16
6806.27 1.7896e-16
6810.34 1.7356e-16
6814.42 1.7332e-16
6818.49 1.7769e-16
6822.57 1.7945e-16
6826.64 1.7549e-16
6830.71 1.7132e-16
6834.79 1.7315e-16
6838.86 1.7711e-16
6842.94 1.7753e-16
6847.01 1.7623e-16
6851.08 1.7616e-16
6855.16 1.7558e-16
6859.23 1.7401e-16
6863.31 1.6966e-16
6867.38 1.6927e-16
6871.46 1.7068e-16
6875.53 1.7454e-16
6879.6 1.7347e-16
6883.68 1.6889e-16
6887.75 1.6792e-16
6891.83 1.6623e-16
6895.9 1.6692e-16
6899.98 1.6575e-16
6904.05 1.6701e-16
6908.12 1.6418e-16
6912.2 1.5926e-16
6916.27 1.5698e-16
6920.35 1.5892e-16
6924.42 1.5766e-16
6928.49 1.5453e-16
6932.57 1.5288e-16
6936.64 1.5193e-16
6940.72 1.502e-16
6944.79 1.4697e-16
6948.87 1.4514e-16
6952.94 1.4653e-16
6957.01 1.4818e-16
6961.09 1.5204e-16
6965.16 1.5635e-16
6969.24 1.5932e-16
6973.31 1.5936e-16
6977.38 1.5843e-16
6981.46 1.5787e-16
6985.53 1.5459e-16
6989.61 1.5061e-16
6993.68 1.5258e-16
6997.76 1.5763e-16
7001.83 1.576e-16
7005.9 1.5227e-16
7009.98 1.5311e-16
7014.05 1.6168e-16
7018.13 1.5856e-16
7022.2 1.5877e-16
7026.28 1.6291e-16
7030.35 1.6569e-16
7034.42 1.723e-16
7038.5 1.7691e-16
7042.57 1.8266e-16
7046.65 1.9303e-16
7050.72 1.9968e-16
7054.79 1.986e-16
7058.87 1.9548e-16
7062.94 1.9334e-16
7067.02 1.9486e-16
7071.09 1.9693e-16
7075.17 1.9947e-16
7079.24 2.052e-16
7083.31 2.101e-16
7087.39 2.1176e-16
7091.46 2.1663e-16
7095.54 2.2636e-16
7099.61 2.2762e-16
7103.68 2.2421e-16
7107.76 2.2301e-16
7111.83 2.1897e-16
7115.91 2.2031e-16
7119.98 2.1775e-16
7124.06 2.1478e-16
7128.13 2.1467e-16
7132.2 2.1145e-16
7136.28 2.0805e-16
7140.35 2.0294e-16
7144.43 1.9807e-16
7148.5 2.0134e-16
7152.58 2.0537e-16
7156.65 2.0548e-16
7160.72 2.0136e-16
7164.8 2.0054e-16
7168.87 2.0073e-16
7172.95 2.0367e-16
7177.02 2.0379e-16
7181.09 2.0204e-16
7185.17 1.9975e-16
7189.24 1.9557e-16
7193.32 1.9454e-16
7197.39 1.9321e-16
7201.47 1.8902e-16
7205.54 1.8949e-16
7209.61 1.9104e-16
7213.69 1.9347e-16
7217.76 1.9277e-16
7221.84 1.8527e-16
7225.91 1.852e-16
7229.98 1.8667e-16
7234.06 1.8503e-16
7238.13 1.8309e-16
7242.21 1.8269e-16
7246.28 1.8818e-16
7250.36 1.9151e-16
7254.43 1.9772e-16
7258.5 2.0589e-16
7262.58 2.224e-16
7266.65 2.3751e-16
7270.73 2.4483e-16
7274.8 2.4417e-16
7278.88 2.5438e-16
7282.95 2.6838e-16
7287.02 2.7613e-16
7291.1 2.8268e-16
7295.17 2.8949e-16
7299.25 3.0238e-16
7303.32 3.2033e-16
7307.39 3.3475e-16
7311.47 3.5589e-16
7315.54 3.6928e-16
7319.62 3.7593e-16
7323.69 3.6516e-16
7327.77 3.548e-16
7331.84 3.5375e-16
7335.91 3.6024e-16
7339.99 3.6453e-16
7344.06 3.5931e-16
7348.14 3.6289e-16
7352.21 3.6563e-16
7356.28 3.6586e-16
7360.36 3.5411e-16
7364.43 3.381e-16
7368.51 3.2768e-16
7372.58 3.2514e-16
7376.66 3.2075e-16
7380.73 3.1261e-16
7384.8 2.9823e-16
7388.88 2.8441e-16
7392.95 2.7826e-16
7397.03 2.6762e-16
7401.1 2.5406e-16
7405.18 2.4614e-16
7409.25 2.403e-16
7413.32 2.3165e-16
7417.4 2.2481e-16
7421.47 2.2229e-16
7425.55 2.1664e-16
7429.62 2.1101e-16
7433.69 2.084e-16
7437.77 2.062e-16
7441.84 2.0383e-16
7445.92 2.0057e-16
7449.99 2.0049e-16
7454.07 2.0086e-16
7458.14 2.0591e-16
7462.21 2.0695e-16
7466.29 2.0243e-16
7470.36 2.0234e-16
7474.44 2.0703e-16
7478.51 2.0631e-16
7482.58 2.0088e-16
7486.66 1.9986e-16
7490.73 2.0251e-16
7494.81 2.0411e-16
7498.88 2.0529e-16
7502.96 1.9958e-16
7507.03 1.9668e-16
7511.1 1.8449e-16
7515.18 1.8549e-16
7519.25 1.8665e-16
7523.33 1.8495e-16
7527.4 1.8281e-16
7531.48 1.794e-16
7535.55 1.7586e-16
7539.62 1.7381e-16
7543.7 1.7082e-16
7547.77 1.6574e-16
7551.85 1.629e-16
7555.92 1.6297e-16
7559.99 1.6171e-16
7564.07 1.5996e-16
7568.14 1.572e-16
7572.22 1.526e-16
7576.29 1.4902e-16
7580.37 1.4232e-16
7584.44 1.3189e-16
7588.51 1.2058e-16
7592.59 1.0564e-16
7596.66 8.9426e-17
7600.74 7.0547e-17
7604.81 5.3238e-17
7608.88 5.1759e-17
7612.96 5.5196e-17
7617.03 5.9541e-17
7621.11 6.0972e-17
7625.18 5.6851e-17
7629.26 5.1951e-17
7633.33 5.231e-17
7637.4 5.7961e-17
7641.48 6.209e-17
7645.55 6.6094e-17
7649.63 7.3047e-17
7653.7 7.9313e-17
7657.78 8.4359e-17
7661.85 8.9664e-17
7665.92 9.5985e-17
7670.0 1.0167e-16
7674.07 1.0703e-16
7678.15 1.1684e-16
7682.22 1.268e-16
7686.29 1.3531e-16
7690.37 1.4544e-16
7694.44 1.5481e-16
7698.52 1.6546e-16
7702.59 1.7596e-16
7706.67 1.8712e-16
7710.74 1.9553e-16
7714.81 2.0199e-16
7718.89 2.0515e-16
7722.96 2.0785e-16
7727.04 2.082e-16
7731.11 2.0553e-16
7735.18 2.0688e-16
7739.26 2.0756e-16
7743.33 2.0459e-16
7747.41 2.0429e-16
7751.48 2.016e-16
7755.56 1.9825e-16
7759.63 1.975e-16
7763.7 1.9747e-16
7767.78 1.9335e-16
7771.85 1.8691e-16
7775.93 1.85e-16
7780.0 1.836e-16
7784.08 1.8078e-16
7788.15 1.8096e-16
7792.22 1.8044e-16
7796.3 1.8041e-16
7800.37 1.8455e-16
7804.45 1.8652e-16
7808.52 1.8901e-16
7812.59 1.9432e-16
7816.67 1.9382e-16
7820.74 1.9262e-16
7824.82 1.9149e-16
7828.89 1.846e-16
7832.97 1.7936e-16
7837.04 1.7597e-16
7841.11 1.7653e-16
7845.19 1.7309e-16
7849.26 1.6263e-16
7853.34 1.5761e-16
7857.41 1.5419e-16
7861.48 1.4824e-16
7865.56 1.447e-16
7869.63 1.4551e-16
7873.71 1.4908e-16
7877.78 1.4605e-16
7881.86 1.4242e-16
7885.93 1.4409e-16
7890.0 1.3857e-16
7894.08 1.3122e-16
7898.15 1.3154e-16
7902.23 1.3349e-16
7906.3 1.3487e-16
7910.38 1.3517e-16
7914.45 1.3327e-16
7918.52 1.3233e-16
7922.6 1.317e-16
7926.67 1.2481e-16
7930.75 1.2319e-16
7934.82 1.2646e-16
7938.89 1.2959e-16
7942.97 1.3099e-16
7947.04 1.3095e-16
7951.12 1.2905e-16
7955.19 1.2887e-16
7959.27 1.2815e-16
7963.34 1.2973e-16
7967.41 1.3203e-16
7971.49 1.2892e-16
7975.56 1.3313e-16
7979.64 1.4076e-16
7983.71 1.4219e-16
7987.78 1.4057e-16
7991.86 1.3794e-16
7995.93 1.3627e-16
8000.01 1.3364e-16
8004.08 1.3336e-16
8008.16 1.3931e-16
8012.23 1.3912e-16
8016.3 1.3506e-16
8020.38 1.3576e-16
8024.45 1.3581e-16
8028.53 1.3489e-16
8032.6 1.3366e-16
8036.68 1.3322e-16
8040.75 1.3562e-16
8044.82 1.3567e-16
8048.9 1.3729e-16
8052.97 1.3723e-16
8057.05 1.3839e-16
8061.12 1.3715e-16
8065.19 1.3506e-16
8069.27 1.3183e-16
8073.34 1.319e-16
8077.42 1.3523e-16
8081.49 1.3851e-16
8085.57 1.3776e-16
8089.64 1.3611e-16
8093.71 1.3495e-16
8097.79 1.3086e-16
8101.86 1.2813e-16
8105.94 1.2839e-16
8110.01 1.2675e-16
8114.08 1.2469e-16
8118.16 1.2478e-16
8122.23 1.2514e-16
8126.31 1.2306e-16
8130.38 1.1934e-16
8134.46 1.1662e-16
8138.53 1.1236e-16
8142.6 1.0704e-16
8146.68 1.0492e-16
8150.75 1.0159e-16
8154.83 9.7143e-17
8158.9 9.5714e-17
8162.98 9.14e-17
8167.05 8.3514e-17
8171.12 8.2115e-17
8175.2 8.4342e-17
8179.27 8.3247e-17
8183.35 8.4264e-17
8187.42 8.8094e-17
8191.49 9.0365e-17
8195.57 9.3002e-17
8199.64 9.9584e-17
8203.72 1.063e-16
8207.79 1.1154e-16
8211.87 1.17e-16
8215.94 1.1984e-16
8220.01 1.1974e-16
8224.09 1.2031e-16
8228.16 1.0748e-16
8232.24 7.2483e-17
8236.31 7.7824e-17
8240.38 1.331e-16
8244.46 1.3868e-16
8248.53 1.3771e-16
8252.61 1.3697e-16
8256.68 1.3513e-16
8260.76 1.3012e-16
8264.83 1.2909e-16
8268.9 1.3258e-16
8272.98 1.3459e-16
8277.05 1.3179e-16
8281.13 1.3045e-16
8285.2 1.255e-16
8289.28 1.2414e-16
8293.35 1.2274e-16
8297.42 1.1861e-16
8301.5 1.202e-16
8305.57 1.1937e-16
8309.65 1.1733e-16
8313.72 1.1868e-16
8317.79 1.1964e-16
8321.87 1.1839e-16
8325.94 1.184e-16
8330.02 1.2153e-16
8334.09 1.2211e-16
8338.17 1.2032e-16
8342.24 1.2288e-16
8346.31 1.266e-16
8350.39 1.2203e-16
8354.46 1.1909e-16
8358.54 1.255e-16
8362.61 1.3042e-16
8366.68 1.3278e-16
8370.76 1.3656e-16
8374.83 1.37e-16
8378.91 1.3398e-16
8382.98 1.279e-16
8387.06 1.2102e-16
8391.13 1.1509e-16
8395.2 1.0983e-16
8399.28 1.0082e-16
8403.35 9.4996e-17
8407.43 9.1865e-17
8411.5 8.966e-17
8415.58 9.4521e-17
8419.65 1.0015e-16
8423.72 9.8787e-17
8427.8 9.1878e-17
8431.87 8.3899e-17
8435.95 7.7063e-17
8440.02 7.2451e-17
8444.09 7.2804e-17
8448.17 7.2896e-17
8452.24 6.9456e-17
8456.32 6.8188e-17
8460.39 6.5934e-17
8464.47 6.5049e-17
8468.54 6.9114e-17
8472.61 7.361e-17
8476.69 7.3187e-17
8480.76 8.1765e-17
8484.84 9.111e-17
8488.91 1.0076e-16
8492.98 1.1248e-16
8497.06 1.2376e-16
8501.13 1.386e-16
8505.21 1.5659e-16
8509.28 1.7712e-16
8513.36 2.0045e-16
8517.43 2.2833e-16
8521.5 2.5774e-16
8525.58 2.8583e-16
8529.65 3.0836e-16
8533.73 3.3278e-16
8537.8 3.5193e-16
8541.88 3.6327e-16
8545.95 3.7164e-16
8550.02 3.7439e-16
8554.1 3.7281e-16
8558.17 3.6177e-16
8562.25 3.4821e-16
8566.32 3.3208e-16
8570.39 3.0425e-16
8574.47 2.7089e-16
8578.54 2.4219e-16
8582.62 2.1743e-16
8586.69 1.9456e-16
8590.77 1.7769e-16
8594.84 1.6222e-16
8598.91 1.5294e-16
8602.99 1.5354e-16
8607.06 1.5338e-16
8611.14 1.5154e-16
8615.21 1.5613e-16
8619.28 1.6526e-16
8623.36 1.6269e-16
8627.43 1.5794e-16
8631.51 1.8045e-16
8635.58 2.1356e-16
8639.66 2.3639e-16
8643.73 2.6064e-16
8647.8 2.8293e-16
8651.88 2.9603e-16
8655.95 3.0254e-16
8660.03 3.0582e-16
8664.1 3.1018e-16
8668.18 3.1476e-16
8672.25 3.252e-16
8676.32 3.3662e-16
8680.4 3.4704e-16
8684.47 3.6524e-16
8688.55 3.7452e-16
8692.62 3.7252e-16
8696.69 3.7435e-16
8700.77 3.7716e-16
8704.84 3.7065e-16
8708.92 3.6248e-16
8712.99 3.6533e-16
8717.07 3.6254e-16
8721.14 3.5537e-16
8725.21 3.5314e-16
8729.29 3.5202e-16
8733.36 3.4924e-16
8737.44 3.4791e-16
8741.51 3.425e-16
8745.58 3.3063e-16
8749.66 3.1957e-16
8753.73 3.1374e-16
8757.81 3.097e-16
8761.88 3.0121e-16
8765.96 2.9006e-16
8770.03 2.84e-16
8774.1 2.7929e-16
8778.18 2.7274e-16
8782.25 2.6938e-16
8786.33 2.6295e-16
8790.4 2.5239e-16
8794.48 2.3713e-16
8798.55 2.2037e-16
8802.62 2.1406e-16
8806.7 2.0873e-16
8810.77 2.0197e-16
8814.85 1.9922e-16
8818.92 1.9547e-16
8822.99 1.8726e-16
8827.07 1.8208e-16
8831.14 1.8946e-16
8835.22 1.85e-16
8839.29 1.6933e-16
8843.37 1.5784e-16
8847.44 1.5507e-16
8851.51 1.5924e-16
8855.59 1.6225e-16
8859.66 1.6239e-16
8863.74 1.619e-16
8867.81 1.6271e-16
8871.88 1.5807e-16
8875.96 1.425e-16
8880.03 1.3901e-16
8884.11 1.4996e-16
8888.18 1.5041e-16
8892.26 1.4621e-16
8896.33 1.4219e-16
8900.4 1.4147e-16
8904.48 1.4196e-16
8908.55 1.4436e-16
8912.63 1.446e-16
8916.7 1.454e-16
8920.77 1.444e-16
8924.85 1.3704e-16
8928.92 1.2839e-16
8933.0 1.2019e-16
8937.07 1.1628e-16
8941.15 1.1416e-16
8945.22 1.1308e-16
8949.29 1.135e-16
8953.37 1.1124e-16
8957.44 1.1143e-16
8961.52 1.1305e-16
8965.59 1.1002e-16
8969.67 1.0852e-16
8973.74 1.1309e-16
8977.81 1.1447e-16
8981.89 1.1157e-16
8985.96 1.0751e-16
8990.04 1.0331e-16
8994.11 1.0204e-16
8998.18 1.0092e-16
9002.26 1.0174e-16
9006.33 1.0524e-16
9010.41 1.0743e-16
9014.48 1.0957e-16
9018.56 1.1378e-16
9022.63 1.1464e-16
9026.7 1.1491e-16
9030.78 1.1591e-16
9034.85 1.1694e-16
9038.93 1.1696e-16
9043.0 1.1896e-16
9047.07 1.1833e-16
9051.15 1.1745e-16
9055.22 1.144e-16
9059.3 1.0998e-16
9063.37 1.0812e-16
9067.45 1.0544e-16
9071.52 1.0087e-16
9075.59 9.7532e-17
9079.67 9.5489e-17
9083.74 9.4669e-17
9087.82 9.619e-17
9091.89 9.6804e-17
9095.97 9.3724e-17
9100.04 9.1466e-17
9104.11 9.1937e-17
9108.19 9.1798e-17
9112.26 9.2552e-17
9116.34 9.4465e-17
9120.41 9.5256e-17
9124.48 9.6889e-17
9128.56 9.7358e-17
9132.63 9.6734e-17
9136.71 9.8323e-17
9140.78 1.0006e-16
9144.86 9.9085e-17
9148.93 9.5136e-17
9153.0 9.3224e-17
9157.08 9.0364e-17
9161.15 8.8483e-17
9165.23 8.8754e-17
9169.3 8.9896e-17
9173.37 9.1619e-17
9177.45 7.9783e-17
9181.52 7.1784e-17
9185.6 7.2281e-17
9189.67 6.7735e-17
9193.75 6.1483e-17
9197.82 6.0074e-17
9201.89 5.9853e-17
9205.97 5.9545e-17
9210.04 5.8064e-17
9214.12 5.4968e-17
9218.19 5.4579e-17
9222.27 5.2861e-17
9226.34 5.2104e-17
9230.41 5.9355e-17
9234.49 6.6233e-17
9238.56 6.2349e-17
9242.64 5.3248e-17
9246.71 5.409e-17
9250.78 6.3022e-17
9254.86 6.6511e-17
9258.93 7.0401e-17
9263.01 7.8494e-17
9267.08 6.8497e-17
9271.16 7.1399e-17
9275.23 8.6432e-17
9279.3 8.1767e-17
9283.38 7.8812e-17
9287.45 8.2682e-17
9291.53 8.1637e-17
9295.6 7.4319e-17
9299.67 6.8574e-17
9303.75 7.4034e-17
9307.82 7.9039e-17
9311.9 7.7552e-17
9315.97 7.6472e-17
9320.05 7.6035e-17
9324.12 7.6697e-17
9328.19 7.4353e-17
9332.27 7.0604e-17
9336.34 7.3661e-17
9340.42 7.7848e-17
9344.49 7.5527e-17
9348.57 7.5465e-17
9352.64 7.9942e-17
9356.71 8.1027e-17
9360.79 7.835e-17
9364.86 7.8484e-17
9368.94 8.4027e-17
9373.01 8.7428e-17
9377.08 8.7558e-17
9381.16 8.3912e-17
9385.23 7.6975e-17
9389.31 8.1098e-17
9393.38 8.5756e-17
9397.46 8.4709e-17
9401.53 8.2436e-17
9405.6 7.8895e-17
9409.68 7.617e-17
9413.75 7.8351e-17
9417.83 8.1566e-17
9421.9 8.1335e-17
9425.97 7.8214e-17
9430.05 7.4653e-17
9434.12 6.8339e-17
9438.2 6.4634e-17
9442.27 6.9785e-17
9446.35 6.7693e-17
9450.42 6.5933e-17
9454.49 7.1124e-17
9458.57 7.2185e-17
9462.64 7.1569e-17
9466.72 7.1993e-17
9470.79 7.6895e-17
9474.87 8.1738e-17
9478.94 8.1753e-17
9483.01 7.6502e-17
9487.09 7.2423e-17
9491.16 7.4846e-17
9495.24 7.7713e-17
9499.31 7.8521e-17
9503.38 8.0501e-17
9507.46 7.8397e-17
9511.53 7.7953e-17
9515.61 8.2649e-17
9519.68 8.0651e-17
9523.76 7.787e-17
9527.83 7.838e-17
9531.9 8.0005e-17
9535.98 8.3264e-17
9540.05 8.3399e-17
9544.13 8.3966e-17
9548.2 8.4027e-17
9552.27 7.9279e-17
9556.35 7.6839e-17
9560.42 7.5448e-17
9564.5 7.5801e-17
9568.57 7.6997e-17
9572.65 7.735e-17
9576.72 7.2928e-17
9580.79 7.4915e-17
9584.87 7.526e-17
9588.94 7.2235e-17
9593.02 6.9779e-17
9597.09 6.9896e-17
9601.17 7.0333e-17
9605.24 6.8422e-17
9609.31 6.4718e-17
9613.39 6.0484e-17
9617.46 5.7786e-17
9621.54 5.8705e-17
9625.61 5.7762e-17
9629.68 5.6183e-17
9633.76 5.5801e-17
9637.83 5.4625e-17
9641.91 5.4933e-17
9645.98 5.6209e-17
9650.06 5.6711e-17
9654.13 5.7321e-17
9658.2 5.9391e-17
9662.28 6.3382e-17
9666.35 6.3042e-17
9670.43 6.1913e-17
9674.5 6.6832e-17
9678.57 7.0001e-17
9682.65 7.5631e-17
9686.72 7.7984e-17
9690.8 7.5683e-17
9694.87 7.7119e-17
9698.95 7.9402e-17
9703.02 8.2211e-17
9707.09 8.4109e-17
9711.17 8.6492e-17
9715.24 8.6375e-17
9719.32 8.316e-17
9723.39 8.3945e-17
9727.47 8.9611e-17
9731.54 9.2677e-17
9735.61 9.4026e-17
9739.69 9.0731e-17
9743.76 9.2071e-17
9747.84 9.2914e-17
9751.91 8.5495e-17
9755.98 8.4193e-17
9760.06 8.7769e-17
9764.13 8.7109e-17
9768.21 8.7376e-17
9772.28 8.732e-17
9776.36 8.2634e-17
9780.43 8.2442e-17
9784.5 8.4332e-17
9788.58 8.0892e-17
9792.65 8.2396e-17
9796.73 8.4791e-17
9800.8 8.1489e-17
9804.87 8.079e-17
9808.95 8.0999e-17
9813.02 7.9701e-17
9817.1 7.8424e-17
9821.17 7.7802e-17
9825.25 7.6818e-17
9829.32 7.3118e-17
9833.39 7.1796e-17
9837.47 7.8756e-17
9841.54 8.3171e-17
9845.62 7.8462e-17
9849.69 7.0966e-17
9853.77 6.9498e-17
9857.84 6.807e-17
9861.91 6.7437e-17
9865.99 7.1736e-17
9870.06 7.2972e-17
9874.14 7.0844e-17
9878.21 6.6523e-17
9882.28 6.1742e-17
9886.36 6.2068e-17
9890.43 6.3367e-17
9894.51 6.192e-17
9898.58 5.9081e-17
9902.66 5.473e-17
9906.73 5.6735e-17
9910.8 6.4974e-17
9914.88 7.7559e-17
9918.95 7.087e-17
9923.03 6.3708e-17
9927.1 5.8692e-17
9931.17 5.2783e-17
9935.25 5.419e-17
9939.32 5.6409e-17
9943.4 4.9815e-17
9947.47 4.311e-17
9951.55 5.0065e-17
9955.62 5.6797e-17
9959.69 5.0411e-17
9963.77 4.6899e-17
9967.84 4.9643e-17
9971.92 4.8785e-17
9975.99 5.082e-17
9980.07 5.4599e-17
9984.14 5.2647e-17
9988.21 5.1888e-17
9992.29 5.2212e-17
9996.36 5.3393e-17
10000.44 5.6372e-17
10004.51 5.3071e-17
10008.58 5.4824e-17
10012.66 5.8012e-17
10016.73 6.1272e-17
10020.81 6.1476e-17
10024.88 5.7718e-17
10028.96 5.9576e-17
10033.03 6.0131e-17
10037.1 6.5721e-17
10041.18 7.005e-17
10045.25 6.7681e-17
10049.33 6.4585e-17
10053.4 7.2342e-17
10057.47 7.5384e-17
10061.55 7.4044e-17
10065.62 7.1138e-17
10069.7 6.9213e-17
10073.77 7.2987e-17
10077.85 7.8356e-17
10081.92 7.6399e-17
10085.99 7.2821e-17
10090.07 7.7751e-17
10094.14 8.1872e-17
10098.22 7.7231e-17
10102.29 7.4414e-17
10106.37 7.8111e-17
10110.44 7.6724e-17
10114.51 7.5834e-17
10118.59 7.8497e-17
10122.66 7.4016e-17
10126.74 7.0049e-17
10130.81 7.1769e-17
10134.88 7.5299e-17
10138.96 7.6029e-17
10143.03 7.7093e-17
10147.11 7.1524e-17
10151.18 6.4117e-17
10155.26 6.653e-17
10159.33 6.712e-17
10163.4 6.8146e-17
10167.48 7.052e-17
10171.55 6.5498e-17
10175.63 6.2034e-17
10179.7 6.3495e-17
10183.77 6.1708e-17
10187.85 5.6704e-17
10191.92 5.6607e-17
10196.0 5.8083e-17
10200.07 5.6609e-17
10204.15 6.0446e-17
10208.22 6.4124e-17
10212.29 6.3791e-17
10216.37 6.6381e-17
10220.44 6.1286e-17
10224.52 5.8128e-17
10228.59 6.2099e-17
10232.67 5.9702e-17
10236.74 5.9877e-17
10240.81 6.4277e-17
10244.89 6.49e-17
10248.96 6.2906e-17
10253.04 6.2114e-17
10257.11 6.174e-17
10261.18 6.155e-17
10265.26 6.3503e-17
10269.33 6.5877e-17
10273.41 6.2197e-17
10277.48 6.6091e-17
10281.56 7.07e-17
10285.63 7.1478e-17
10289.7 6.7067e-17
