# wavelength flux
3300.0 3.758645934369962e-17
3301.0 3.758089514974382e-17
3302.0 3.75753317749298e-17
3303.0 3.756976921913039e-17
3304.0 3.756420748221836e-17
3305.0 3.755864656406653e-17
3306.0 3.755308646454772e-17
3307.0 3.7547527183534775e-17
3308.0 3.754196872090051e-17
3309.0 3.7536411076517735e-17
3310.0 3.753085425025945e-17
3311.0 3.7525298241998443e-17
3312.0 3.75197430516076e-17
3313.0 3.751418867895982e-17
3314.0 3.7508635123928e-17
3315.0 3.7503082386385047e-17
3316.0 3.749753046620383e-17
3317.0 3.74919793632574e-17
3318.0 3.748642907741865e-17
3319.0 3.7480879608560516e-17
3320.0 3.747533095655596e-17
3321.0 3.746978312127797e-17
3322.0 3.746423610259951e-17
3323.0 3.7458689900393576e-17
3324.0 3.745314451453318e-17
3325.0 3.7447599944891315e-17
3326.0 3.744205619134095e-17
3327.0 3.743651325375524e-17
3328.0 3.743097113200716e-17
3329.0 3.7425429825969774e-17
3330.0 3.741988933551612e-17
3331.0 3.741434966051922e-17
3332.0 3.740881080085227e-17
3333.0 3.7403272756388297e-17
3334.0 3.739773552700041e-17
3335.0 3.7392199112561705e-17
3336.0 3.7386663512945306e-17
3337.0 3.738112872802434e-17
3338.0 3.7375594757671946e-17
3339.0 3.7370061601761273e-17
3340.0 3.7364529260165465e-17
3341.0 3.73589977327577e-17
3342.0 3.735346701941115e-17
3343.0 3.7347937119999e-17
3344.0 3.734240803439438e-17
3345.0 3.733687976247061e-17
3346.0 3.7331352304100875e-17
3347.0 3.7325825659158306e-17
3348.0 3.732029982751627e-17
3349.0 3.731477480904794e-17
3350.0 3.730925060362658e-17
3351.0 3.730372721112544e-17
3352.0 3.7298204631417795e-17
3353.0 3.729268286437693e-17
3354.0 3.7287161909876124e-17
3355.0 3.728164176778868e-17
3356.0 3.727612243798791e-17
3357.0 3.727060392034712e-17
3358.0 3.7265086214739646e-17
3359.0 3.7259569321038824e-17
3360.0 3.725405323911801e-17
3361.0 3.724853796885046e-17
3362.0 3.7243023510109704e-17
3363.0 3.7237509862768956e-17
3364.0 3.7231997026701756e-17
3365.0 3.7226485001781415e-17
3366.0 3.7220973787881336e-17
3367.0 3.7215463384874923e-17
3368.0 3.720995379263561e-17
3369.0 3.7204445011036805e-17
3370.0 3.719893703995197e-17
3371.0 3.7193429879254527e-17
3372.0 3.7187923528817945e-17
3373.0 3.718241798851569e-17
3374.0 3.717691325822123e-17
3375.0 3.717140933780805e-17
3376.0 3.7165906227149645e-17
3377.0 3.716040392611951e-17
3378.0 3.715490243459117e-17
3379.0 3.714940175243799e-17
3380.0 3.714390187953378e-17
3381.0 3.7138402815751933e-17
3382.0 3.7132904560966e-17
3383.0 3.712740711504954e-17
3384.0 3.7121910477876105e-17
3385.0 3.711641464931928e-17
3386.0 3.7110919629252644e-17
3387.0 3.710542541754978e-17
3388.0 3.70999320140843e-17
3389.0 3.709443941872981e-17
3390.0 3.708894763135991e-17
3391.0 3.708345665184825e-17
3392.0 3.7077966480068454e-17
3393.0 3.7072477115894167e-17
3394.0 3.706698855919896e-17
3395.0 3.7061500809856654e-17
3396.0 3.7056013867740764e-17
3397.0 3.7050527732725106e-17
3398.0 3.7045042404683316e-17
3399.0 3.7039557883489075e-17
3400.0 3.7034074169016086e-17
3401.0 3.702859126113808e-17
3402.0 3.702310915972875e-17
3403.0 3.701762786466184e-17
3404.0 3.701214737581111e-17
3405.0 3.7006667693050286e-17
3406.0 3.7001188816253135e-17
3407.0 3.69957107452934e-17
3408.0 3.6990233480044876e-17
3409.0 3.6984757020381345e-17
3410.0 3.6979281366176524e-17
3411.0 3.697380651730434e-17
3412.0 3.696833247363855e-17
3413.0 3.69628592350529e-17
3414.0 3.695738680142133e-17
3415.0 3.695191517261762e-17
3416.0 3.694644434851561e-17
3417.0 3.694097432898915e-17
3418.0 3.693550511391211e-17
3419.0 3.6930036703158333e-17
3420.0 3.692456909660171e-17
3421.0 3.691910229411612e-17
3422.0 3.6913636295575456e-17
3423.0 3.6908171100853613e-17
3424.0 3.69027067098245e-17
3425.0 3.6897243122362046e-17
3426.0 3.68917803383401e-17
3427.0 3.688631835763272e-17
3428.0 3.688085718011379e-17
3429.0 3.687539680565727e-17
3430.0 3.68699372341371e-17
3431.0 3.686447846542718e-17
3432.0 3.685902049940162e-17
3433.0 3.685356333593435e-17
3434.0 3.684810697489934e-17
3435.0 3.684265141617061e-17
3436.0 3.683719665962214e-17
3437.0 3.683174270512797e-17
3438.0 3.682628955256211e-17
3439.0 3.6820837201798575e-17
3440.0 3.6815385652711443e-17
3441.0 3.680993490517473e-17
3442.0 3.6804484959062434e-17
3443.0 3.679903581424875e-17
3444.0 3.6793587470607675e-17
3445.0 3.67881399280133e-17
3446.0 3.6782693186339715e-17
3447.0 3.6777247245461006e-17
3448.0 3.67718021052512e-17
3449.0 3.6766357765584556e-17
3450.0 3.6760914226335114e-17
3451.0 3.675547148737701e-17
3452.0 3.675002954858436e-17
3453.0 3.674458840983134e-17
3454.0 3.6739148070992074e-17
3455.0 3.6733708531940713e-17
3456.0 3.6728269792551446e-17
3457.0 3.672283185269837e-17
3458.0 3.671739471225579e-17
3459.0 3.671195837109783e-17
3460.0 3.67065228290987e-17
3461.0 3.670108808613259e-17
3462.0 3.6695654142073703e-17
3463.0 3.6690220996796285e-17
3464.0 3.6684788650174533e-17
3465.0 3.66793571020827e-17
3466.0 3.6673926352394967e-17
3467.0 3.6668496400985696e-17
3468.0 3.6663067247729096e-17
3469.0 3.665763889249942e-17
3470.0 3.6652211335170943e-17
3471.0 3.664678457561795e-17
3472.0 3.6641358613714724e-17
3473.0 3.6635933449335485e-17
3474.0 3.663050908235469e-17
3475.0 3.6625085512646554e-17
3476.0 3.6619662740085407e-17
3477.0 3.6614240764545586e-17
3478.0 3.660881958590141e-17
3479.0 3.6603399204027215e-17
3480.0 3.659797961879735e-17
3481.0 3.6592560830086174e-17
3482.0 3.658714283776804e-17
3483.0 3.658172564171727e-17
3484.0 3.657630924180833e-17
3485.0 3.657089363791559e-17
3486.0 3.6565478829913393e-17
3487.0 3.656006481767617e-17
3488.0 3.6554651601078316e-17
3489.0 3.6549239179994175e-17
3490.0 3.6543827554298294e-17
3491.0 3.6538416723865035e-17
3492.0 3.653300668856883e-17
3493.0 3.6527597448284134e-17
3494.0 3.652218900288536e-17
3495.0 3.6516781352247017e-17
3496.0 3.651137449624352e-17
3497.0 3.650596843474935e-17
3498.0 3.6500563167639e-17
3499.0 3.649515869478694e-17
3500.0 3.6489755016067645e-17
3500.04 2.4137e-17
3503.81 3.0535e-17
3507.57 3.355e-17
3511.34 4.0059e-17
3515.11 4.2148e-17
3518.87 2.6529e-17
3522.64 3.0149e-17
3526.41 3.5599e-17
3530.17 3.4037e-17
3533.94 1.1217e-17
3537.71 2.9892e-17
3541.47 2.3166e-17
3545.24 1.9276e-17
3549.01 2.5838e-17
3552.77 2.7228e-17
3556.54 2.952e-17
3560.31 3.6034e-17
3564.07 4.3986e-17
3567.84 4.3468e-17
3571.61 2.6584e-17
3575.37 3.7085e-17
3579.14 2.9091e-17
3582.91 3.6542e-17
3586.67 3.6263e-17
3590.44 3.5927e-17
3594.21 3.6443e-17
3597.97 1.6489e-17
3601.74 2.1675e-17
3605.51 3.3385e-17
3609.27 2.6012e-17
3613.04 2.6651e-17
3616.81 3.8819e-17
3620.57 3.6516e-17
3624.34 2.9774e-17
3628.1 3.7112e-17
3631.87 2.432e-17
3635.64 2.0334e-17
3639.4 3.2213e-17
3643.17 3.4681e-17
3646.94 3.1122e-17
3650.7 2.406e-17
3654.47 3.4503e-17
3658.24 2.9236e-17
3662.0 2.2965e-17
3665.77 3.4202e-17
3669.54 3.4506e-17
3673.3 4.3994e-17
3677.07 3.2456e-17
3680.84 2.8994e-17
3684.6 4.0582e-17
3688.37 4.6601e-17
3692.14 3.4905e-17
3695.9 3.347e-17
3699.67 3.3511e-17
3703.44 3.461e-17
3707.2 3.3951e-17
3710.97 2.8302e-17
3714.74 2.7257e-17
3718.5 3.1758e-17
3722.27 3.5175e-17
3726.04 3.0033e-17
3729.8 2.484e-17
3733.57 3.3757e-17
3737.34 2.3874e-17
3741.1 2.5068e-17
3744.87 2.5094e-17
3748.64 3.8559e-17
3752.4 4.7958e-17
3756.17 6.0194e-17
3759.94 5.2831e-17
3763.7 2.7502e-17
3767.47 2.998e-17
3771.24 3.478e-17
3775.0 4.4297e-17
3778.77 3.5845e-17
3782.54 3.7827e-17
3786.3 3.1039e-17
3790.07 3.6824e-17
3793.84 3.8674e-17
3797.6 3.0066e-17
3801.37 3.7338e-17
3805.14 4.2239e-17
3808.9 4.3758e-17
3812.67 4.7236e-17
3816.44 4.6184e-17
3820.2 3.7728e-17
3823.97 2.9365e-17
3827.74 3.3074e-17
3831.5 3.3086e-17
3835.27 3.2449e-17
3839.04 3.8443e-17
3842.8 3.8835e-17
3846.57 3.3425e-17
3850.34 2.995e-17
3854.1 2.1998e-17
3857.87 1.4507e-17
3861.63 2.4074e-17
3865.4 3.0911e-17
3869.17 2.806e-17
3872.93 3.7918e-17
3876.7 4.5991e-17
3880.47 3.3033e-17
3884.23 3.1934e-17
3888.0 4.3536e-17
3891.77 4.2464e-17
3895.53 4.2616e-17
3899.3 3.3473e-17
3903.07 2.9482e-17
3906.83 3.215e-17
3910.6 2.6887e-17
3914.37 2.6547e-17
3918.13 3.2355e-17
3921.9 3.5182e-17
3925.67 3.922e-17
3929.43 4.1919e-17
3933.2 3.7277e-17
3936.97 4.1126e-17
3940.73 4.6411e-17
3944.5 4.1541e-17
3948.27 3.1528e-17
3952.03 2.8883e-17
3955.8 3.2371e-17
3959.57 2.8511e-17
3963.33 2.5563e-17
3967.1 2.8033e-17
3970.87 2.6798e-17
3974.63 3.1395e-17
3978.4 3.5114e-17
3982.17 4.0943e-17
3985.93 5.024e-17
3989.7 4.3646e-17
3993.47 3.2742e-17
3997.23 2.6636e-17
4001.0 3.7987e-17
4004.77 3.7711e-17
4008.53 4.8498e-17
4012.3 4.8873e-17
4016.07 3.928e-17
4019.83 3.6159e-17
4023.6 4.379e-17
4027.37 5.0729e-17
4031.13 5.0387e-17
4034.9 4.4542e-17
4038.67 4.0587e-17
4042.43 3.2583e-17
4046.2 4.3226e-17
4049.97 5.5743e-17
4053.73 5.2082e-17
4057.5 4.1146e-17
4061.27 3.9281e-17
4065.03 5.0931e-17
4068.8 3.9706e-17
4072.57 4.0366e-17
4076.33 3.0305e-17
4080.1 3.1345e-17
4083.87 4.0013e-17
4087.63 3.5261e-17
4091.4 4.1777e-17
4095.16 4.6248e-17
4098.93 4.0315e-17
4102.7 2.9424e-17
4106.46 2.9644e-17
4110.23 3.5677e-17
4114.0 2.9129e-17
4117.76 2.06e-17
4121.53 2.9088e-17
4125.3 3.6212e-17
4129.06 4.0709e-17
4132.83 3.6734e-17
4136.6 3.6675e-17
4140.36 3.731e-17
4144.13 3.9605e-17
4147.9 2.9901e-17
4151.66 3.4393e-17
4155.43 4.402e-17
4159.2 5.0707e-17
4162.96 4.245e-17
4166.73 3.6118e-17
4170.5 4.3535e-17
4174.26 4.1857e-17
4178.03 3.9566e-17
4181.8 3.8667e-17
4185.56 3.5994e-17
4189.33 3.3979e-17
4193.1 3.5484e-17
4196.86 3.826e-17
4200.63 3.787e-17
4204.4 3.6996e-17
4208.16 4.0562e-17
4211.93 2.8129e-17
4215.7 3.3824e-17
4219.46 3.2025e-17
4223.23 3.4525e-17
4227.0 2.5702e-17
4230.76 2.4171e-17
4234.53 3.2956e-17
4238.3 3.457e-17
4242.06 3.9009e-17
4245.83 3.377e-17
4249.6 2.5505e-17
4253.36 4.0021e-17
4257.13 3.3573e-17
4260.9 3.5451e-17
4264.66 2.8382e-17
4268.43 2.745e-17
4272.2 1.9681e-17
4275.96 2.1216e-17
4279.73 2.9673e-17
4283.5 3.4847e-17
4287.26 2.7959e-17
4291.03 4.0481e-17
4294.8 4.0912e-17
4298.56 3.5099e-17
4302.33 2.9074e-17
4306.1 2.9136e-17
4309.86 2.9418e-17
4313.63 3.1704e-17
4317.4 3.2857e-17
4321.16 3.5904e-17
4324.93 3.2321e-17
4328.7 3.5125e-17
4332.46 3.1948e-17
4336.23 3.7673e-17
4339.99 2.4103e-17
4343.76 2.9118e-17
4347.53 3.8546e-17
4351.29 3.6271e-17
4355.06 3.5552e-17
4358.83 3.7487e-17
4362.59 4.265e-17
4366.36 4.089e-17
4370.13 3.6595e-17
4373.89 3.2601e-17
4377.66 2.8305e-17
4381.43 2.8672e-17
4385.19 3.0741e-17
4388.96 3.3326e-17
4392.73 3.3997e-17
4396.49 3.4606e-17
4400.26 3.392e-17
4404.03 3.6742e-17
4407.79 3.8127e-17
4411.56 3.6415e-17
4415.33 3.4036e-17
4419.09 3.6292e-17
4422.86 3.7073e-17
4426.63 3.8926e-17
4430.39 3.4566e-17
4434.16 3.3569e-17
4437.93 3.5699e-17
4441.69 2.5708e-17
4445.46 2.9739e-17
4449.23 3.5031e-17
4452.99 3.3635e-17
4456.76 3.4554e-17
4460.53 4.196e-17
4464.29 4.6301e-17
4468.06 4.7094e-17
4471.83 3.8856e-17
4475.59 3.1482e-17
4479.36 3.0024e-17
4483.13 3.2929e-17
4486.89 3.5878e-17
4490.66 3.8255e-17
4494.43 3.7973e-17
4498.19 3.7884e-17
4501.96 3.8558e-17
4505.73 3.6329e-17
4509.49 4.594e-17
4513.26 4.2169e-17
4517.03 3.9799e-17
4520.79 3.7856e-17
4524.56 3.4368e-17
4528.33 3.5614e-17
4532.09 2.8857e-17
4535.86 3.2678e-17
4539.63 3.4248e-17
4543.39 3.4997e-17
4547.16 3.1274e-17
4550.93 3.1226e-17
4554.69 2.9481e-17
4558.46 3.1006e-17
4562.23 3.2343e-17
4565.99 3.4411e-17
4569.76 3.8172e-17
4573.52 3.9467e-17
4577.29 3.9855e-17
4581.06 2.9109e-17
4584.82 2.8399e-17
4588.59 3.3904e-17
4592.36 3.6532e-17
4596.12 3.7693e-17
4599.89 3.4522e-17
4603.66 2.9257e-17
4607.42 3.0818e-17
4611.19 3.616e-17
4614.96 3.9303e-17
4618.72 3.9733e-17
4622.49 3.4716e-17
4626.26 3.7165e-17
4630.02 3.6213e-17
4633.79 2.8202e-17
4637.56 3.4552e-17
4641.32 3.4396e-17
4645.09 3.4074e-17
4648.86 3.3862e-17
4652.62 3.001e-17
4656.39 3.3323e-17
4660.16 2.6745e-17
4663.92 2.4068e-17
4667.69 3.0566e-17
4671.46 3.0365e-17
4675.22 3.5704e-17
4678.99 3.8941e-17
4682.76 3.8497e-17
4686.52 2.8792e-17
4690.29 3.4335e-17
4694.06 2.5086e-17
4697.82 2.9891e-17
4701.59 3.5052e-17
4705.36 3.2731e-17
4709.12 3.2012e-17
4712.89 2.7865e-17
4716.66 2.9522e-17
4720.42 3.8578e-17
4724.19 2.8044e-17
4727.96 2.7441e-17
4731.72 3.6441e-17
4735.49 3.1643e-17
4739.26 3.165e-17
4743.02 3.3328e-17
4746.79 3.7648e-17
4750.56 3.6618e-17
4754.32 3.6077e-17
4758.09 3.2811e-17
4761.86 3.1387e-17
4765.62 2.4775e-17
4769.39 2.6805e-17
4773.16 3.3207e-17
4776.92 3.7707e-17
4780.69 3.1274e-17
4784.46 2.7618e-17
4788.22 2.9789e-17
4791.99 2.7825e-17
4795.76 2.6082e-17
4799.52 2.5109e-17
4803.29 2.9038e-17
4807.06 3.3383e-17
4810.82 3.3107e-17
4814.59 2.1361e-17
4818.35 2.4542e-17
4822.12 3.2398e-17
4825.89 2.4341e-17
4829.65 1.9245e-17
4833.42 2.4779e-17
4837.19 2.2412e-17
4840.95 2.2014e-17
4844.72 2.5694e-17
4848.49 2.6892e-17
4852.25 3.1961e-17
4856.02 3.3436e-17
4859.79 2.8061e-17
4863.55 2.3222e-17
4867.32 2.2121e-17
4871.09 2.4831e-17
4874.85 2.2768e-17
4878.62 2.2472e-17
4882.39 2.8575e-17
4886.15 3.3521e-17
4889.92 3.1367e-17
4893.69 4.8473e-17
4897.45 5.3071e-17
4901.22 3.9606e-17
4904.99 2.8213e-17
4908.75 2.8848e-17
4912.52 2.5279e-17
4916.29 2.6666e-17
4920.05 3.5323e-17
4923.82 3.0605e-17
4927.59 3.6175e-17
4931.35 2.7964e-17
4935.12 2.801e-17
4938.89 3.1615e-17
4942.65 2.9974e-17
4946.42 3.1217e-17
4950.19 2.7244e-17
4953.95 2.559e-17
4957.72 2.7047e-17
4961.49 2.8706e-17
4965.25 3.2519e-17
4969.02 2.7403e-17
4972.79 2.8554e-17
4976.55 3.1441e-17
4980.32 3.3784e-17
4984.09 3.1937e-17
4987.85 2.6974e-17
4991.62 2.8417e-17
4995.39 2.6888e-17
4999.15 2.8017e-17
5002.92 2.3531e-17
5006.69 2.1492e-17
5010.45 1.9575e-17
5014.22 1.7448e-17
5017.99 2.13e-17
5021.75 2.3768e-17
5025.52 2.1209e-17
5029.29 2.7071e-17
5033.05 2.4712e-17
5036.82 3.0924e-17
5040.59 4.493e-17
5044.35 4.5746e-17
5048.12 3.8611e-17
5051.88 3.0257e-17
5055.65 2.9984e-17
5059.42 3.6236e-17
5063.18 3.3144e-17
5066.95 2.9379e-17
5070.72 2.829e-17
5074.48 3.0892e-17
5078.25 3.1953e-17
5082.02 2.489e-17
5085.78 3.0422e-17
5089.55 2.9323e-17
5093.32 2.6692e-17
5097.08 3.1412e-17
5100.85 2.9651e-17
5104.62 2.5887e-17
5108.38 3.6519e-17
5112.15 2.725e-17
5115.92 2.5435e-17
5119.68 1.9611e-17
5123.45 2.0019e-17
5127.22 2.6345e-17
5130.98 2.6283e-17
5134.75 2.1307e-17
5138.52 2.3993e-17
5142.28 2.4446e-17
5146.05 2.211e-17
5149.82 2.8571e-17
5153.58 2.7043e-17
5157.35 2.7403e-17
5161.12 3.2779e-17
5164.88 3.8542e-17
5168.65 3.3199e-17
5172.42 3.1577e-17
5176.18 3.0637e-17
5179.95 3.0332e-17
5183.72 3.2032e-17
5187.48 2.964e-17
5191.25 3.1703e-17
5195.02 3.8628e-17
5198.78 4.1233e-17
5202.55 3.0879e-17
5206.32 2.6668e-17
5210.08 2.7031e-17
5213.85 3.0348e-17
5217.62 2.2144e-17
5221.38 2.8659e-17
5225.15 2.7565e-17
5228.92 2.3276e-17
5232.68 2.721e-17
5236.45 3.3006e-17
5240.22 2.9947e-17
5243.98 2.7441e-17
5247.75 2.4216e-17
5251.52 2.5388e-17
5255.28 2.76e-17
5259.05 2.5423e-17
5262.82 2.7556e-17
5266.58 2.5353e-17
5270.35 3.0065e-17
5274.12 2.5479e-17
5277.88 1.9304e-17
5281.65 2.7087e-17
5285.42 2.7523e-17
5289.18 3.186e-17
5292.95 3.8819e-17
5296.71 3.3006e-17
5300.48 3.3621e-17
5304.25 2.6962e-17
5308.01 2.5498e-17
5311.78 2.3772e-17
5315.55 2.5762e-17
5319.31 2.9532e-17
5323.08 2.9063e-17
5326.85 2.7684e-17
5330.61 2.6954e-17
5334.38 2.7848e-17
5338.15 2.7127e-17
5341.91 2.8355e-17
5345.68 3.0775e-17
5349.45 2.4564e-17
5353.21 1.8278e-17
5356.98 2.6124e-17
5360.75 2.1498e-17
5364.51 2.0688e-17
5368.28 2.7777e-17
5372.05 2.7398e-17
5375.81 2.5341e-17
5379.58 2.4578e-17
5383.35 2.5409e-17
5387.11 2.3581e-17
5390.88 2.2738e-17
5394.65 2.2559e-17
5398.41 2.1039e-17
5402.18 1.8146e-17
5405.95 2.5337e-17
5409.71 2.5391e-17
5413.48 2.0996e-17
5417.25 2.123e-17
5421.01 2.7784e-17
5424.78 3.3875e-17
5428.55 3.0289e-17
5432.31 2.3567e-17
5436.08 2.5423e-17
5439.85 2.4988e-17
5443.61 1.5025e-17
5447.38 1.6847e-17
5451.15 2.2564e-17
5454.91 2.6185e-17
5458.68 2.2459e-17
5462.45 1.9589e-17
5466.21 1.9526e-17
5469.98 2.4542e-17
5473.75 1.7101e-17
5477.51 1.6929e-17
5481.28 1.7992e-17
5485.05 2.0943e-17
5488.81 1.7274e-17
5492.58 1.6661e-17
5496.35 2.0849e-17
5500.11 1.6499e-17
5503.88 1.6677e-17
5507.65 1.9981e-17
5511.41 2.3421e-17
5515.18 1.8453e-17
5518.95 2.3265e-17
5522.71 2.5726e-17
5526.48 2.5585e-17
5530.24 3.1049e-17
5534.01 2.3379e-17
5537.78 2.274e-17
5541.54 2.6146e-17
5545.31 1.9255e-17
5549.08 2.6781e-17
5552.84 2.1441e-17
5556.61 1.9428e-17
5560.38 2.0969e-17
5564.14 1.5274e-17
5567.91 -5.8072e-18
5571.68 4.0402e-18
5575.44 9.5676e-17
5579.21 1.1756e-16
5582.98 2.3895e-17
5586.74 -4.3262e-17
5590.51 -3.1366e-18
5594.28 1.9026e-17
5598.04 2.083e-17
5601.81 2.5313e-17
5605.58 3.1603e-17
5609.34 3.167e-17
5613.11 2.8848e-17
5616.88 2.2722e-17
5620.64 2.0137e-17
5624.41 2.086e-17
5628.18 2.2953e-17
5631.94 2.397e-17
5635.71 2.2525e-17
5639.48 2.3099e-17
5643.24 2.8905e-17
5647.01 2.6664e-17
5650.78 2.3095e-17
5654.54 2.18e-17
5658.31 2.1296e-17
5662.08 2.3455e-17
5665.84 2.0486e-17
5669.61 1.7232e-17
5673.38 2.1582e-17
5677.14 2.0284e-17
5680.91 2.195e-17
5684.68 2.0254e-17
5688.44 1.6606e-17
5692.21 2.0609e-17
5695.98 2.3422e-17
5699.74 1.9468e-17
5703.51 1.6841e-17
5707.28 1.9128e-17
5711.04 2.4145e-17
5714.81 1.6944e-17
5718.58 1.0114e-17
5722.34 8.3811e-18
5726.11 3.4984e-18
5729.88 -4.1505e-19
5733.64 1.2619e-17
5737.41 1.7853e-17
5741.18 2.1591e-17
5744.94 2.0813e-17
5748.71 2.0373e-17
5752.48 2.1887e-17
5756.24 1.8876e-17
5760.01 2.1731e-17
5763.77 2.447e-17
5767.54 1.9313e-17
5771.31 1.9516e-17
5775.07 2.3529e-17
5778.84 1.6106e-17
5782.61 9.8385e-18
5786.37 1.5248e-17
5790.14 1.4804e-17
5793.91 1.5216e-17
5797.67 1.4255e-17
5801.44 1.0123e-17
5805.21 1.1988e-17
5808.97 1.5183e-17
5812.74 1.6454e-17
5816.51 1.6213e-17
5820.27 1.744e-17
5824.04 1.4581e-17
5827.81 1.7439e-17
5831.57 1.7123e-17
5835.34 2.3167e-17
5839.11 2.2446e-17
5842.87 2.431e-17
5846.64 2.0015e-17
5850.41 1.364e-17
5854.17 1.3064e-17
5857.94 1.8206e-17
5861.71 1.2742e-17
5865.47 1.2421e-17
5869.24 1.7874e-17
5873.01 2.5332e-17
5876.77 2.271e-17
5880.54 1.8281e-17
5884.31 1.9079e-17
5888.07 2.453e-17
5891.84 2.1494e-17
5895.61 1.7854e-17
5899.37 1.5557e-17
5903.14 1.8162e-17
5906.91 1.9983e-17
5910.67 2.6258e-17
5914.44 2.8863e-17
5918.21 3.2465e-17
5921.97 2.6075e-17
5925.74 2.3972e-17
5929.51 2.4027e-17
5933.27 2.4353e-17
5937.04 2.7397e-17
5940.81 2.0669e-17
5944.57 1.7003e-17
5948.34 1.7822e-17
5952.11 2.3459e-17
5955.87 2.3431e-17
5959.64 2.1397e-17
5963.41 2.4197e-17
5967.17 2.5716e-17
5970.94 2.5657e-17
5974.71 2.3577e-17
5978.47 2.5337e-17
5982.24 2.1046e-17
5986.01 1.3057e-17
5989.77 1.0145e-17
5993.54 1.0511e-17
5997.31 1.4898e-17
6001.07 1.968e-17
6004.84 2.5349e-17
6008.6 1.9296e-17
6012.37 2.3563e-17
6016.14 2.5398e-17
6019.9 2.3311e-17
6023.67 1.8484e-17
6027.44 1.5854e-17
6031.2 1.5869e-17
6034.97 1.1488e-17
6038.74 1.3731e-17
6042.5 1.2492e-17
6046.27 1.2105e-17
6050.04 9.823e-18
6053.8 1.6419e-17
6057.57 1.4877e-17
6061.34 1.3965e-17
6065.1 1.723e-17
6068.87 1.35e-17
6072.64 1.3331e-17
6076.4 1.0221e-17
6080.17 2.0611e-17
6083.94 1.9645e-17
6087.7 1.9781e-17
6091.47 1.6589e-17
6095.24 1.7282e-17
6099.0 1.9441e-17
6102.77 1.5915e-17
6106.54 1.376e-17
6110.3 1.4691e-17
6114.07 1.6251e-17
6117.84 1.5949e-17
6121.6 1.323e-17
6125.37 1.7338e-17
6129.14 1.7625e-17
6132.9 1.7752e-17
6136.67 2.4003e-17
6140.44 1.9255e-17
6144.2 1.795e-17
6147.97 1.829e-17
6151.74 1.524e-17
6155.5 1.6832e-17
6159.27 2.0001e-17
6163.04 1.9764e-17
6166.8 2.053e-17
6170.57 1.7097e-17
6174.34 1.4383e-17
6178.1 1.0343e-17
6181.87 9.7638e-18
6185.64 1.9444e-17
6189.4 2.2581e-17
6193.17 2.2719e-17
6196.94 1.6601e-17
6200.7 1.555e-17
6204.47 1.8662e-17
6208.24 2.1774e-17
6212.0 2.0101e-17
6215.77 2.0673e-17
6219.54 1.828e-17
6223.3 1.5392e-17
6227.07 1.7355e-17
6230.84 2.0607e-17
6234.6 2.1393e-17
6238.37 2.307e-17
6242.13 1.6999e-17
6245.9 1.3662e-17
6249.67 1.8459e-17
6253.43 2.0027e-17
6257.2 2.4197e-17
6260.97 2.2486e-17
6264.73 1.4786e-17
6268.5 1.7014e-17
6272.27 1.7806e-17
6276.03 2.2146e-17
6279.8 2.0054e-17
6283.57 2.1359e-17
6287.33 1.9745e-17
6291.1 1.6853e-17
6294.87 1.7912e-17
6298.63 4.2375e-17
6302.4 4.555e-17
6306.17 2.9622e-17
6309.93 1.835e-17
6313.7 2.6373e-17
6317.47 3.2632e-17
6321.23 3.5953e-17
6325.0 4.1089e-17
6328.77 4.3436e-17
6332.53 3.6259e-17
6336.3 3.6852e-17
6340.07 3.4826e-17
6343.83 3.0861e-17
6347.6 3.1e-17
6351.37 3.2688e-17
6355.13 3.1637e-17
6358.9 2.8556e-17
6362.67 3.3954e-17
6366.43 3.1618e-17
6370.2 2.2755e-17
6373.97 2.3887e-17
6377.73 2.5638e-17
6381.5 2.5261e-17
6385.27 2.243e-17
6389.03 2.2171e-17
6392.8 2.637e-17
6396.57 2.7125e-17
6400.33 2.6988e-17
6404.1 2.3777e-17
6407.87 2.556e-17
6411.63 2.0535e-17
6415.4 2.1326e-17
6419.17 2.3132e-17
6422.93 2.0429e-17
6426.7 2.2853e-17
6430.47 2.1171e-17
6434.23 2.2266e-17
6438.0 2.7299e-17
6441.77 2.2978e-17
6445.53 2.1854e-17
6449.3 2.5333e-17
6453.07 2.4869e-17
6456.83 1.9812e-17
6460.6 1.5909e-17
6464.37 1.1672e-17
6468.13 1.5219e-17
6471.9 1.9129e-17
6475.67 1.6948e-17
6479.43 1.5222e-17
6483.2 1.6658e-17
6486.96 1.4562e-17
6490.73 1.1901e-17
6494.5 1.0022e-17
6498.26 1.4843e-17
6502.03 1.9693e-17
6505.8 1.9219e-17
6509.56 2.007e-17
6513.33 2.1077e-17
6517.1 1.4231e-17
6520.86 1.0618e-17
6524.63 1.0134e-17
6528.4 1.5333e-17
6532.16 1.8702e-17
6535.93 2.0517e-17
6539.7 2.4509e-17
6543.46 2.8707e-17
6547.23 3.5634e-17
6551.0 3.9996e-17
6554.76 4.4378e-17
6558.53 4.169e-17
6562.3 4.5502e-17
6566.06 5.1517e-17
6569.83 5.8196e-17
6573.6 6.6569e-17
6577.36 7.5362e-17
6581.13 8.1827e-17
6584.9 8.5296e-17
6588.66 8.6968e-17
6592.43 9.6483e-17
6596.2 1.0469e-16
6599.96 1.0407e-16
6603.73 1.497e-16
6607.5 2.2367e-16
6611.26 2.1121e-16
6615.03 9.755e-17
6618.8 5.4427e-17
6622.56 5.4374e-17
6626.33 7.3997e-17
6630.1 8.534e-17
6633.86 6.5794e-17
6637.63 3.5302e-17
6641.4 3.2481e-17
6645.16 4.986e-17
6648.93 5.5659e-17
6652.7 5.4199e-17
6656.46 3.7372e-17
6660.23 2.6402e-17
6664.0 2.3773e-17
6667.76 2.0676e-17
6671.53 1.9966e-17
6675.3 2.289e-17
6679.06 1.8099e-17
6682.83 2.0487e-17
6686.6 2.0751e-17
6690.36 1.6489e-17
6694.13 1.8319e-17
6697.9 1.6863e-17
6701.66 1.927e-17
6705.43 1.4235e-17
6709.2 1.2239e-17
6712.96 1.4586e-17
6716.73 1.3142e-17
6720.49 9.8384e-18
6724.26 1.4925e-17
6728.03 1.8404e-17
6731.79 1.6596e-17
6735.56 1.5929e-17
6739.33 1.0911e-17
6743.09 9.3289e-18
6746.86 1.4033e-17
6750.63 1.5884e-17
6754.39 7.4357e-18
6758.16 1.7998e-17
6761.93 3.2317e-17
6765.69 3.3501e-17
6769.46 1.8126e-17
6773.23 1.9655e-17
6776.99 2.7668e-17
6780.76 3.0181e-17
6784.53 1.8516e-17
6788.29 1.3543e-17
6792.06 1.2813e-17
6795.83 8.9506e-18
6799.59 1.1082e-17
6803.36 1.2779e-17
6807.13 1.3444e-17
6810.89 1.2183e-17
6814.66 1.1843e-17
6818.43 1.2203e-17
6822.19 9.1678e-18
6825.96 1.0384e-17
6829.73 2.0235e-17
6833.49 1.8448e-17
6837.26 1.3072e-17
6841.03 1.4833e-17
6844.79 1.4127e-17
6848.56 1.2122e-17
6852.33 1.3405e-17
6856.09 8.4105e-18
6859.86 1.883e-17
6863.63 2.5191e-17
6867.39 1.9455e-17
6871.16 8.5954e-19
6874.93 1.0757e-18
6878.69 1.3537e-17
6882.46 1.7125e-17
6886.23 1.1936e-17
6889.99 1.325e-17
6893.76 1.2046e-17
6897.53 8.1908e-18
6901.29 1.4389e-17
6905.06 1.5096e-17
6908.83 1.4008e-17
6912.59 1.2957e-17
6916.36 9.7563e-18
6920.13 9.6295e-18
6923.89 1.8475e-17
6927.66 1.3928e-17
6931.43 9.4966e-18
6935.19 1.0535e-17
6938.96 1.2871e-17
6942.73 1.2231e-17
6946.49 1.6297e-17
6950.26 1.9708e-17
6954.03 1.1115e-17
6957.79 8.444e-18
6961.56 1.0789e-17
6965.32 9.5271e-18
6969.09 1.1722e-17
6972.86 1.0982e-17
6976.62 1.0413e-17
6980.39 1.5412e-17
6984.16 1.2344e-17
6987.92 1.2856e-17
6991.69 1.3347e-17
6995.46 8.6462e-18
6999.22 1.435e-17
7002.99 1.7517e-17
7006.76 1.4875e-17
7010.52 1.2578e-17
7014.29 1.2511e-17
7018.06 1.0655e-17
7021.82 1.1142e-17
7025.59 6.7626e-18
7029.36 1.1639e-17
7033.12 1.8886e-17
7036.89 1.7391e-17
7040.66 1.1921e-17
7044.42 1.1653e-17
7048.19 1.4846e-17
7051.96 1.5251e-17
7055.72 1.6678e-17
7059.49 1.405e-17
7063.26 1.5842e-17
7067.02 1.5717e-17
7070.79 1.4711e-17
7074.56 9.6027e-18
7078.32 1.2496e-17
7082.09 1.0925e-17
7085.86 1.5865e-17
7089.62 1.6845e-17
7093.39 1.9071e-17
7097.16 1.8399e-17
7100.92 1.5826e-17
7104.69 1.6254e-17
7108.46 1.6599e-17
7112.22 1.4181e-17
7115.99 1.3935e-17
7119.76 1.6203e-17
7123.52 1.6839e-17
7127.29 1.5868e-17
7131.06 1.7722e-17
7134.82 1.2642e-17
7138.59 1.0527e-17
7142.36 1.4564e-17
7146.12 2.2583e-17
7149.89 2.1405e-17
7153.66 1.444e-17
7157.42 1.1054e-17
7161.19 7.4075e-18
7164.96 1.5415e-17
7168.72 1.8258e-17
7172.49 1.2945e-17
7176.26 1.5662e-17
7180.02 2.2504e-17
7183.79 2.669e-17
7187.56 2.3573e-17
7191.32 2.4804e-17
7195.09 2.3628e-17
7198.85 2.1013e-17
7202.62 2.2312e-17
7206.39 2.4876e-17
7210.15 2.4553e-17
7213.92 1.8906e-17
7217.69 1.8345e-17
7221.45 1.9328e-17
7225.22 1.6264e-17
7228.99 1.1932e-17
7232.75 4.791e-18
7236.52 1.4411e-17
7240.29 4.1522e-17
7244.05 3.8912e-17
7247.82 1.4568e-17
7251.59 4.8177e-18
7255.35 8.8939e-18
7259.12 1.4558e-17
7262.89 1.7633e-17
7266.65 1.1845e-17
7270.42 1.051e-17
7274.19 3.1291e-17
7277.95 3.3361e-17
7281.72 1.8297e-17
7285.49 2.7551e-17
7289.25 1.6995e-17
7293.02 1.7633e-17
7296.79 2.6962e-17
7300.55 3.5037e-17
7304.32 4.0159e-17
7308.09 4.3915e-17
7311.85 6.5903e-17
7315.62 9.1747e-17
7319.39 8.7844e-17
7323.15 6.3288e-17
7326.92 8.2051e-17
7330.69 8.4901e-17
7334.45 7.4445e-17
7338.22 1.0265e-16
7341.99 1.114e-16
7345.75 1.0067e-16
7349.52 8.682e-17
7353.29 8.0878e-17
7357.05 8.5802e-17
7360.82 6.9721e-17
7364.59 6.7085e-17
7368.35 7.8922e-17
7372.12 7.9752e-17
7375.89 5.1884e-17
7379.65 4.9127e-17
7383.42 5.3711e-17
7387.19 4.6837e-17
7390.95 4.9034e-17
7394.72 3.4592e-17
7398.49 3.3592e-17
7402.25 3.8671e-17
7406.02 2.4992e-17
7409.79 1.9297e-17
7413.55 2.9772e-17
7417.32 2.6133e-17
7421.09 2.2234e-17
7424.85 1.9661e-17
7428.62 1.9811e-17
7432.38 1.7202e-17
7436.15 2.0954e-17
7439.92 2.2586e-17
7443.68 2.4943e-17
7447.45 1.9726e-17
7451.22 2.0781e-17
7454.98 1.7681e-17
7458.75 1.7e-17
7462.52 2.0962e-17
7466.28 2.1224e-17
7470.05 2.5124e-17
7473.82 1.951e-17
7477.58 1.8331e-17
7481.35 2.1761e-17
7485.12 2.6372e-17
7488.88 1.7717e-17
7492.65 1.6702e-17
7496.42 1.6487e-17
7500.18 1.4522e-17
7503.95 1.5058e-17
7507.72 1.278e-17
7511.48 1.1129e-17
7515.25 8.0786e-18
7519.02 1.4223e-17
7522.78 2.9991e-17
7526.55 2.3795e-17
7530.32 1.0754e-17
7534.08 6.8698e-18
7537.85 6.4417e-18
7541.62 7.4839e-18
7545.38 7.1832e-18
7549.15 3.563e-18
7552.92 9.7567e-18
7556.68 1.7924e-17
7560.45 8.4624e-18
7564.22 1.9818e-19
7567.98 1.5136e-17
7571.75 2.9963e-17
7575.52 2.3475e-17
7579.28 1.1384e-17
7583.05 1.1215e-17
7586.82 1.1808e-17
7590.58 5.7952e-18
7594.35 5.7714e-18
7598.12 1.4631e-17
7601.88 1.1972e-17
7605.65 3.6295e-18
7609.42 -1.1158e-18
7613.18 1.834e-18
7616.95 1.2178e-17
7620.72 1.198e-17
7624.48 9.8725e-18
7628.25 1.4205e-17
7632.02 8.3314e-18
7635.78 6.2063e-18
7639.55 1.2678e-17
7643.32 1.0483e-17
7647.08 1.4199e-19
7650.85 -2.9511e-18
7654.62 -1.0329e-17
7658.38 -6.5846e-18
7662.15 5.6301e-18
7665.92 1.3522e-17
7669.68 1.0356e-17
7673.45 1.1163e-17
7677.21 7.2255e-18
7680.98 5.1409e-18
7684.75 7.7338e-18
7688.51 1.6689e-17
7692.28 1.5865e-17
7696.05 1.529e-17
7699.81 1.1955e-17
7703.58 7.7251e-19
7707.35 -4.2463e-18
7711.11 1.9164e-17
7714.88 5.1024e-17
7718.65 3.3976e-17
7722.41 2.0116e-18
7726.18 4.4259e-19
7729.95 5.7708e-18
7733.71 3.0725e-18
7737.48 3.887e-18
7741.25 -2.0553e-18
7745.01 -1.0548e-18
7748.78 4.1432e-17
7752.55 3.6225e-17
7756.31 1.0505e-17
7760.08 8.8655e-18
7763.85 7.0069e-18
7767.61 3.7524e-18
7771.38 1.6717e-17
7775.15 2.4793e-17
7778.91 1.8242e-17
7782.68 9.0749e-18
7786.45 -9.3587e-19
7790.21 1.3526e-17
7793.98 3.3192e-17
7797.75 1.8124e-17
7801.51 -3.326e-18
7805.28 1.5373e-17
7809.05 2.439e-17
7812.81 5.6879e-18
7816.58 3.966e-18
7820.35 3.7909e-17
7824.11 3.3619e-17
7827.88 -6.1305e-18
7831.65 -7.7033e-18
7835.41 2.6214e-18
7839.18 1.4675e-17
7842.95 1.1387e-17
7846.71 -3.7215e-18
7850.48 2.7854e-17
7854.25 3.6753e-17
7858.01 1.5111e-17
7861.78 -1.7215e-18
7865.55 5.2142e-19
7869.31 1.3942e-17
7873.08 1.7893e-17
7876.85 8.6065e-18
7880.61 7.2559e-18
7884.38 7.4421e-18
7888.15 2.2225e-17
7891.91 2.4047e-17
7895.68 8.5366e-18
7899.45 7.7197e-18
7903.21 7.1431e-18
7906.98 -7.2165e-18
7910.74 2.0321e-17
7914.51 4.7276e-17
7918.28 3.2094e-17
7922.04 -4.114e-18
7925.81 4.0755e-18
7929.58 3.125e-18
7933.34 1.243e-17
7937.11 8.7924e-18
7940.88 4.8167e-19
7944.64 1.1069e-17
7948.41 2.0582e-17
7952.18 7.0909e-18
7955.94 -9.7328e-18
7959.71 -5.9205e-18
7963.48 3.9074e-17
7967.24 4.299e-17
7971.01 5.655e-20
7974.78 4.2743e-18
7978.54 2.4553e-17
7982.31 1.7973e-17
7986.08 -1.195e-17
7989.84 1.3225e-17
7993.61 3.6725e-17
7997.38 1.7454e-17
8001.14 -1.2211e-17
8004.91 -6.6342e-18
8008.68 4.6629e-18
8012.44 9.0311e-18
8016.21 1.7188e-17
8019.98 1.3508e-17
8023.74 2.5127e-17
8027.51 2.5908e-17
8031.28 1.1016e-17
8035.04 6.704e-19
8038.81 5.4258e-18
8042.58 6.2914e-18
8046.34 1.0482e-17
8050.11 2.0238e-17
8053.88 1.2638e-17
8057.64 8.6866e-18
8061.41 1.6152e-17
8065.18 2.2022e-17
8068.94 7.1576e-18
8072.71 9.7059e-18
8076.48 1.4122e-17
8080.24 1.5337e-17
8084.01 1.1201e-17
8087.78 1.1455e-17
8091.54 1.7914e-17
8095.31 1.7915e-17
8099.08 2.1277e-17
8102.84 1.9987e-17
8106.61 1.6586e-17
8110.38 1.5412e-17
8114.14 1.7364e-17
8117.91 1.1414e-17
8121.68 8.5524e-18
8125.44 9.5391e-18
8129.21 7.9325e-18
8132.98 1.0804e-17
8136.74 1.1325e-17
8140.51 1.599e-17
8144.28 1.4843e-17
8148.04 1.1795e-17
8151.81 1.1787e-17
8155.57 1.1727e-17
8159.34 1.2133e-17
8163.11 1.3315e-17
8166.87 1.5681e-17
8170.64 9.4444e-18
8174.41 1.0037e-17
8178.17 8.5335e-18
8181.94 1.7388e-17
8185.71 1.4544e-17
8189.47 1.2167e-17
8193.24 1.1336e-17
8197.01 1.6811e-17
8200.77 1.0134e-17
8204.54 8.5926e-18
8208.31 1.274e-17
8212.07 1.1041e-17
8215.84 7.5501e-18
8219.61 1.1424e-17
8223.37 1.2902e-17
8227.14 1.2249e-17
8230.91 8.0422e-18
8234.67 1.1951e-17
8238.44 1.4103e-17
8242.21 1.3867e-17
8245.97 1.9256e-17
8249.74 2.2845e-17
8253.51 2.0537e-17
8257.27 1.4871e-17
8261.04 1.2107e-17
8264.81 3.4087e-18
8268.57 3.4748e-18
8272.34 4.0387e-18
8276.11 2.1245e-18
8279.87 1.1998e-17
8283.64 2.4966e-17
8287.41 2.4044e-17
8291.17 1.2983e-17
8294.94 8.0645e-18
8298.71 2.0518e-17
8302.47 1.5427e-17
8306.24 -7.4142e-18
8310.01 1.2196e-17
8313.77 1.7563e-17
8317.54 9.4365e-18
8321.31 8.6099e-18
8325.07 9.5217e-18
8328.84 9.0362e-18
8332.61 -5.8865e-18
8336.37 -1.7418e-17
8340.14 1.0483e-17
8343.91 7.661e-17
8347.67 5.0218e-17
8351.44 -7.3882e-18
8355.21 -9.8894e-18
8358.97 2.0193e-18
8362.74 1.5766e-17
8366.51 1.8547e-17
8370.27 3.4738e-18
8374.04 -8.6318e-18
8377.81 5.4429e-18
8381.57 2.3144e-17
8385.34 1.5411e-17
8389.1 -1.5579e-17
8392.87 -2.1168e-17
8396.64 2.7411e-17
8400.4 6.1463e-17
8404.17 2.0935e-17
8407.94 -2.1452e-17
8411.7 7.5335e-18
8415.47 2.4794e-17
8419.24 1.416e-17
8423.0 -1.9168e-17
8426.77 8.1621e-18
8430.54 5.4418e-17
8434.3 2.4131e-17
8438.07 -1.2005e-17
8441.84 -5.3815e-18
8445.6 2.1982e-18
8449.37 2.446e-17
8453.14 3.2316e-17
8456.9 1.1849e-17
8460.67 6.6657e-18
8464.44 4.1031e-17
8468.2 3.8106e-17
8471.97 1.1056e-17
8475.74 4.9212e-18
8479.5 5.3432e-18
8483.27 5.5672e-18
8487.04 2.4032e-18
8490.8 1.7181e-17
8494.57 2.2181e-17
8498.34 1.0944e-17
8502.1 1.1376e-17
8505.87 2.5202e-17
8509.64 1.8596e-17
8513.4 1.1744e-17
8517.17 8.58e-18
8520.94 1.814e-17
8524.7 1.4743e-17
8528.47 1.0916e-17
8532.24 7.2184e-18
8536.0 1.1253e-17
8539.77 1.2591e-17
8543.54 1.7335e-17
8547.3 2.3042e-17
8551.07 3.0648e-17
8554.84 2.1307e-17
8558.6 1.41e-17
8562.37 2.0244e-17
8566.14 2.3815e-17
8569.9 2.5048e-17
8573.67 2.1086e-17
8577.44 3.088e-17
8581.2 2.0817e-17
8584.97 2.2122e-17
8588.74 2.0191e-17
8592.5 1.6385e-17
8596.27 2.6062e-17
8600.04 3.0356e-17
8603.8 2.1968e-17
8607.57 1.8506e-17
8611.34 2.0507e-17
8615.1 2.6312e-17
8618.87 2.4937e-17
8622.64 2.416e-17
8626.4 1.3561e-17
8630.17 1.6233e-17
8633.93 2.9543e-17
8637.7 2.3859e-17
8641.47 4.0562e-18
8645.23 8.3712e-18
8649.0 1.3474e-17
8652.77 2.2203e-17
8656.53 2.4517e-17
8660.3 2.8986e-17
8664.07 2.4569e-17
8667.83 1.3666e-17
8671.6 1.8831e-17
8675.37 1.9462e-17
8679.13 2.1884e-17
8682.9 1.7845e-17
8686.67 2.1485e-17
8690.43 1.8456e-17
8694.2 1.6498e-17
8697.97 2.1886e-17
8701.73 1.9551e-17
8705.5 2.963e-17
8709.27 2.9437e-17
8713.03 2.0433e-17
8716.8 1.4108e-17
8720.57 1.0306e-17
8724.33 1.3343e-17
8728.1 2.1868e-17
8731.87 2.7575e-17
8735.63 2.1645e-17
8739.4 2.1728e-17
8743.17 1.6469e-17
8746.93 1.3741e-17
8750.7 8.6706e-18
8754.47 -1.0778e-18
8758.23 4.6687e-18
8762.0 2.3947e-17
8765.77 3.9334e-17
8769.53 1.6281e-17
8773.3 2.1933e-17
8777.07 4.5425e-17
8780.83 3.4123e-17
8784.6 -6.8657e-19
8788.37 -7.7581e-18
8792.13 1.1383e-17
8795.9 1.1097e-17
8799.67 1.3306e-17
8803.43 1.4312e-17
8807.2 2.1989e-17
8810.97 1.9267e-17
8814.73 -1.7926e-18
8818.5 -1.6614e-17
8822.27 4.5387e-18
8826.03 4.6256e-17
8829.8 4.0145e-17
8833.57 8.9811e-18
8837.33 -5.3623e-18
8841.1 -9.1774e-18
8844.87 -1.1151e-17
8848.63 -8.3341e-19
8852.4 5.6616e-18
8856.17 5.1826e-18
8859.93 1.4681e-17
8863.7 4.8315e-17
8867.46 6.9521e-17
8871.23 4.2937e-17
8875.0 -9.0207e-18
8878.76 -1.9656e-17
8882.53 3.5465e-17
8886.3 6.4068e-17
8890.06 2.629e-17
8893.83 -1.3374e-17
8897.6 -9.6119e-19
8901.36 1.845e-17
8905.13 2.288e-17
8908.9 -1.2215e-17
8912.66 -1.8537e-17
8916.43 4.4761e-17
8920.2 8.1208e-17
8923.96 3.3142e-17
8927.73 -8.6467e-18
8931.5 -1.6052e-17
8935.26 -1.204e-17
8939.03 1.7484e-17
8942.8 2.9016e-17
8946.56 1.6498e-17
8950.33 -6.8164e-18
8954.1 1.6176e-17
8957.86 3.1501e-17
8961.63 1.5754e-17
8965.4 -1.3202e-17
8969.16 -7.7026e-18
8972.93 8.1525e-18
8976.7 7.354e-18
8980.46 8.8918e-18
8984.23 1.5012e-17
8988.0 5.0761e-18
8991.76 -2.453e-18
8995.53 6.193e-18
8999.3 2.3843e-17
9003.06 2.594e-17
9006.83 8.2203e-18
9010.6 -3.1123e-18
9014.36 -1.0622e-18
9018.13 8.9623e-18
9021.9 6.177e-18
9025.66 1.0405e-17
9029.43 1.1859e-17
9033.2 9.4657e-18
9036.96 7.0162e-18
9040.73 4.1907e-18
9044.5 1.4863e-17
9048.26 1.7471e-17
9052.03 1.449e-17
9055.8 1.0182e-17
9059.56 1.005e-17
9063.33 1.7002e-17
9067.1 1.5598e-17
9070.86 1.23e-17
9074.63 1.1859e-17
9078.4 1.1989e-17
9082.16 4.5854e-18
9085.93 9.1349e-18
9089.7 1.1529e-17
9093.46 9.9887e-18
9097.23 2.1677e-17
9100.99 2.3335e-17
9104.76 1.6226e-17
9108.53 1.1884e-17
9112.29 5.497e-18
9116.06 4.4985e-18
9119.83 8.7889e-18
9123.59 1.4692e-17
9127.36 1.6513e-17
9131.13 1.8683e-17
9134.89 2.535e-17
9138.66 2.0587e-17
9142.43 1.1193e-17
9146.19 2.9892e-18
9149.96 8.0659e-18
9153.73 1.2443e-17
9157.49 1.4346e-17
9161.26 1.7067e-17
9165.03 1.9387e-17
9168.79 1.7972e-17
9172.56 1.9325e-17
9176.33 1.1254e-17
9180.09 6.9346e-18
9183.86 5.5345e-18
9187.63 -6.4753e-19
9191.39 1.3392e-18
9195.16 3.3979e-18
9198.93 7.9037e-18
9202.69 7.1521e-18
9206.46 4.1876e-18
9210.23 4.4078e-18
9213.99 1.5276e-17
9217.76 2.5206e-17
9221.53 1.2116e-17
9225.29 1.8617e-18
9229.06 9.0742e-18
9232.83 1.8599e-18
9236.59 3.2601e-18
9240.36 -3.4824e-18
9244.13 6.1842e-20
9247.89 8.3524e-18
9251.66 1.0277e-17
9255.43 1.0579e-17
9259.19 1.0757e-17
9262.96 1.1278e-17
9266.73 1.1551e-17
9270.49 1.3543e-17
9274.26 2.1484e-17
9278.03 1.4289e-17
9281.79 8.9922e-18
9285.56 6.2522e-18
9289.33 2.1608e-18
9293.09 6.3976e-18
9296.86 -1.0411e-18
9300.63 4.2433e-20
9304.39 2.3896e-17
9308.16 4.7395e-17
9311.93 6.1971e-17
9315.69 3.7443e-17
9319.46 6.5316e-18
9323.23 1.844e-17
9326.99 1.5229e-17
9330.76 -2.9563e-18
9334.53 -7.1488e-18
9338.29 -1.6059e-18
9342.06 6.8636e-19
9345.82 -1.6705e-17
9349.59 -2.3113e-18
9353.36 2.0273e-17
9357.12 1.4822e-17
9360.89 -1.7408e-18
9364.66 -4.221e-17
9368.42 7.4075e-19
9372.19 1.1252e-16
9375.96 1.45e-16
9379.72 6.4146e-17
9383.49 -1.0075e-17
9387.26 -2.7713e-17
9391.02 -1.7654e-17
9394.79 2.378e-18
9398.56 1.4387e-17
9402.32 1.546e-17
9406.09 -2.9867e-17
9409.86 -2.7822e-17
9413.62 -2.3563e-17
9417.39 -1.2509e-17
9421.16 -2.3316e-17
9424.92 -4.4423e-17
9428.69 -4.2294e-17
9432.46 1.0253e-17
9436.22 3.9005e-17
9439.99 5.775e-17
9443.76 1.1653e-17
9447.52 -9.5311e-18
9451.29 -1.1504e-18
9455.06 6.0889e-18
9458.82 6.7353e-18
9462.59 -1.7465e-17
9466.36 -2.9288e-17
9470.12 -9.8277e-19
9473.89 9.752e-18
9477.66 1.0944e-18
9481.42 -1.7784e-17
9485.19 -3.7227e-18
9488.96 -6.0657e-18
9492.72 -1.2801e-18
9496.49 4.5816e-18
9500.26 9.2198e-18
9504.02 1.8136e-17
9507.79 -1.1767e-17
9511.56 -1.8976e-17
9515.32 5.3142e-18
9519.09 1.457e-17
9522.86 2.9724e-18
9526.62 -2.0561e-18
9530.39 -1.461e-18
9534.16 -3.6292e-18
9537.92 -1.5778e-18
9541.69 6.1593e-18
9545.46 1.4119e-17
9549.22 2.2089e-17
9552.99 1.2447e-17
9556.76 -5.1137e-18
9560.52 1.5342e-17
9564.29 3.7564e-17
9568.06 2.2061e-17
9571.82 8.8818e-18
9575.59 6.1029e-18
9579.35 -3.0473e-18
9583.12 -6.7812e-18
9586.89 -6.7688e-18
9590.65 -3.7001e-18
9594.42 3.7808e-18
9598.19 1.0117e-17
9601.95 6.9793e-18
9605.72 9.8377e-18
9609.49 6.5156e-18
9613.25 4.4759e-18
9617.02 -2.6517e-19
9620.79 -1.612e-18
9624.55 2.705e-18
9628.32 1.006e-20
9632.09 1.3438e-17
9635.85 9.9777e-18
9639.62 5.2334e-19
9643.39 5.8479e-18
9647.15 5.08e-18
9650.92 2.2805e-18
9654.69 -1.198e-17
9658.45 -9.1857e-18
9662.22 9.561e-19
9665.99 8.1665e-18
9669.75 1.4153e-17
9673.52 1.9046e-17
9677.29 3.3951e-17
9681.05 2.8146e-17
9684.82 1.8433e-17
9688.59 1.2094e-17
9692.35 1.748e-17
9696.12 1.5645e-17
9699.89 -4.1758e-18
9703.65 -1.6682e-17
9707.42 1.4625e-19
9711.19 1.2425e-17
9714.95 -1.8331e-18
9718.72 1.5101e-17
9722.49 2.3878e-17
9726.25 1.2339e-17
9730.02 9.8018e-18
9733.79 1.3542e-19
9737.55 1.379e-17
9741.32 1.1973e-17
9745.09 9.7658e-18
9748.85 -2.5399e-18
9752.62 -7.7835e-18
9756.39 -6.8505e-18
9760.15 -5.3691e-18
9763.92 8.0682e-18
9767.69 8.375e-18
9771.45 -1.0705e-17
9775.22 -3.3293e-18
9778.99 2.0056e-19
9782.75 2.1577e-17
9786.52 2.4301e-17
9790.29 -1.15e-18
9794.05 -1.4421e-17
9797.82 -1.374e-17
9801.59 -4.3427e-18
9805.35 5.0381e-18
9809.12 6.3886e-18
9812.89 1.5876e-17
9816.65 8.73e-18
9820.42 -4.0023e-18
9824.18 3.5378e-18
9827.95 2.6845e-18
9831.72 3.3883e-18
9835.48 1.7007e-17
9839.25 1.0641e-17
9843.02 2.5963e-17
9846.78 1.8752e-17
9850.55 7.4394e-18
9854.32 1.7383e-18
9858.08 1.9232e-18
9861.85 2.2299e-17
9865.62 4.1226e-17
9869.38 4.355e-17
9873.15 1.8758e-17
9876.92 -1.9455e-18
9880.68 4.5792e-18
9884.45 1.076e-17
9888.22 9.1234e-18
9891.98 6.5587e-18
9895.75 -2.7256e-18
9899.52 -1.031e-17
9903.28 -2.9298e-19
9907.05 5.4793e-18
9910.82 2.1815e-17
9914.58 1.556e-17
9918.35 -3.6574e-18
9922.12 -7.9473e-18
9925.88 -7.4757e-19
9929.65 5.0745e-18
9933.42 8.3861e-18
9937.18 1.6328e-17
9940.95 1.8575e-17
9944.72 -2.688e-19
9948.48 -9.7694e-18
9952.25 2.4801e-17
9956.02 2.9133e-17
9959.78 2.2102e-17
9963.55 8.8341e-18
9967.32 3.6953e-18
9971.08 4.9887e-18
9974.85 1.0603e-17
9978.62 9.5888e-18
9982.38 6.7877e-18
9986.15 6.6409e-18
9989.92 8.0211e-18
9993.68 -1.2431e-18
9997.45 9.8732e-18
10001.22 -2.8046e-18
10004.98 2.2804e-17
10008.75 3.5923e-17
10012.52 6.9701e-19
10016.28 -1.4361e-17
10020.05 -7.7177e-18
10023.82 3.824e-18
10027.58 1.2699e-18
10031.35 -5.7125e-19
10035.12 2.6645e-18
10038.88 -1.9487e-20
10042.65 -1.242e-18
10046.42 -7.6052e-18
10050.18 -9.3542e-19
10053.95 7.6939e-18
10057.71 2.8821e-18
10061.48 -5.7735e-18
10065.25 1.428e-18
10069.01 1.9307e-18
10072.78 1.4292e-17
10076.55 2.303e-17
10080.31 1.3612e-17
10084.08 1.1725e-17
10087.85 1.0499e-18
10091.61 -1.2499e-18
10095.38 1.3602e-17
10099.15 1.7499e-17
10102.91 4.9266e-18
10106.68 -4.0477e-18
10110.45 -8.1938e-18
10114.21 8.4516e-18
10117.98 2.2372e-17
10121.75 6.5435e-18
10125.51 -9.9695e-18
10129.28 -1.1398e-17
10133.05 -4.3782e-18
10136.81 2.6134e-18
10140.58 1.2539e-17
10144.35 2.0941e-17
10148.11 8.8428e-18
10151.88 4.3842e-18
10155.65 6.07e-18
10159.41 -5.3472e-18
10163.18 3.4152e-18
10166.95 8.4521e-18
10170.71 8.4393e-19
10174.48 1.1527e-17
10178.25 2.0274e-18
10182.01 -7.1209e-18
10185.78 -2.5045e-18
10189.55 -1.1893e-17
10193.31 -1.2534e-19
10197.08 9.5565e-18
10200.85 8.7525e-18
10204.61 3.2703e-18
10208.38 -5.8227e-18
10212.15 -2.0919e-17
10215.91 -1.9353e-17
10219.68 -1.0231e-17
10223.45 3.6482e-18
10227.21 6.1245e-18
10230.98 5.9173e-18
10234.75 1.4038e-17
10238.51 5.1474e-18
10242.28 -8.2166e-18
10246.05 -3.4565e-18
10249.81 -3.1306e-18
10253.58 4.305e-18
10257.35 1.2271e-17
10261.11 4.3838e-18
10264.88 1.2036e-18
10268.65 -5.8132e-18
10272.41 2.8165e-18
10276.18 -1.2366e-18
10279.95 1.495e-17
10283.71 3.2346e-17
10287.48 6.6423e-18
10291.25 1.7438e-18
10295.01 1.3786e-17
10298.78 9.4483e-18
10302.54 6.1697e-18
10306.31 1.874e-17
10310.08 2.4125e-17
10313.84 1.1111e-17
10317.61 1.3357e-17
10321.38 1.0958e-17
10325.14 1.8634e-18
10328.91 5.8918e-18
10332.68 4.7089e-18
10336.44 -2.754e-18
10340.21 -1.8526e-17
10343.98 -1.2041e-17
10347.74 -1.5843e-18
10351.51 8.884e-18
10355.28 1.6809e-17
10359.04 1.4501e-17
10362.81 -8.1255e-18
10366.58 1.2018e-17
10370.34 -8.702e-18
10374.11 -4.1133e-18
10377.88 9.4157e-18
10381.64 1.2477e-17
10385.41 1.2376e-17
10389.18 -5.3838e-18
10392.94 -1.1429e-17
10396.71 1.4394e-17
10400.48 3.6529e-18
10404.24 1.0541e-17
10408.01 1.9226e-17
10411.78 8.1017e-18
10415.54 3.7499e-18
10419.31 -1.5164e-17
10423.08 -6.0174e-18
10426.84 -1.1156e-17
10430.61 -3.3441e-17
10434.38 2.5043e-18
10438.14 1.2274e-17
10441.91 9.3057e-18
10445.68 2.1414e-17
10449.44 7.2848e-18
10453.21 -2.2716e-18
10456.98 1.5137e-17
10460.74 1.3125e-17
10464.51 8.2768e-18
10468.28 1.0346e-17
10472.04 1.9767e-17
10475.81 7.8314e-18
10479.58 -5.5746e-18
10483.34 8.9659e-18
10487.11 9.233e-18
10490.88 1.9091e-17
10494.64 3.0577e-17
10498.41 1.3605e-17
10502.18 3.4781e-18
10505.94 7.8873e-18
10509.71 -6.3107e-18
10513.48 -6.2068e-18
10517.24 -3.525e-17
10521.01 -4.3217e-17
10524.78 -7.6976e-18
10528.54 -1.3404e-17
10532.31 -1.261e-17
10536.07 9.1528e-18
10539.84 4.8897e-18
10543.61 1.2013e-17
10547.37 1.6948e-17
10551.14 -1.9691e-18
10554.91 -1.2309e-17
10558.67 -1.254e-17
10562.44 1.1686e-17
10566.21 4.868e-17
10569.97 1.9307e-17
10573.74 -8.2292e-18
10577.51 1.4403e-17
10581.27 1.8794e-17
10585.04 2.259e-17
10588.81 1.9844e-17
10592.57 -4.2987e-18
10596.34 -2.0786e-17
10600.11 -1.9512e-17
10603.87 -2.427e-17
10607.64 -3.2385e-17
10611.41 -4.9928e-18
10615.17 3.2186e-17
10618.94 1.5208e-17
10622.71 2.045e-18
10626.47 -4.5002e-18
10630.24 2.3106e-17
10634.01 2.5435e-17
10637.77 8.1649e-18
10641.54 1.0282e-17
10645.31 -7.3e-18
10649.07 -3.6654e-17
10652.84 -1.3169e-17
10656.61 1.5142e-17
10660.37 1.1044e-17
10664.14 2.9172e-17
10667.91 2.4554e-17
10671.67 2.0479e-17
10675.44 4.682e-17
10679.21 9.8119e-18
10682.97 -2.0837e-17
10686.74 -1.1266e-17
10690.51 1.3415e-17
10694.27 2.7142e-17
10698.04 -2.267e-17
10701.81 -3.0452e-17
10705.57 3.7058e-17
10709.34 1.8594e-17
10713.11 1.1904e-17
10716.87 5.2722e-17
10720.64 1.6476e-17
10724.41 -1.1081e-17
10728.17 -3.4885e-17
10731.94 -2.1121e-17
10735.71 -8.2934e-18
10739.47 -4.9453e-17
10743.24 -8.7471e-17
10747.01 -4.6602e-17
10750.77 -1.3061e-17
10754.54 -1.3152e-17
10758.31 -1.104e-17
10762.07 -4.627e-17
10765.84 -4.8638e-17
10769.6 -2.3497e-17
10773.37 -3.6448e-17
10777.14 -2.1847e-17
10780.9 -1.4372e-19
10784.67 -1.8976e-17
10788.44 -4.5151e-17
10792.2 -3.1521e-17
10795.97 -8.7096e-18
10799.74 6.5962e-17
10803.5 4.9686e-17
10807.27 1.6369e-17
10811.04 6.9138e-17
10814.8 -1.6197e-17
10818.57 6.4671e-18
