# wavelength flux
3300.0 1.2723703377238795e-15
3301.0 1.2725868405644038e-15
3302.0 1.2728022696588242e-15
3303.0 1.2730166258606574e-15
3304.0 1.2732299100272226e-15
3305.0 1.2734421230196241e-15
3306.0 1.2736532657027346e-15
3307.0 1.2738633389451772e-15
3308.0 1.27407234361931e-15
3309.0 1.2742802806012083e-15
3310.0 1.2744871507706471e-15
3311.0 1.274692955011086e-15
3312.0 1.2748976942096504e-15
3313.0 1.275101369257115e-15
3314.0 1.2753039810478888e-15
3315.0 1.275505530479995e-15
3316.0 1.2757060184550559e-15
3317.0 1.2759054458782764e-15
3318.0 1.276103813658426e-15
3319.0 1.2763011227078227e-15
3320.0 1.2764973739423156e-15
3321.0 1.2766925682812685e-15
3322.0 1.2768867066475418e-15
3323.0 1.2770797899674781e-15
3324.0 1.277271819170882e-15
3325.0 1.2774627951910062e-15
3326.0 1.2776527189645337e-15
3327.0 1.2778415914315593e-15
3328.0 1.2780294135355759e-15
3329.0 1.2782161862234544e-15
3330.0 1.2784019104454296e-15
3331.0 1.2785865871550814e-15
3332.0 1.2787702173093191e-15
3333.0 1.2789528018683649e-15
3334.0 1.2791343417957351e-15
3335.0 1.2793148380582262e-15
3336.0 1.2794942916258952e-15
3337.0 1.2796727034720459e-15
3338.0 1.2798500745732092e-15
3339.0 1.2800264059091285e-15
3340.0 1.2802016984627417e-15
3341.0 1.2803759532201652e-15
3342.0 1.280549171170677e-15
3343.0 1.2807213533066996e-15
3344.0 1.280892500623784e-15
3345.0 1.2810626141205925e-15
3346.0 1.2812316947988823e-15
3347.0 1.2813997436634893e-15
3348.0 1.2815667617223098e-15
3349.0 1.281732749986286e-15
3350.0 1.281897709469388e-15
3351.0 1.2820616411885977e-15
3352.0 1.2822245461638922e-15
3353.0 1.2823864254182274e-15
3354.0 1.2825472799775206e-15
3355.0 1.2827071108706352e-15
3356.0 1.2828659191293632e-15
3357.0 1.2830237057884093e-15
3358.0 1.2831804718853742e-15
3359.0 1.2833362184607377e-15
3360.0 1.2834909465578424e-15
3361.0 1.2836446572228787e-15
3362.0 1.2837973515048665e-15
3363.0 1.2839490304556388e-15
3364.0 1.2840996951298267e-15
3365.0 1.2842493465848421e-15
3366.0 1.2843979858808613e-15
3367.0 1.2845456140808092e-15
3368.0 1.2846922322503425e-15
3369.0 1.2848378414578333e-15
3370.0 1.2849824427743532e-15
3371.0 1.2851260372736566e-15
3372.0 1.285268626032166e-15
3373.0 1.2854102101289522e-15
3374.0 1.2855507906457223e-15
3375.0 1.2856903686668007e-15
3376.0 1.2858289452791142e-15
3377.0 1.2859665215721746e-15
3378.0 1.2861030986380645e-15
3379.0 1.2862386775714195e-15
3380.0 1.2863732594694124e-15
3381.0 1.2865068454317375e-15
3382.0 1.2866394365605953e-15
3383.0 1.2867710339606744e-15
3384.0 1.2869016387391376e-15
3385.0 1.2870312520056042e-15
3386.0 1.2871598748721355e-15
3387.0 1.2872875084532178e-15
3388.0 1.2874141538657472e-15
3389.0 1.287539812229013e-15
3390.0 1.2876644846646821e-15
3391.0 1.2877881722967832e-15
3392.0 1.2879108762516916e-15
3393.0 1.288032597658112e-15
3394.0 1.2881533376470634e-15
3395.0 1.2882730973518643e-15
3396.0 1.288391877908115e-15
3397.0 1.2885096804536833e-15
3398.0 1.2886265061286888e-15
3399.0 1.2887423560754861e-15
3400.0 1.2888572314386503e-15
3401.0 1.288971133364961e-15
3402.0 1.289084063003387e-15
3403.0 1.2891960215050695e-15
3404.0 1.2893070100233079e-15
3405.0 1.2894170297135446e-15
3406.0 1.289526081733347e-15
3407.0 1.2896341672423954e-15
3408.0 1.2897412874024645e-15
3409.0 1.2898474433774108e-15
3410.0 1.2899526363331543e-15
3411.0 1.2900568674376663e-15
3412.0 1.29016013786095e-15
3413.0 1.2902624487750301e-15
3414.0 1.290363801353933e-15
3415.0 1.2904641967736746e-15
3416.0 1.290563636212243e-15
3417.0 1.2906621208495856e-15
3418.0 1.2907596518675909e-15
3419.0 1.290856230450076e-15
3420.0 1.2909518577827702e-15
3421.0 1.2910465350533002e-15
3422.0 1.2911402634511752e-15
3423.0 1.2912330441677712e-15
3424.0 1.291324878396316e-15
3425.0 1.2914157673318762e-15
3426.0 1.291505712171339e-15
3427.0 1.2915947141133997e-15
3428.0 1.2916827743585464e-15
3429.0 1.291769894109044e-15
3430.0 1.2918560745689198e-15
3431.0 1.2919413169439509e-15
3432.0 1.292025622441645e-15
3433.0 1.2921089922712303e-15
3434.0 1.2921914276436373e-15
3435.0 1.2922729297714856e-15
3436.0 1.2923534998690697e-15
3437.0 1.292433139152343e-15
3438.0 1.2925118488389045e-15
3439.0 1.292589630147983e-15
3440.0 1.292666484300424e-15
3441.0 1.2927424125186735e-15
3442.0 1.2928174160267654e-15
3443.0 1.292891496050305e-15
3444.0 1.2929646538164564e-15
3445.0 1.2930368905539267e-15
3446.0 1.2931082074929529e-15
3447.0 1.2931786058652864e-15
3448.0 1.2932480869041795e-15
3449.0 1.2933166518443707e-15
3450.0 1.2933843019220708e-15
3451.0 1.2934510383749489e-15
3452.0 1.2935168624421167e-15
3453.0 1.2935817753641166e-15
3454.0 1.293645778382906e-15
3455.0 1.2937088727418443e-15
3456.0 1.2937710596856773e-15
3457.0 1.2938323404605251e-15
3458.0 1.293892716313867e-15
3459.0 1.2939521884945273e-15
3460.0 1.294010758252662e-15
3461.0 1.2940684268397455e-15
3462.0 1.294125195508555e-15
3463.0 1.2941810655131586e-15
3464.0 1.2942360381088995e-15
3465.0 1.2942901145523845e-15
3466.0 1.2943432961014688e-15
3467.0 1.2943955840152423e-15
3468.0 1.2944469795540168e-15
3469.0 1.2944974839793117e-15
3470.0 1.2945470985538407e-15
3471.0 1.2945958245414988e-15
3472.0 1.2946436632073463e-15
3473.0 1.2946906158176e-15
3474.0 1.2947366836396143e-15
3475.0 1.2947818679418721e-15
3476.0 1.2948261699939696e-15
3477.0 1.2948695910666022e-15
3478.0 1.2949121324315535e-15
3479.0 1.294953795361679e-15
3480.0 1.2949945811308963e-15
3481.0 1.2950344910141693e-15
3482.0 1.2950735262874955e-15
3483.0 1.2951116882278937e-15
3484.0 1.2951489781133904e-15
3485.0 1.2951853972230066e-15
3486.0 1.2952209468367445e-15
3487.0 1.2952556282355764e-15
3488.0 1.2952894427014286e-15
3489.0 1.2953223915171715e-15
3490.0 1.295354475966604e-15
3491.0 1.2953856973344433e-15
3492.0 1.29541605690631e-15
3493.0 1.2954455559687164e-15
3494.0 1.2954741958090541e-15
3495.0 1.2955019777155792e-15
3496.0 1.2955289029774024e-15
3497.0 1.2955549728844746e-15
3498.0 1.2955801887275749e-15
3499.0 1.2956045517982971e-15
3500.0 1.2956280633890394e-15
3500.78 1.3826e-15
3503.73 1.41e-15
3506.67 1.3921e-15
3509.61 1.3378e-15
3512.55 1.4385e-15
3515.49 1.363e-15
3518.43 1.2793e-15
3521.37 1.2855e-15
3524.31 1.4662e-15
3527.25 1.2562e-15
3530.2 1.2276e-15
3533.14 1.3236e-15
3536.08 1.2709e-15
3539.02 1.374e-15
3541.96 1.2866e-15
3544.9 1.3604e-15
3547.84 1.3198e-15
3550.78 1.4069e-15
3553.72 1.4132e-15
3556.67 1.2788e-15
3559.61 1.2078e-15
3562.55 1.3506e-15
3565.49 1.3488e-15
3568.43 1.3534e-15
3571.37 1.4201e-15
3574.31 1.3136e-15
3577.25 1.3984e-15
3580.19 1.3657e-15
3583.14 1.4301e-15
3586.08 1.1753e-15
3589.02 1.3051e-15
3591.96 1.2825e-15
3594.9 1.3906e-15
3597.84 1.2833e-15
3600.78 1.2946e-15
3603.72 1.1716e-15
3606.66 1.0633e-15
3609.61 1.0873e-15
3612.55 1.1969e-15
3615.49 1.2075e-15
3618.43 1.282e-15
3621.37 1.1829e-15
3624.31 1.1845e-15
3627.25 1.1381e-15
3630.19 1.1244e-15
3633.13 1.1635e-15
3636.08 1.1626e-15
3639.02 1.2173e-15
3641.96 1.1858e-15
3644.9 1.1316e-15
3647.84 1.1223e-15
3650.78 1.2346e-15
3653.72 1.2519e-15
3656.66 1.2283e-15
3659.6 1.2165e-15
3662.55 1.2832e-15
3665.49 1.2457e-15
3668.43 1.4282e-15
3671.37 1.3849e-15
3674.31 1.301e-15
3677.25 1.3507e-15
3680.19 1.38e-15
3683.13 1.429e-15
3686.07 1.3292e-15
3689.02 1.3925e-15
3691.96 1.3749e-15
3694.9 1.3153e-15
3697.84 1.4071e-15
3700.78 1.3469e-15
3703.72 1.2975e-15
3706.66 1.2518e-15
3709.6 1.2684e-15
3712.54 1.3305e-15
3715.49 1.3275e-15
3718.43 1.3523e-15
3721.37 1.3118e-15
3724.31 1.2883e-15
3727.25 1.2548e-15
3730.19 1.2557e-15
3733.13 1.3235e-15
3736.07 1.3161e-15
3739.01 1.258e-15
3741.96 1.2311e-15
3744.9 1.2183e-15
3747.84 1.2492e-15
3750.78 1.2422e-15
3753.72 1.2349e-15
3756.66 1.197e-15
3759.6 1.1444e-15
3762.54 1.1772e-15
3765.48 1.2759e-15
3768.43 1.2833e-15
3771.37 1.317e-15
3774.31 1.3461e-15
3777.25 1.2648e-15
3780.19 1.3405e-15
3783.13 1.3454e-15
3786.07 1.2451e-15
3789.01 1.2754e-15
3791.95 1.2289e-15
3794.9 1.2561e-15
3797.84 1.2324e-15
3800.78 1.2218e-15
3803.72 1.2095e-15
3806.66 1.2848e-15
3809.6 1.2506e-15
3812.54 1.2615e-15
3815.48 1.2798e-15
3818.42 1.3153e-15
3821.37 1.3048e-15
3824.31 1.3005e-15
3827.25 1.4078e-15
3830.19 1.3557e-15
3833.13 1.3252e-15
3836.07 1.2719e-15
3839.01 1.292e-15
3841.95 1.2961e-15
3844.89 1.3021e-15
3847.84 1.2049e-15
3850.78 1.268e-15
3853.72 1.3139e-15
3856.66 1.2428e-15
3859.6 1.2387e-15
3862.54 1.2204e-15
3865.48 1.1203e-15
3868.42 1.1667e-15
3871.36 1.1506e-15
3874.31 1.1421e-15
3877.25 1.2524e-15
3880.19 1.2109e-15
3883.13 1.2319e-15
3886.07 1.2472e-15
3889.01 1.2783e-15
3891.95 1.2784e-15
3894.89 1.3173e-15
3897.83 1.291e-15
3900.78 1.3038e-15
3903.72 1.2709e-15
3906.66 1.2591e-15
3909.6 1.242e-15
3912.54 1.2e-15
3915.48 1.2173e-15
3918.42 1.2865e-15
3921.36 1.2306e-15
3924.3 1.2487e-15
3927.25 1.2129e-15
3930.19 1.1679e-15
3933.13 1.1193e-15
3936.07 1.0587e-15
3939.01 1.0411e-15
3941.95 1.1221e-15
3944.89 1.2097e-15
3947.83 1.1549e-15
3950.77 1.2358e-15
3953.72 1.2286e-15
3956.66 1.2653e-15
3959.6 1.3632e-15
3962.54 1.3097e-15
3965.48 1.2237e-15
3968.42 1.2413e-15
3971.36 1.2469e-15
3974.3 1.2173e-15
3977.24 1.1978e-15
3980.19 1.1671e-15
3983.13 1.1941e-15
3986.07 1.1966e-15
3989.01 1.2106e-15
3991.95 1.2446e-15
3994.89 1.1759e-15
3997.83 1.1495e-15
4000.77 1.1993e-15
4003.71 1.1118e-15
4006.66 1.1429e-15
4009.6 1.1258e-15
4012.54 1.1521e-15
4015.48 1.1441e-15
4018.42 1.1439e-15
4021.36 1.1629e-15
4024.3 1.1754e-15
4027.24 1.2009e-15
4030.18 1.1966e-15
4033.13 1.2195e-15
4036.07 1.2051e-15
4039.01 1.1995e-15
4041.95 1.2011e-15
4044.89 1.1852e-15
4047.83 1.2388e-15
4050.77 1.2109e-15
4053.71 1.2059e-15
4056.65 1.2095e-15
4059.6 1.1737e-15
4062.54 1.1488e-15
4065.48 1.1363e-15
4068.42 1.1253e-15
4071.36 1.093e-15
4074.3 1.1264e-15
4077.24 1.0826e-15
4080.18 1.0714e-15
4083.12 1.0889e-15
4086.07 1.1268e-15
4089.01 1.2048e-15
4091.95 1.2342e-15
4094.89 1.2958e-15
4097.83 1.2948e-15
4100.77 1.2758e-15
4103.71 1.2513e-15
4106.65 1.2352e-15
4109.59 1.2978e-15
4112.54 1.2353e-15
4115.48 1.2395e-15
4118.42 1.2243e-15
4121.36 1.2597e-15
4124.3 1.2394e-15
4127.24 1.2745e-15
4130.18 1.2336e-15
4133.12 1.1703e-15
4136.06 1.2255e-15
4139.01 1.1886e-15
4141.95 1.2232e-15
4144.89 1.2073e-15
4147.83 1.2351e-15
4150.77 1.2272e-15
4153.71 1.1867e-15
4156.65 1.2244e-15
4159.59 1.1718e-15
4162.53 1.1327e-15
4165.48 1.1738e-15
4168.42 1.1522e-15
4171.36 1.1818e-15
4174.3 1.1698e-15
4177.24 1.1217e-15
4180.18 1.1338e-15
4183.12 1.1417e-15
4186.06 1.1674e-15
4189.0 1.2063e-15
4191.95 1.1747e-15
4194.89 1.2371e-15
4197.83 1.2003e-15
4200.77 1.2209e-15
4203.71 1.2133e-15
4206.65 1.2369e-15
4209.59 1.2769e-15
4212.53 1.2858e-15
4215.47 1.2519e-15
4218.42 1.2844e-15
4221.36 1.3249e-15
4224.3 1.2978e-15
4227.24 1.2745e-15
4230.18 1.2955e-15
4233.12 1.2894e-15
4236.06 1.2674e-15
4239.0 1.273e-15
4241.94 1.3428e-15
4244.89 1.2625e-15
4247.83 1.226e-15
4250.77 1.2871e-15
4253.71 1.2676e-15
4256.65 1.2728e-15
4259.59 1.2908e-15
4262.53 1.224e-15
4265.47 1.1854e-15
4268.41 1.1689e-15
4271.36 1.2096e-15
4274.3 1.1908e-15
4277.24 1.1906e-15
4280.18 1.2215e-15
4283.12 1.1947e-15
4286.06 1.1664e-15
4289.0 1.1207e-15
4291.94 1.1197e-15
4294.89 1.1664e-15
4297.83 1.1341e-15
4300.77 1.1346e-15
4303.71 1.1484e-15
4306.65 1.1118e-15
4309.59 1.1153e-15
4312.53 1.1058e-15
4315.47 1.1394e-15
4318.41 1.1519e-15
4321.36 1.178e-15
4324.3 1.2089e-15
4327.24 1.1625e-15
4330.18 1.1817e-15
4333.12 1.2174e-15
4336.06 1.1676e-15
4339.0 1.2256e-15
4341.94 1.1881e-15
4344.88 1.1649e-15
4347.83 1.186e-15
4350.77 1.1615e-15
4353.71 1.169e-15
4356.65 1.1648e-15
4359.59 1.1374e-15
4362.53 1.125e-15
4365.47 1.1214e-15
4368.41 1.1142e-15
4371.35 1.1119e-15
4374.3 1.1222e-15
4377.24 1.1175e-15
4380.18 1.1517e-15
4383.12 1.1301e-15
4386.06 1.1042e-15
4389.0 1.1081e-15
4391.94 1.0907e-15
4394.88 1.1224e-15
4397.82 1.076e-15
4400.77 1.0867e-15
4403.71 1.1177e-15
4406.65 1.1139e-15
4409.59 1.1656e-15
4412.53 1.1516e-15
4415.47 1.1174e-15
4418.41 1.0907e-15
4421.35 1.0629e-15
4424.29 1.121e-15
4427.24 1.0895e-15
4430.18 1.0957e-15
4433.12 1.0759e-15
4436.06 1.089e-15
4439.0 1.0708e-15
4441.94 1.0322e-15
4444.88 1.0377e-15
4447.82 1.0409e-15
4450.76 1.0566e-15
4453.71 1.0845e-15
4456.65 1.0952e-15
4459.59 1.0987e-15
4462.53 1.1592e-15
4465.47 1.1587e-15
4468.41 1.1036e-15
4471.35 1.1157e-15
4474.29 1.12e-15
4477.23 1.098e-15
4480.18 1.0854e-15
4483.12 1.052e-15
4486.06 1.0559e-15
4489.0 1.0623e-15
4491.94 1.0688e-15
4494.88 1.0573e-15
4497.82 1.049e-15
4500.76 1.0498e-15
4503.7 1.039e-15
4506.65 1.0415e-15
4509.59 1.0501e-15
4512.53 1.0388e-15
4515.47 1.0362e-15
4518.41 1.0051e-15
4521.35 9.4433e-16
4524.29 8.993e-16
4527.23 8.9872e-16
4530.17 9.0361e-16
4533.12 8.9472e-16
4536.06 9.6781e-16
4539.0 9.7137e-16
4541.94 1.0416e-15
4544.88 1.1142e-15
4547.82 1.1448e-15
4550.76 1.2038e-15
4553.7 1.2168e-15
4556.64 1.1883e-15
4559.59 1.2023e-15
4562.53 1.1902e-15
4565.47 1.1683e-15
4568.41 1.1364e-15
4571.35 1.1046e-15
4574.29 1.1325e-15
4577.23 1.1069e-15
4580.17 1.0946e-15
4583.11 1.0832e-15
4586.06 1.094e-15
4589.0 1.0878e-15
4591.94 1.0842e-15
4594.88 1.0683e-15
4597.82 1.0484e-15
4600.76 1.0581e-15
4603.7 1.0562e-15
4606.64 1.0743e-15
4609.58 1.0905e-15
4612.53 1.0652e-15
4615.47 1.0586e-15
4618.41 1.0646e-15
4621.35 1.0699e-15
4624.29 1.0529e-15
4627.23 1.0533e-15
4630.17 1.067e-15
4633.11 1.0856e-15
4636.05 1.065e-15
4639.0 1.104e-15
4641.94 1.0916e-15
4644.88 1.06e-15
4647.82 1.0914e-15
4650.76 1.0788e-15
4653.7 1.0405e-15
4656.64 1.0643e-15
4659.58 1.087e-15
4662.52 1.0582e-15
4665.47 1.0397e-15
4668.41 1.0294e-15
4671.35 1.0091e-15
4674.29 9.7301e-16
4677.23 1.0036e-15
4680.17 1.021e-15
4683.11 1.0027e-15
4686.05 9.8831e-16
4688.99 9.9272e-16
4691.94 1.006e-15
4694.88 1.0102e-15
4697.82 1.0061e-15
4700.76 9.7009e-16
4703.7 9.8788e-16
4706.64 1.0123e-15
4709.58 1.0272e-15
4712.52 1.0179e-15
4715.46 1.0043e-15
4718.41 1.0341e-15
4721.35 1.0441e-15
4724.29 1.0159e-15
4727.23 1.0382e-15
4730.17 1.0269e-15
4733.11 1.0407e-15
4736.05 1.0168e-15
4738.99 1.0422e-15
4741.93 1.0378e-15
4744.88 1.0604e-15
4747.82 1.0422e-15
4750.76 1.059e-15
4753.7 1.0121e-15
4756.64 9.8387e-16
4759.58 1.0191e-15
4762.52 9.7829e-16
4765.46 9.6246e-16
4768.4 9.9711e-16
4771.35 9.7558e-16
4774.29 9.6272e-16
4777.23 9.791e-16
4780.17 9.8984e-16
4783.11 9.945e-16
4786.05 9.7631e-16
4788.99 1.0028e-15
4791.93 1.0223e-15
4794.87 1.0119e-15
4797.82 1.0338e-15
4800.76 1.0431e-15
4803.7 1.0086e-15
4806.64 1.0055e-15
4809.58 1.0271e-15
4812.52 1.0258e-15
4815.46 9.976e-16
4818.4 9.7478e-16
4821.34 9.9145e-16
4824.29 1.0238e-15
4827.23 1.008e-15
4830.17 9.9357e-16
4833.11 9.7327e-16
4836.05 9.7393e-16
4838.99 9.6761e-16
4841.93 9.4941e-16
4844.87 9.5759e-16
4847.81 9.4625e-16
4850.76 9.4745e-16
4853.7 9.6219e-16
4856.64 9.5704e-16
4859.58 9.6372e-16
4862.52 9.6161e-16
4865.46 9.483e-16
4868.4 9.4858e-16
4871.34 9.6982e-16
4874.28 9.7925e-16
4877.23 9.6702e-16
4880.17 9.5373e-16
4883.11 9.4092e-16
4886.05 9.6959e-16
4888.99 9.6976e-16
4891.93 9.5068e-16
4894.87 9.5214e-16
4897.81 9.7174e-16
4900.75 9.6822e-16
4903.7 9.627e-16
4906.64 9.5961e-16
4909.58 9.6237e-16
4912.52 9.5188e-16
4915.46 9.3419e-16
4918.4 9.356e-16
4921.34 9.4968e-16
4924.28 9.4718e-16
4927.22 9.1636e-16
4930.17 9.1991e-16
4933.11 9.3011e-16
4936.05 9.2706e-16
4938.99 9.1216e-16
4941.93 9.1873e-16
4944.87 9.1668e-16
4947.81 9.2191e-16
4950.75 9.2167e-16
4953.69 9.2727e-16
4956.64 9.3832e-16
4959.58 9.0933e-16
4962.52 9.2457e-16
4965.46 9.0443e-16
4968.4 9.0102e-16
4971.34 8.9005e-16
4974.28 8.8793e-16
4977.22 8.9509e-16
4980.16 8.5907e-16
4983.11 8.5518e-16
4986.05 8.2584e-16
4988.99 8.3179e-16
4991.93 8.4813e-16
4994.87 8.7118e-16
4997.81 8.9253e-16
5000.75 9.3094e-16
5003.69 9.4498e-16
5006.63 9.6124e-16
5009.58 9.7248e-16
5012.52 9.6374e-16
5015.46 9.8757e-16
5018.4 9.9355e-16
5021.34 9.715e-16
5024.28 9.6479e-16
5027.22 9.537e-16
5030.16 9.4322e-16
5033.1 9.4122e-16
5036.05 9.4024e-16
5038.99 9.3302e-16
5041.93 9.1349e-16
5044.87 9.0743e-16
5047.81 9.0359e-16
5050.75 8.9206e-16
5053.69 8.897e-16
5056.63 8.7799e-16
5059.57 8.874e-16
5062.52 8.5012e-16
5065.46 8.6958e-16
5068.4 8.5313e-16
5071.34 8.4249e-16
5074.28 8.4578e-16
5077.22 8.097e-16
5080.16 7.8192e-16
5083.1 8.0294e-16
5086.04 8.1842e-16
5088.99 8.5073e-16
5091.93 8.6685e-16
5094.87 8.804e-16
5097.81 9.0677e-16
5100.75 9.2327e-16
5103.69 9.6481e-16
5106.63 9.5353e-16
5109.57 9.4526e-16
5112.51 9.4228e-16
5115.46 9.3268e-16
5118.4 9.4704e-16
5121.34 9.4046e-16
5124.28 9.4378e-16
5127.22 9.4844e-16
5130.16 9.2318e-16
5133.1 9.145e-16
5136.04 9.378e-16
5138.98 9.4027e-16
5141.93 9.2533e-16
5144.87 9.143e-16
5147.81 9.0873e-16
5150.75 9.114e-16
5153.69 8.9425e-16
5156.63 9.0287e-16
5159.57 8.9102e-16
5162.51 8.9944e-16
5165.46 9.0704e-16
5168.4 8.9123e-16
5171.34 9.0369e-16
5174.28 9.091e-16
5177.22 8.9931e-16
5180.16 8.9431e-16
5183.1 8.9783e-16
5186.04 8.7761e-16
5188.98 8.7833e-16
5191.93 8.9049e-16
5194.87 8.7483e-16
5197.81 8.7248e-16
5200.75 8.7212e-16
5203.69 8.7161e-16
5206.63 8.7708e-16
5209.57 8.6545e-16
5212.51 8.9047e-16
5215.45 8.9911e-16
5218.4 8.8806e-16
5221.34 8.7708e-16
5224.28 8.7383e-16
5227.22 8.6708e-16
5230.16 8.6872e-16
5233.1 8.9244e-16
5236.04 8.9581e-16
5238.98 8.9829e-16
5241.92 8.9715e-16
5244.87 8.9396e-16
5247.81 9.0707e-16
5250.75 8.939e-16
5253.69 9.0186e-16
5256.63 8.863e-16
5259.57 8.8672e-16
5262.51 8.8807e-16
5265.45 8.9742e-16
5268.39 9.0188e-16
5271.34 8.9259e-16
5274.28 8.9199e-16
5277.22 8.7941e-16
5280.16 8.9502e-16
5283.1 8.8446e-16
5286.04 8.8196e-16
5288.98 8.7423e-16
5291.92 8.7332e-16
5294.86 8.8308e-16
5297.81 8.7964e-16
5300.75 8.531e-16
5303.69 8.6579e-16
5306.63 8.7082e-16
5309.57 8.6068e-16
5312.51 8.7587e-16
5315.45 8.6888e-16
5318.39 8.7088e-16
5321.33 8.7261e-16
5324.28 8.7269e-16
5327.22 8.9168e-16
5330.16 8.669e-16
5333.1 8.5247e-16
5336.04 8.3991e-16
5338.98 8.5769e-16
5341.92 8.7263e-16
5344.86 8.4568e-16
5347.8 8.5838e-16
5350.75 8.5358e-16
5353.69 8.598e-16
5356.63 8.791e-16
5359.57 8.625e-16
5362.51 8.4977e-16
5365.45 8.6956e-16
5368.39 8.5292e-16
5371.33 8.4961e-16
5374.27 8.5674e-16
5377.22 8.5699e-16
5380.16 8.5637e-16
5383.1 8.558e-16
5386.04 8.4974e-16
5388.98 8.3329e-16
5391.92 8.5618e-16
5394.86 8.743e-16
5397.8 8.5886e-16
5400.74 8.7095e-16
5403.69 8.5062e-16
5406.63 8.6229e-16
5409.57 8.8151e-16
5412.51 8.4824e-16
5415.45 8.251e-16
5418.39 8.2691e-16
5421.33 8.392e-16
5424.27 8.443e-16
5427.21 8.4593e-16
5430.16 8.3366e-16
5433.1 8.241e-16
5436.04 8.3051e-16
5438.98 8.2745e-16
5441.92 8.3368e-16
5444.86 8.4197e-16
5447.8 8.3542e-16
5450.74 8.1569e-16
5453.68 8.0582e-16
5456.63 8.2512e-16
5459.57 8.2576e-16
5462.51 8.0778e-16
5465.45 7.9218e-16
5468.39 7.7962e-16
5471.33 7.9764e-16
5474.27 8.0674e-16
5477.21 7.7882e-16
5480.15 7.6546e-16
5483.1 7.8434e-16
5486.04 7.8179e-16
5488.98 7.688e-16
5491.92 7.9103e-16
5494.86 7.9572e-16
5497.8 7.8872e-16
5500.74 7.8001e-16
5503.68 7.7895e-16
5506.62 7.9091e-16
5509.57 7.8862e-16
5512.51 7.7675e-16
5515.45 7.7242e-16
5518.39 7.8147e-16
5521.33 8.0124e-16
5524.27 7.9264e-16
5527.21 7.7965e-16
5530.15 7.8403e-16
5533.09 7.9406e-16
5536.04 8.02e-16
5538.98 7.9895e-16
5541.92 7.7901e-16
5544.86 7.7265e-16
5547.8 7.7139e-16
5550.74 7.8284e-16
5553.68 7.8703e-16
5556.62 7.7697e-16
5559.56 7.729e-16
5562.51 7.8409e-16
5565.45 8.0076e-16
5568.39 8.02e-16
5571.33 7.8587e-16
5574.27 7.8647e-16
5577.21 7.9291e-16
5580.15 7.8662e-16
5583.09 7.9437e-16
5586.03 7.7853e-16
5588.98 7.8056e-16
5591.92 7.8731e-16
5594.86 7.708e-16
5597.8 7.7745e-16
5600.74 7.6993e-16
5603.68 7.4781e-16
5606.62 7.6762e-16
5609.56 7.5837e-16
5612.5 7.5642e-16
5615.45 7.5637e-16
5618.39 7.5439e-16
5621.33 7.5665e-16
5624.27 7.659e-16
5627.21 7.7086e-16
5630.15 7.5223e-16
5633.09 7.3917e-16
5636.03 7.4362e-16
5638.97 7.4349e-16
5641.92 7.4639e-16
5644.86 7.4455e-16
5647.8 7.6333e-16
5650.74 7.5778e-16
5653.68 7.364e-16
5656.62 7.2581e-16
5659.56 7.384e-16
5662.5 7.3945e-16
5665.44 7.1868e-16
5668.39 7.2602e-16
5671.33 7.2464e-16
5674.27 7.035e-16
5677.21 7.1182e-16
5680.15 7.3881e-16
5683.09 7.433e-16
5686.03 7.2033e-16
5688.97 7.023e-16
5691.91 7.1739e-16
5694.86 7.2466e-16
5697.8 7.0643e-16
5700.74 6.9529e-16
5703.68 7.259e-16
5706.62 7.2109e-16
5709.56 6.855e-16
5712.5 6.8867e-16
5715.44 6.8618e-16
5718.38 7.0826e-16
5721.33 7.1669e-16
5724.27 6.9145e-16
5727.21 6.8977e-16
5730.15 6.9217e-16
5733.09 6.7916e-16
5736.03 6.8103e-16
5738.97 6.8318e-16
5741.91 6.6943e-16
5744.85 6.5704e-16
5747.8 6.6461e-16
5750.74 6.6878e-16
5753.68 6.527e-16
5756.62 6.419e-16
5759.56 6.5876e-16
5762.5 6.6604e-16
5765.44 6.7585e-16
5768.38 7.0259e-16
5771.32 6.8951e-16
5774.27 6.9195e-16
5777.21 7.0808e-16
5780.15 6.9854e-16
5783.09 6.9362e-16
5786.03 6.8812e-16
5788.97 6.9003e-16
5791.91 7.1936e-16
5794.85 7.0883e-16
5797.79 6.8255e-16
5800.74 6.9909e-16
5803.68 7.1133e-16
5806.62 7.0506e-16
5809.56 7.0381e-16
5812.5 6.9846e-16
5815.44 7.0553e-16
5818.38 6.9471e-16
5821.32 6.8811e-16
5824.26 6.9885e-16
5827.21 6.9693e-16
5830.15 6.9559e-16
5833.09 7.1121e-16
5836.03 7.0896e-16
5838.97 6.9096e-16
5841.91 6.9195e-16
5844.85 6.9528e-16
5847.79 6.8985e-16
5850.73 6.8703e-16
5853.68 7.1128e-16
5856.62 6.8823e-16
5859.56 6.7988e-16
5862.5 6.8269e-16
5865.44 6.9041e-16
5868.38 6.7452e-16
5871.32 6.6225e-16
5874.26 6.7383e-16
5877.2 6.6767e-16
5880.15 6.4495e-16
5883.09 6.3533e-16
5886.03 6.3931e-16
5888.97 6.5773e-16
5891.91 6.5895e-16
5894.85 6.3873e-16
5897.79 6.2569e-16
5900.73 6.2986e-16
5903.67 6.5536e-16
5906.62 6.3612e-16
5909.56 6.4855e-16
5912.5 6.5008e-16
5915.44 6.4469e-16
5918.38 6.2456e-16
5921.32 6.1258e-16
5924.26 6.2214e-16
5927.2 6.2025e-16
5930.14 6.1493e-16
5933.09 6.0613e-16
5936.03 5.9619e-16
5938.97 5.8049e-16
5941.91 5.4291e-16
5944.85 5.2671e-16
5947.79 5.0138e-16
5950.73 5.0425e-16
5953.67 5.0263e-16
5956.61 5.3004e-16
5959.56 5.9136e-16
5962.5 6.1682e-16
5965.44 6.6786e-16
5968.38 7.5691e-16
5971.32 8.1051e-16
5974.26 8.3172e-16
5977.2 8.4694e-16
5980.14 8.6881e-16
5983.08 8.5803e-16
5986.03 8.5424e-16
5988.97 8.142e-16
5991.91 8.0511e-16
5994.85 7.8271e-16
5997.79 7.5409e-16
6000.73 7.565e-16
6003.67 7.4605e-16
6006.61 7.419e-16
6009.56 7.4043e-16
6012.5 7.4247e-16
6015.44 7.3933e-16
6018.38 7.0487e-16
6021.32 7.0362e-16
6024.26 7.2522e-16
6027.2 7.1691e-16
6030.14 7.1e-16
6033.08 7.0825e-16
6036.03 6.9815e-16
6038.97 7.0459e-16
6041.91 7.0279e-16
6044.85 6.9232e-16
6047.79 7.039e-16
6050.73 7.1103e-16
6053.67 6.7946e-16
6056.61 6.6277e-16
6059.55 6.7783e-16
6062.5 6.7281e-16
6065.44 6.7424e-16
6068.38 6.945e-16
6071.32 6.9962e-16
6074.26 6.8166e-16
6077.2 6.8431e-16
6080.14 6.743e-16
6083.08 6.7753e-16
6086.02 6.7059e-16
6088.97 6.6894e-16
6091.91 6.6216e-16
6094.85 6.5844e-16
6097.79 6.5825e-16
6100.73 6.5138e-16
6103.67 6.5791e-16
6106.61 6.6421e-16
6109.55 6.6029e-16
6112.49 6.4898e-16
6115.44 6.4641e-16
6118.38 6.463e-16
6121.32 6.4279e-16
6124.26 6.5655e-16
6127.2 6.4737e-16
6130.14 6.3087e-16
6133.08 6.4249e-16
6136.02 6.4182e-16
6138.96 6.2369e-16
6141.91 6.2482e-16
6144.85 6.2904e-16
6147.79 6.206e-16
6150.73 6.1893e-16
6153.67 6.3363e-16
6156.61 6.2674e-16
6159.55 6.3267e-16
6162.49 6.196e-16
6165.43 6.2741e-16
6168.38 6.4015e-16
6171.32 6.2004e-16
6174.26 6.1391e-16
6177.2 6.2345e-16
6180.14 6.1911e-16
6183.08 6.1465e-16
6186.02 6.1557e-16
6188.96 6.1841e-16
6191.9 6.1232e-16
6194.85 6.0928e-16
6197.79 6.3284e-16
6200.73 6.3072e-16
6203.67 6.3725e-16
6206.61 6.3975e-16
6209.55 6.1847e-16
6212.49 6.1543e-16
6215.43 6.2298e-16
6218.37 6.1977e-16
6221.32 6.1417e-16
6224.26 6.1108e-16
6227.2 6.1835e-16
6230.14 6.2062e-16
6233.08 6.1782e-16
6236.02 6.3323e-16
6238.96 6.1971e-16
6241.9 6.0963e-16
6244.84 6.1043e-16
6247.79 6.1037e-16
6250.73 6.3236e-16
6253.67 6.2482e-16
6256.61 6.0508e-16
6259.55 6.1537e-16
6262.49 6.2669e-16
6265.43 6.2579e-16
6268.37 6.1155e-16
6271.31 6.1357e-16
6274.26 6.007e-16
6277.2 5.9062e-16
6280.14 5.9992e-16
6283.08 5.8047e-16
6286.02 6.0266e-16
6288.96 6.0051e-16
6291.9 6.032e-16
6294.84 6.1462e-16
6297.78 5.9842e-16
6300.73 5.9138e-16
6303.67 5.9233e-16
6306.61 5.9578e-16
6309.55 6.0331e-16
6312.49 5.9737e-16
6315.43 5.9205e-16
6318.37 5.9206e-16
6321.31 6.1236e-16
6324.25 5.983e-16
6327.2 5.8242e-16
6330.14 5.9218e-16
6333.08 6.0587e-16
6336.02 6.0944e-16
6338.96 6.0447e-16
6341.9 5.9091e-16
6344.84 5.7982e-16
6347.78 5.9488e-16
6350.72 5.9842e-16
6353.67 5.8939e-16
6356.61 5.6958e-16
6359.55 5.8258e-16
6362.49 5.812e-16
6365.43 5.6752e-16
6368.37 5.6325e-16
6371.31 5.7211e-16
6374.25 5.7448e-16
6377.19 5.6177e-16
6380.14 5.5646e-16
6383.08 5.5603e-16
6386.02 5.667e-16
6388.96 5.6206e-16
6391.9 5.5153e-16
6394.84 5.4642e-16
6397.78 5.54e-16
6400.72 5.5205e-16
6403.66 5.4568e-16
6406.61 5.5925e-16
6409.55 5.5528e-16
6412.49 5.4049e-16
6415.43 5.4878e-16
6418.37 5.4074e-16
6421.31 5.4278e-16
6424.25 5.5211e-16
6427.19 5.6529e-16
6430.13 5.5335e-16
6433.08 5.6215e-16
6436.02 5.6096e-16
6438.96 5.5455e-16
6441.9 5.6171e-16
6444.84 5.6671e-16
6447.78 5.7443e-16
6450.72 5.9013e-16
6453.66 5.8419e-16
6456.6 5.7183e-16
6459.55 5.8729e-16
6462.49 5.8045e-16
6465.43 5.7739e-16
6468.37 5.728e-16
6471.31 5.7461e-16
6474.25 5.9839e-16
6477.19 6.0004e-16
6480.13 5.7792e-16
6483.07 5.8606e-16
6486.02 6.0372e-16
6488.96 5.9752e-16
6491.9 6.0227e-16
6494.84 6.0385e-16
6497.78 6.0752e-16
6500.72 5.9561e-16
6503.66 6.2522e-16
6506.6 6.0203e-16
6509.54 5.9668e-16
6512.49 6.029e-16
6515.43 5.8961e-16
6518.37 5.9378e-16
6521.31 6.0246e-16
6524.25 5.937e-16
6527.19 5.9532e-16
6530.13 5.9487e-16
6533.07 5.9741e-16
6536.01 5.8898e-16
6538.96 5.6175e-16
6541.9 5.7633e-16
6544.84 5.8582e-16
6547.78 5.6569e-16
6550.72 5.7045e-16
6553.66 5.7907e-16
6556.6 5.7728e-16
6559.54 5.8788e-16
6562.48 5.7399e-16
6565.43 5.6271e-16
6568.37 5.6816e-16
6571.31 5.5043e-16
6574.25 5.4345e-16
6577.19 5.4962e-16
6580.13 5.3921e-16
6583.07 5.3811e-16
6586.01 5.5191e-16
6588.95 5.5566e-16
6591.9 5.4124e-16
6594.84 5.3568e-16
6597.78 5.4549e-16
6600.72 5.2784e-16
6603.66 5.276e-16
6606.6 5.4432e-16
6609.54 5.2727e-16
6612.48 5.1283e-16
6615.42 5.0924e-16
6618.37 5.0676e-16
6621.31 5.0196e-16
6624.25 5.2267e-16
6627.19 5.2767e-16
6630.13 5.043e-16
6633.07 5.2867e-16
6636.01 5.2288e-16
6638.95 4.9845e-16
6641.89 4.8457e-16
6644.84 4.8446e-16
6647.78 4.8502e-16
6650.72 4.8756e-16
6653.66 4.6269e-16
6656.6 4.8586e-16
6659.54 5.2564e-16
6662.48 5.2202e-16
6665.42 5.2984e-16
6668.36 5.1467e-16
6671.31 5.0042e-16
6674.25 5.146e-16
6677.19 5.303e-16
6680.13 5.3821e-16
6683.07 5.4336e-16
6686.01 5.593e-16
6688.95 5.7011e-16
6691.89 5.6006e-16
6694.83 5.6413e-16
6697.78 5.827e-16
6700.72 5.6581e-16
6703.66 5.4159e-16
6706.6 5.5011e-16
6709.54 5.6478e-16
6712.48 5.5211e-16
6715.42 5.4975e-16
6718.36 5.7425e-16
6721.3 5.5704e-16
6724.25 5.3112e-16
6727.19 5.3432e-16
6730.13 5.3156e-16
6733.07 5.254e-16
6736.01 5.3004e-16
6738.95 5.2724e-16
6741.89 5.3038e-16
6744.83 5.0404e-16
6747.77 4.9492e-16
6750.72 4.8035e-16
6753.66 4.8156e-16
6756.6 4.7203e-16
6759.54 4.4697e-16
6762.48 4.2919e-16
6765.42 4.2088e-16
6768.36 4.2528e-16
6771.3 4.3722e-16
6774.24 4.5928e-16
6777.19 4.7073e-16
6780.13 5.0146e-16
6783.07 5.505e-16
6786.01 5.7406e-16
6788.95 5.8737e-16
6791.89 5.9097e-16
6794.83 5.9274e-16
6797.77 6.096e-16
6800.71 6.168e-16
6803.66 6.0539e-16
6806.6 5.9704e-16
6809.54 5.9418e-16
6812.48 5.9032e-16
6815.42 5.9561e-16
6818.36 5.6669e-16
6821.3 5.5396e-16
6824.24 5.4587e-16
6827.18 5.3855e-16
6830.13 5.3937e-16
6833.07 5.3104e-16
6836.01 5.2529e-16
6838.95 5.2289e-16
6841.89 5.375e-16
6844.83 5.2764e-16
6847.77 5.1176e-16
6850.71 5.1948e-16
6853.66 5.2438e-16
6856.6 5.1677e-16
6859.54 5.1283e-16
6862.48 5.0944e-16
6865.42 5.1042e-16
6868.36 4.9855e-16
6871.3 4.8106e-16
6874.24 5.1236e-16
6877.18 5.1229e-16
6880.13 5.0781e-16
6883.07 4.9325e-16
6886.01 5.0436e-16
6888.95 5.1724e-16
6891.89 5.0277e-16
6894.83 4.9523e-16
6897.77 4.9362e-16
6900.71 4.8891e-16
6903.65 5.0538e-16
6906.6 4.9504e-16
6909.54 5.0342e-16
6912.48 5.0633e-16
6915.42 4.9989e-16
6918.36 5.0991e-16
6921.3 5.1146e-16
6924.24 5.0112e-16
6927.18 5.0019e-16
6930.12 4.9828e-16
6933.07 4.9456e-16
6936.01 4.8223e-16
6938.95 4.8543e-16
6941.89 5.1778e-16
6944.83 5.0592e-16
6947.77 4.9831e-16
6950.71 5.1891e-16
6953.65 5.1812e-16
6956.59 4.8898e-16
6959.54 4.8719e-16
6962.48 5.0247e-16
6965.42 4.9489e-16
6968.36 4.9794e-16
6971.3 5.0325e-16
6974.24 4.8752e-16
6977.18 4.858e-16
6980.12 5.1092e-16
6983.06 5.0109e-16
6986.01 4.8951e-16
6988.95 5.03e-16
6991.89 5.1962e-16
6994.83 5.2247e-16
6997.77 5.1173e-16
7000.71 5.044e-16
7003.65 5.0398e-16
7006.59 4.8909e-16
7009.53 4.9066e-16
7012.48 4.8019e-16
7015.42 4.9161e-16
7018.36 4.9326e-16
7021.3 4.9557e-16
7024.24 4.9775e-16
7027.18 4.9002e-16
7030.12 5.0465e-16
7033.06 5.1633e-16
7036.0 4.9405e-16
7038.95 4.8102e-16
7041.89 4.8161e-16
7044.83 4.7733e-16
7047.77 4.756e-16
7050.71 4.8083e-16
7053.65 4.8382e-16
7056.59 4.863e-16
7059.53 4.8442e-16
7062.47 4.7547e-16
7065.42 4.7233e-16
7068.36 4.6919e-16
7071.3 4.8309e-16
7074.24 4.8526e-16
7077.18 4.8951e-16
7080.12 4.6789e-16
7083.06 4.7051e-16
7086.0 4.8404e-16
7088.94 4.7399e-16
7091.89 4.7073e-16
7094.83 4.741e-16
7097.77 4.737e-16
7100.71 4.9421e-16
7103.65 4.7609e-16
7106.59 4.6402e-16
7109.53 4.6707e-16
7112.47 4.5594e-16
7115.41 4.6907e-16
7118.36 4.7678e-16
7121.3 4.7804e-16
7124.24 4.8617e-16
7127.18 4.6366e-16
7130.12 4.7312e-16
7133.06 4.8713e-16
7136.0 4.802e-16
7138.94 4.7157e-16
7141.88 4.6181e-16
7144.83 4.4856e-16
7147.77 4.2704e-16
7150.71 4.2774e-16
7153.65 4.4173e-16
7156.59 4.3856e-16
7159.53 4.5051e-16
7162.47 4.5933e-16
7165.41 4.5809e-16
7168.35 4.9082e-16
7171.3 5.1466e-16
7174.24 5.1927e-16
7177.18 5.237e-16
7180.12 5.4358e-16
7183.06 5.4685e-16
7186.0 5.3439e-16
7188.94 5.3992e-16
7191.88 5.4153e-16
7194.82 5.4525e-16
7197.77 5.6985e-16
7200.71 5.5417e-16
7203.65 5.4975e-16
7206.59 5.2999e-16
7209.53 5.26e-16
7212.47 5.1985e-16
7215.41 5.0518e-16
7218.35 5.099e-16
7221.29 4.9801e-16
7224.24 4.9978e-16
7227.18 5.0141e-16
7230.12 4.9093e-16
7233.06 4.9525e-16
7236.0 4.7905e-16
7238.94 4.8883e-16
7241.88 5.0125e-16
7244.82 4.9329e-16
7247.76 4.8369e-16
7250.71 4.7566e-16
7253.65 4.909e-16
7256.59 4.9343e-16
7259.53 4.9298e-16
7262.47 4.8161e-16
7265.41 4.8123e-16
7268.35 4.7301e-16
7271.29 4.7831e-16
7274.23 4.9151e-16
7277.18 4.8819e-16
7280.12 4.847e-16
7283.06 4.8293e-16
7286.0 4.6671e-16
7288.94 4.6824e-16
7291.88 4.511e-16
7294.82 4.553e-16
7297.76 4.2734e-16
7300.7 4.2112e-16
7303.65 4.5186e-16
7306.59 4.5848e-16
7309.53 4.4732e-16
7312.47 4.6751e-16
7315.41 4.8955e-16
7318.35 4.6939e-16
7321.29 4.7847e-16
7324.23 4.717e-16
7327.17 4.8022e-16
7330.12 4.6158e-16
7333.06 4.4842e-16
7336.0 4.391e-16
7338.94 4.2097e-16
7341.88 4.224e-16
7344.82 4.3274e-16
7347.76 4.4591e-16
7350.7 4.4774e-16
7353.64 4.5283e-16
7356.59 4.6623e-16
7359.53 4.888e-16
7362.47 4.9279e-16
7365.41 4.8366e-16
7368.35 4.6008e-16
7371.29 4.3254e-16
7374.23 4.2804e-16
7377.17 4.1889e-16
7380.11 4.2181e-16
7383.06 4.2711e-16
7386.0 4.1877e-16
7388.94 4.2255e-16
7391.88 4.4611e-16
7394.82 4.5713e-16
7397.76 4.6959e-16
7400.7 4.9446e-16
7403.64 5.0009e-16
7406.58 5.0399e-16
7409.53 5.1088e-16
7412.47 4.6826e-16
7415.41 4.6829e-16
7418.35 4.5555e-16
7421.29 4.3961e-16
7424.23 4.3233e-16
7427.17 4.361e-16
7430.11 4.5939e-16
7433.05 4.7011e-16
7436.0 4.6626e-16
7438.94 4.9458e-16
7441.88 4.8853e-16
7444.82 4.826e-16
7447.76 4.7302e-16
7450.7 4.4759e-16
7453.64 4.3276e-16
7456.58 4.2012e-16
7459.52 4.0903e-16
7462.47 4.0984e-16
7465.41 4.0522e-16
7468.35 4.0803e-16
7471.29 4.1654e-16
7474.23 4.3654e-16
7477.17 4.4763e-16
7480.11 4.5537e-16
7483.05 4.5485e-16
7485.99 4.5709e-16
7488.94 4.5951e-16
7491.88 4.4607e-16
7494.82 4.2596e-16
7497.76 4.058e-16
7500.7 3.9173e-16
7503.64 3.8859e-16
7506.58 3.8347e-16
7509.52 3.9139e-16
7512.46 4.0692e-16
7515.41 4.1325e-16
7518.35 4.2418e-16
7521.29 4.4411e-16
7524.23 4.6095e-16
7527.17 4.7681e-16
7530.11 4.6705e-16
7533.05 4.5863e-16
7535.99 4.3583e-16
7538.93 4.1509e-16
7541.88 4.0616e-16
7544.82 3.9175e-16
7547.76 3.8737e-16
7550.7 3.9069e-16
7553.64 3.8325e-16
7556.58 4.0076e-16
7559.52 4.3238e-16
7562.46 4.6096e-16
7565.4 4.5135e-16
7568.35 4.4854e-16
7571.29 4.4534e-16
7574.23 4.2625e-16
7577.17 4.0241e-16
7580.11 3.8695e-16
7583.05 3.8494e-16
7585.99 3.6906e-16
7588.93 3.4143e-16
7591.87 3.0998e-16
7594.82 2.7366e-16
7597.76 2.4908e-16
7600.7 2.2826e-16
7603.64 3.2056e-16
7606.58 5.1591e-16
7609.52 5.1923e-16
7612.46 4.6757e-16
7615.4 4.4922e-16
7618.34 4.5135e-16
7621.29 4.265e-16
7624.23 3.8931e-16
7627.17 3.6259e-16
7630.11 3.5391e-16
7633.05 3.1239e-16
7635.99 3.1326e-16
7638.93 3.5132e-16
7641.87 3.4544e-16
7644.81 4.1598e-16
7647.76 4.3299e-16
7650.7 4.1147e-16
7653.64 4.152e-16
7656.58 4.4303e-16
7659.52 4.128e-16
7662.46 3.7018e-16
7665.4 3.7556e-16
7668.34 4.0618e-16
7671.28 4.3273e-16
7674.23 4.3393e-16
7677.17 4.1998e-16
7680.11 4.2208e-16
7683.05 4.2924e-16
7685.99 4.3145e-16
7688.93 4.2991e-16
7691.87 4.2614e-16
7694.81 4.1746e-16
7697.76 4.2063e-16
7700.7 4.2675e-16
7703.64 4.0026e-16
7706.58 3.8385e-16
7709.52 3.876e-16
7712.46 3.5486e-16
7715.4 3.7372e-16
7718.34 3.9313e-16
7721.28 3.9296e-16
7724.23 3.9546e-16
7727.17 3.921e-16
7730.11 3.8626e-16
7733.05 3.8336e-16
7735.99 3.8225e-16
7738.93 3.7476e-16
7741.87 3.6802e-16
7744.81 3.7683e-16
7747.75 3.8218e-16
7750.7 3.7989e-16
7753.64 3.6682e-16
7756.58 3.5749e-16
7759.52 3.6215e-16
7762.46 3.6552e-16
7765.4 3.6533e-16
7768.34 3.6705e-16
7771.28 3.6324e-16
7774.22 3.8035e-16
7777.17 3.9727e-16
7780.11 3.9363e-16
7783.05 3.8257e-16
7785.99 3.7226e-16
7788.93 3.5124e-16
7791.87 3.2512e-16
7794.81 3.3996e-16
7797.75 3.3671e-16
7800.69 3.2596e-16
7803.64 3.249e-16
7806.58 3.2421e-16
7809.52 3.5165e-16
7812.46 3.8829e-16
7815.4 3.9808e-16
7818.34 4.146e-16
7821.28 4.1443e-16
7824.22 4.086e-16
7827.16 3.8007e-16
7830.11 3.868e-16
7833.05 3.6427e-16
7835.99 3.4632e-16
7838.93 3.464e-16
7841.87 3.2681e-16
7844.81 3.2182e-16
7847.75 3.3635e-16
7850.69 3.5325e-16
7853.63 3.7098e-16
7856.58 3.8188e-16
7859.52 3.9674e-16
7862.46 4.0869e-16
7865.4 4.1778e-16
7868.34 4.1217e-16
7871.28 4.1064e-16
7874.22 4.2503e-16
7877.16 4.0169e-16
7880.1 4.0149e-16
7883.05 3.778e-16
7885.99 3.585e-16
7888.93 3.3908e-16
7891.87 3.2592e-16
7894.81 3.2236e-16
7897.75 3.1255e-16
7900.69 3.1059e-16
7903.63 3.3331e-16
7906.57 3.5428e-16
7909.52 3.8551e-16
7912.46 3.9703e-16
7915.4 4.2126e-16
7918.34 4.1404e-16
7921.28 3.9486e-16
7924.22 4.0758e-16
7927.16 4.2384e-16
7930.1 4.2523e-16
7933.04 4.2362e-16
7935.99 3.8963e-16
7938.93 3.7076e-16
7941.87 3.5645e-16
7944.81 3.4697e-16
7947.75 3.3103e-16
7950.69 3.1403e-16
7953.63 3.1895e-16
7956.57 3.3688e-16
7959.51 3.4635e-16
7962.46 3.592e-16
7965.4 3.7455e-16
7968.34 3.9182e-16
7971.28 4.2407e-16
7974.22 4.1759e-16
7977.16 4.087e-16
7980.1 4.0581e-16
7983.04 3.8957e-16
7985.98 3.6462e-16
7988.93 3.3802e-16
7991.87 3.5733e-16
7994.81 3.4955e-16
7997.75 3.4163e-16
8000.69 3.4444e-16
8003.63 3.528e-16
8006.57 3.4851e-16
8009.51 3.5489e-16
8012.45 3.7987e-16
8015.4 3.7701e-16
8018.34 3.6767e-16
8021.28 3.9923e-16
8024.22 4.0498e-16
8027.16 3.9611e-16
8030.1 3.9716e-16
8033.04 3.7986e-16
8035.98 3.7592e-16
8038.92 3.8212e-16
8041.87 3.6998e-16
8044.81 3.7366e-16
8047.75 3.6633e-16
8050.69 3.6601e-16
8053.63 3.592e-16
8056.57 3.5248e-16
8059.51 3.4038e-16
8062.45 3.5465e-16
8065.39 3.6152e-16
8068.34 3.5665e-16
8071.28 3.8761e-16
8074.22 3.9998e-16
8077.16 4.0272e-16
8080.1 4.0611e-16
8083.04 4.0565e-16
8085.98 3.7224e-16
8088.92 3.6423e-16
8091.86 3.5655e-16
8094.81 3.4793e-16
8097.75 3.5299e-16
8100.69 3.1361e-16
8103.63 2.941e-16
8106.57 2.9424e-16
8109.51 3.3199e-16
8112.45 3.305e-16
8115.39 3.2476e-16
8118.33 3.4275e-16
8121.28 3.3743e-16
8124.22 3.1024e-16
8127.16 3.0626e-16
8130.1 3.0753e-16
8133.04 3.0293e-16
8135.98 3.2066e-16
8138.92 3.3366e-16
8141.86 3.5388e-16
8144.8 3.556e-16
8147.75 3.5252e-16
8150.69 3.6833e-16
8153.63 3.7934e-16
8156.57 3.8201e-16
8159.51 3.9038e-16
8162.45 3.8728e-16
8165.39 3.8035e-16
8168.33 3.7362e-16
8171.27 3.4848e-16
8174.22 3.1841e-16
8177.16 3.1349e-16
8180.1 3.1153e-16
8183.04 2.913e-16
8185.98 2.9351e-16
8188.92 3.0232e-16
8191.86 2.9785e-16
8194.8 3.0333e-16
8197.74 3.0788e-16
8200.69 3.1732e-16
8203.63 3.3266e-16
8206.57 3.3503e-16
8209.51 3.3592e-16
8212.45 3.4738e-16
8215.39 3.2685e-16
8218.33 2.9939e-16
8221.27 3.0479e-16
8224.21 2.9771e-16
8227.16 2.9113e-16
8230.1 2.9328e-16
8233.04 3.0802e-16
8235.98 3.2146e-16
8238.92 3.0814e-16
8241.86 3.055e-16
8244.8 2.9458e-16
8247.74 2.9899e-16
8250.68 3.1112e-16
8253.63 3.2061e-16
8256.57 3.2622e-16
8259.51 3.3403e-16
8262.45 3.4533e-16
8265.39 3.4963e-16
8268.33 3.3866e-16
8271.27 3.174e-16
8274.21 3.0506e-16
8277.15 2.9204e-16
8280.1 2.9949e-16
8283.04 3.0652e-16
8285.98 3.0673e-16
8288.92 3.131e-16
8291.86 3.2901e-16
8294.8 3.4681e-16
8297.74 3.4353e-16
8300.68 3.5341e-16
8303.62 3.5656e-16
8306.57 3.6225e-16
8309.51 3.4348e-16
8312.45 3.2408e-16
8315.39 3.1957e-16
8318.33 3.1152e-16
8321.27 3.0281e-16
8324.21 2.9102e-16
8327.15 2.9448e-16
8330.09 2.8825e-16
8333.04 2.7927e-16
8335.98 2.9517e-16
8338.92 3.3385e-16
8341.86 3.7468e-16
8344.8 3.9543e-16
8347.74 3.8956e-16
8350.68 3.6981e-16
8353.62 3.4385e-16
8356.56 3.3837e-16
8359.51 3.0035e-16
8362.45 2.7928e-16
8365.39 2.6764e-16
8368.33 2.6136e-16
8371.27 2.6258e-16
8374.21 2.6561e-16
8377.15 2.8989e-16
8380.09 3.0162e-16
8383.03 3.0933e-16
8385.98 3.149e-16
8388.92 3.2707e-16
8391.86 3.2572e-16
8394.8 3.3476e-16
8397.74 3.6374e-16
8400.68 3.7548e-16
8403.62 3.5422e-16
8406.56 3.1139e-16
8409.5 2.8343e-16
8412.45 2.5994e-16
8415.39 2.322e-16
8418.33 2.1402e-16
8421.27 2.2697e-16
8424.21 2.6623e-16
8427.15 2.9762e-16
8430.09 3.1436e-16
8433.03 3.3928e-16
8435.97 3.495e-16
8438.92 3.7184e-16
8441.86 4.017e-16
8444.8 3.8384e-16
8447.74 3.3871e-16
8450.68 2.9795e-16
8453.62 2.6511e-16
8456.56 2.4157e-16
8459.5 2.1924e-16
8462.44 2.1595e-16
8465.39 2.3174e-16
8468.33 2.452e-16
8471.27 2.6064e-16
8474.21 2.9451e-16
8477.15 3.234e-16
8480.09 3.4164e-16
8483.03 3.5849e-16
8485.97 3.6146e-16
8488.91 3.7011e-16
8491.86 3.4192e-16
8494.8 3.3114e-16
8497.74 3.1904e-16
8500.68 2.8772e-16
8503.62 2.7355e-16
8506.56 2.6998e-16
8509.5 2.5935e-16
8512.44 2.6744e-16
8515.38 2.6918e-16
8518.33 2.6756e-16
8521.27 2.8083e-16
8524.21 2.8318e-16
8527.15 2.8495e-16
8530.09 3.2663e-16
8533.03 3.6986e-16
8535.97 3.7283e-16
8538.91 3.6765e-16
8541.85 3.4875e-16
8544.8 3.144e-16
8547.74 2.8567e-16
8550.68 2.6645e-16
8553.62 2.4891e-16
8556.56 2.488e-16
8559.5 2.5278e-16
8562.44 2.4783e-16
8565.38 2.5044e-16
8568.33 2.5356e-16
8571.27 2.6113e-16
8574.21 2.4688e-16
8577.15 2.7785e-16
8580.09 3.0613e-16
8583.03 3.0885e-16
8585.97 3.0763e-16
8588.91 3.136e-16
8591.85 3.1805e-16
8594.8 3.0602e-16
8597.74 3.1394e-16
8600.68 3.146e-16
8603.62 2.8359e-16
8606.56 2.8444e-16
8609.5 2.8621e-16
8612.44 2.6859e-16
8615.38 2.6808e-16
8618.32 2.8372e-16
8621.27 2.8922e-16
8624.21 2.744e-16
8627.15 2.71e-16
8630.09 2.7111e-16
8633.03 2.5415e-16
8635.97 2.4496e-16
8638.91 2.5542e-16
8641.85 2.6599e-16
8644.79 2.743e-16
8647.74 2.9087e-16
8650.68 3.0344e-16
8653.62 3.0552e-16
8656.56 3.0052e-16
8659.5 2.9511e-16
8662.44 2.8981e-16
8665.38 2.7672e-16
8668.32 2.641e-16
8671.26 2.5825e-16
8674.21 2.4857e-16
8677.15 2.5133e-16
8680.09 2.6548e-16
8683.03 2.7517e-16
8685.97 2.9028e-16
8688.91 2.9867e-16
8691.85 2.9696e-16
8694.79 2.8345e-16
8697.73 2.6257e-16
8700.68 2.5343e-16
8703.62 2.4669e-16
8706.56 2.4955e-16
8709.5 2.5348e-16
8712.44 2.9488e-16
8715.38 3.0746e-16
8718.32 2.9956e-16
8721.26 2.9398e-16
8724.2 2.6882e-16
8727.15 2.4484e-16
8730.09 2.2494e-16
8733.03 2.3366e-16
8735.97 2.4545e-16
8738.91 2.714e-16
8741.85 2.7126e-16
8744.79 2.6496e-16
8747.73 2.5585e-16
8750.67 2.3058e-16
8753.62 2.251e-16
8756.56 2.316e-16
8759.5 2.8271e-16
8762.44 2.9343e-16
8765.38 3.1343e-16
8768.32 3.2968e-16
8771.26 3.4396e-16
8774.2 3.7504e-16
8777.14 3.9159e-16
8780.09 3.704e-16
8783.03 3.4423e-16
8785.97 3.4537e-16
8788.91 3.29e-16
8791.85 3.2405e-16
8794.79 3.0355e-16
8797.73 2.5603e-16
8800.67 2.2185e-16
8803.61 2.2531e-16
8806.56 2.364e-16
8809.5 2.2433e-16
8812.44 2.3949e-16
8815.38 2.8016e-16
8818.32 3.1355e-16
8821.26 3.5019e-16
8824.2 3.7129e-16
8827.14 3.4655e-16
8830.08 3.317e-16
8833.03 3.6491e-16
8835.97 3.6147e-16
8838.91 3.4604e-16
8841.85 3.4567e-16
8844.79 3.3111e-16
8847.73 3.289e-16
8850.67 3.0686e-16
8853.61 2.5628e-16
8856.55 2.2069e-16
8859.5 1.8673e-16
8862.44 1.4657e-16
8865.38 1.4809e-16
8868.32 1.6198e-16
8871.26 1.8333e-16
8874.2 2.4225e-16
8877.14 3.1858e-16
8880.08 3.6104e-16
8883.02 3.8627e-16
8885.97 4.1702e-16
8888.91 3.9816e-16
8891.85 3.707e-16
8894.79 3.6893e-16
8897.73 3.5819e-16
8900.67 3.229e-16
8903.61 2.9996e-16
8906.55 2.7318e-16
8909.49 2.4452e-16
8912.44 2.6705e-16
8915.38 2.8374e-16
8918.32 2.611e-16
8921.26 2.7748e-16
8924.2 2.8725e-16
8927.14 3.311e-16
8930.08 3.5108e-16
8933.02 3.4778e-16
8935.96 3.5996e-16
8938.91 3.4083e-16
8941.85 3.3215e-16
8944.79 3.0091e-16
8947.73 2.963e-16
8950.67 2.6591e-16
8953.61 2.1322e-16
8956.55 1.7505e-16
8959.49 1.6158e-16
8962.43 1.6632e-16
8965.38 1.7149e-16
8968.32 1.6746e-16
8971.26 1.79e-16
8974.2 1.8371e-16
8977.14 2.1251e-16
8980.08 2.2653e-16
8983.02 2.4808e-16
8985.96 2.8578e-16
8988.9 3.0402e-16
8991.85 3.1235e-16
8994.79 3.0962e-16
8997.73 3.0483e-16
9000.67 3.0885e-16
9003.61 2.9098e-16
9006.55 2.5398e-16
9009.49 2.0719e-16
9012.43 1.6591e-16
9015.37 1.4845e-16
9018.32 1.408e-16
9021.26 1.2052e-16
9024.2 9.7761e-17
9027.14 8.4056e-17
9030.08 8.2394e-17
9033.02 8.2925e-17
9035.96 9.3432e-17
9038.9 1.008e-16
9041.84 1.0736e-16
9044.79 1.2735e-16
9047.73 1.1594e-16
