# wavelength flux
3473.99820 2.63074e-17
3475.46790 2.62491e-17
3476.93760 2.55303e-17
3478.40730 2.70712e-17
3479.87700 2.56582e-17
3481.34670 3.29987e-17
3482.81640 3.57009e-17
3484.28610 2.33361e-17
3485.75580 1.84255e-17
3487.22550 1.54606e-17
3488.69520 1.25370e-17
3490.17525 2.31034e-17
3491.64495 2.13361e-17
3493.11465 2.24429e-17
3494.58435 3.06851e-17
3496.05405 3.07836e-17
3497.52375 1.28405e-17
3498.99345 2.00392e-17
3500.46315 2.97566e-17
3501.93285 2.67906e-17
3503.40255 2.52083e-17
3504.87225 2.60990e-17
3506.34195 2.37721e-17
3507.81165 2.72990e-17
3509.28135 2.96787e-17
3510.75105 3.00157e-17
3512.22075 3.32446e-17
3513.69045 2.84780e-17
3515.16015 1.03102e-17
3516.62985 1.44183e-17
3518.09955 3.38438e-17
3519.56925 2.46061e-17
3521.03895 2.30419e-17
3522.50865 2.72442e-17
3523.97835 2.38290e-17
3525.44805 1.48125e-17
3526.91775 1.74662e-17
3528.38745 1.87100e-17
3529.85715 2.52538e-17
3531.32685 2.71786e-17
3532.79655 2.17908e-17
3534.26625 2.19703e-17
3535.73595 2.38829e-17
3537.20565 2.87735e-17
3538.67535 1.92480e-17
3540.14505 2.41886e-17
3541.62510 1.94559e-17
3543.09480 1.44813e-17
3544.56450 1.37237e-17
3546.03420 2.47629e-17
3547.50390 2.72392e-17
3548.97360 2.87012e-17
3550.44330 3.50876e-17
3551.91300 1.86179e-17
3553.38270 2.31708e-17
3554.85240 1.96009e-17
3556.32210 2.89694e-17
3557.79180 3.63305e-17
3559.26150 2.58498e-17
3560.73120 2.62422e-17
3562.20090 1.81016e-17
3563.67060 2.03607e-17
3565.14030 1.99477e-17
3566.61000 2.05829e-17
3568.07970 2.00319e-17
3569.54940 1.87003e-17
3571.01910 1.49135e-17
3572.48880 1.97770e-17
3573.95850 2.51771e-17
3575.42820 2.44037e-17
3576.89790 2.29388e-17
3578.36760 2.27845e-17
3579.83730 2.57328e-17
3581.30700 2.60812e-17
3582.77670 2.10991e-17
3584.24640 1.94400e-17
3585.71610 1.59084e-17
3587.18580 2.32224e-17
3588.65550 2.16158e-17
3590.12520 2.52216e-17
3591.60525 2.48838e-17
3593.07495 2.48371e-17
3594.54465 1.83746e-17
3596.01435 1.53277e-17
3597.48405 2.32843e-17
3598.95375 1.97532e-17
3600.42345 2.10024e-17
3601.89315 1.65247e-17
3603.36285 2.49405e-17
3604.83255 2.60790e-17
3606.30225 2.21177e-17
3607.77195 1.55613e-17
3609.24165 2.00372e-17
3610.71135 2.59763e-17
3612.18105 2.06801e-17
3613.65075 1.89516e-17
3615.12045 1.78790e-17
3616.59015 2.49739e-17
3618.05985 1.87249e-17
3619.52955 2.41009e-17
3620.99925 2.42392e-17
3622.46895 1.35352e-17
3623.93865 1.95798e-17
3625.40835 2.41424e-17
3626.87805 1.97026e-17
3628.34775 2.73003e-17
3629.81745 2.74082e-17
3631.28715 2.00473e-17
3632.75685 1.89150e-17
3634.22655 2.32981e-17
3635.69625 2.18258e-17
3637.16595 2.09062e-17
3638.63565 1.88725e-17
3640.10535 2.03023e-17
3641.58540 2.66471e-17
3643.05510 2.70243e-17
3644.52480 1.53867e-17
3645.99450 1.88089e-17
3647.46420 2.30720e-17
3648.93390 1.50206e-17
3650.40360 2.43581e-17
3651.87330 2.35433e-17
3653.34300 1.69983e-17
3654.81270 1.77786e-17
3656.28240 1.88527e-17
3657.75210 1.65564e-17
3659.22180 1.82568e-17
3660.69150 1.62584e-17
3662.16120 1.77769e-17
3663.63090 1.89896e-17
3665.10060 1.84869e-17
3666.57030 1.79645e-17
3668.04000 1.64248e-17
3669.50970 2.25857e-17
3670.97940 2.65941e-17
3672.44910 2.36266e-17
3673.91880 1.90585e-17
3675.38850 2.54515e-17
3676.85820 2.65382e-17
3678.32790 2.07358e-17
3679.79760 1.96282e-17
3681.26730 2.15980e-17
3682.73700 2.05656e-17
3684.20670 1.63874e-17
3685.67640 1.92388e-17
3687.14610 2.05403e-17
3688.61580 2.24478e-17
3690.08550 2.28646e-17
3691.55520 1.88572e-17
3693.03525 1.93279e-17
3694.50495 2.42233e-17
3695.97465 2.37413e-17
3697.44435 1.98593e-17
3698.91405 2.01626e-17
3700.38375 2.39705e-17
3701.85345 2.14964e-17
3703.32315 1.17874e-17
3704.79285 2.17916e-17
3706.26255 1.88275e-17
3707.73225 1.84284e-17
3709.20195 2.13281e-17
3710.67165 2.07466e-17
3712.14135 2.41013e-17
3713.61105 2.31791e-17
3715.08075 2.31500e-17
3716.55045 2.26988e-17
3718.02015 2.36691e-17
3719.48985 1.95915e-17
3720.95955 1.86841e-17
3722.42925 2.17095e-17
3723.89895 1.91537e-17
3725.36865 1.79114e-17
3726.83835 1.96095e-17
3728.30805 1.87301e-17
3729.77775 2.39542e-17
3731.24745 2.29445e-17
3732.71715 2.09011e-17
3734.18685 1.78200e-17
3735.65655 1.91969e-17
3737.12625 2.02625e-17
3738.59595 1.84435e-17
3740.06565 1.42267e-17
3741.53535 1.82608e-17
3743.00505 2.49226e-17
3744.48510 2.10949e-17
3745.95480 1.57505e-17
3747.42450 1.77659e-17
3748.89420 1.76359e-17
3750.36390 1.56397e-17
3751.83360 1.72042e-17
3753.30330 1.59551e-17
3754.77300 1.60383e-17
3756.24270 1.64339e-17
3757.71240 2.11243e-17
3759.18210 1.90274e-17
3760.65180 1.65204e-17
3762.12150 1.78499e-17
3763.59120 2.02021e-17
3765.06090 1.90257e-17
3766.53060 1.96265e-17
3768.00030 1.75402e-17
3769.47000 1.56420e-17
3770.93970 2.09132e-17
3772.40940 1.99637e-17
3773.87910 1.89525e-17
3775.34880 2.28647e-17
3776.81850 1.91754e-17
3778.28820 2.13242e-17
3779.75790 1.72913e-17
3781.22760 1.78843e-17
3782.69730 1.93893e-17
3784.16700 1.71930e-17
3785.63670 1.84036e-17
3787.10640 2.16594e-17
3788.57610 1.66689e-17
3790.04580 1.68181e-17
3791.51550 2.17858e-17
3792.98520 2.32106e-17
3794.46525 2.04244e-17
3795.93495 1.70357e-17
3797.40465 1.78136e-17
3798.87435 2.02801e-17
3800.34405 2.24507e-17
3801.81375 2.09086e-17
3803.28345 2.17773e-17
3804.75315 2.02534e-17
3806.22285 1.72905e-17
3807.69255 1.47396e-17
3809.16225 2.04394e-17
3810.63195 1.78280e-17
3812.10165 1.94657e-17
3813.57135 1.91906e-17
3815.04105 2.37043e-17
3816.51075 1.96629e-17
3817.98045 1.93327e-17
3819.45015 1.96580e-17
3820.91985 1.53203e-17
3822.38955 1.79020e-17
3823.85925 1.92497e-17
3825.32895 2.01898e-17
3826.79865 2.10637e-17
3828.26835 1.94288e-17
3829.73805 1.98720e-17
3831.20775 2.19424e-17
3832.67745 2.25297e-17
3834.14715 1.90756e-17
3835.61685 1.67327e-17
3837.08655 1.71718e-17
3838.55625 1.76944e-17
3840.02595 2.05238e-17
3841.49565 1.90341e-17
3842.96535 1.58490e-17
3844.43505 1.79919e-17
3845.91510 2.07749e-17
3847.38480 2.15188e-17
3848.85450 2.01859e-17
3850.32420 1.62236e-17
3851.79390 1.96373e-17
3853.26360 2.20136e-17
3854.73330 1.94844e-17
3856.20300 1.95861e-17
3857.67270 1.91243e-17
3859.14240 1.64908e-17
3860.61210 1.62712e-17
3862.08180 1.83223e-17
3863.55150 1.79432e-17
3865.02120 1.99417e-17
3866.49090 2.07988e-17
3867.96060 2.08939e-17
3869.43030 2.26636e-17
3870.90000 1.78713e-17
3872.36970 1.57812e-17
3873.83940 1.84225e-17
3875.30910 1.88513e-17
3876.77880 2.08079e-17
3878.24850 1.87131e-17
3879.71820 1.60183e-17
3881.18790 1.70550e-17
3882.65760 1.80539e-17
3884.12730 1.97900e-17
3885.59700 1.97579e-17
3887.06670 1.88179e-17
3888.53640 2.01662e-17
3890.00610 1.95638e-17
3891.47580 2.02870e-17
3892.94550 1.97524e-17
3894.41520 2.08879e-17
3895.89525 1.87917e-17
3897.36495 1.88708e-17
3898.83465 1.86048e-17
3900.30435 1.95852e-17
3901.77405 1.87358e-17
3903.24375 1.80970e-17
3904.71345 2.02031e-17
3906.18315 1.96008e-17
3907.65285 1.78866e-17
3909.12255 1.71678e-17
3910.59225 1.93421e-17
3912.06195 1.76893e-17
3913.53165 1.71591e-17
3915.00135 1.71557e-17
3916.47105 1.77942e-17
3917.94075 1.92943e-17
3919.41045 1.87306e-17
3920.88015 2.20840e-17
3922.34985 2.07702e-17
3923.81955 2.09230e-17
3925.28925 1.89989e-17
3926.75895 1.94940e-17
3928.22865 1.86520e-17
3929.69835 1.78646e-17
3931.16805 1.64666e-17
3932.63775 1.72277e-17
3934.10745 1.48906e-17
3935.57715 1.60286e-17
3937.04685 1.87099e-17
3938.51655 1.67108e-17
3939.98625 1.67236e-17
3941.45595 1.70489e-17
3942.92565 1.92566e-17
3944.39535 2.21648e-17
3945.87540 2.20869e-17
3947.34510 2.13443e-17
3948.81480 1.86353e-17
3950.28450 1.80155e-17
3951.75420 1.96888e-17
3953.22390 1.90823e-17
3954.69360 1.62751e-17
3956.16330 1.76087e-17
3957.63300 2.01982e-17
3959.10270 1.85000e-17
3960.57240 1.68449e-17
3962.04210 1.75916e-17
3963.51180 1.78583e-17
3964.98150 1.74446e-17
3966.45120 1.89659e-17
3967.92090 1.92015e-17
3969.39060 2.17710e-17
3970.86030 1.95403e-17
3972.33000 1.70227e-17
3973.79970 1.94170e-17
3975.26940 1.91998e-17
3976.73910 2.03185e-17
3978.20880 1.63774e-17
3979.67850 1.58991e-17
3981.14820 1.97168e-17
3982.61790 1.95595e-17
3984.08760 1.52760e-17
3985.55730 1.50589e-17
3987.02700 1.89790e-17
3988.49670 1.82044e-17
3989.96640 1.66888e-17
3991.43610 1.72999e-17
3992.90580 1.94203e-17
3994.37550 2.01058e-17
3995.84520 1.83719e-17
3997.32525 1.87970e-17
3998.79495 1.63556e-17
4000.26465 1.73625e-17
4001.73435 1.57690e-17
4003.20405 1.72822e-17
4004.67375 1.67193e-17
4006.14345 1.70389e-17
4007.61315 1.55739e-17
4009.08285 1.90970e-17
4010.55255 2.06815e-17
4012.02225 1.98219e-17
4013.49195 2.05557e-17
4014.96165 2.06938e-17
4016.43135 1.86003e-17
4017.90105 1.75550e-17
4019.37075 1.82792e-17
4020.84045 1.66674e-17
4022.31015 1.69440e-17
4023.77985 1.70621e-17
4025.24955 1.96396e-17
4026.71925 1.83747e-17
4028.18895 1.94486e-17
4029.65865 2.24349e-17
4031.12835 1.95996e-17
4032.59805 2.08918e-17
4034.06775 2.30835e-17
4035.53745 2.02545e-17
4037.00715 2.00526e-17
4038.47685 2.18410e-17
4039.94655 1.93705e-17
4041.41625 2.10136e-17
4042.88595 1.99219e-17
4044.35565 1.89859e-17
4045.82535 1.68463e-17
4047.30540 1.75636e-17
4048.77510 1.77336e-17
4050.24480 1.87493e-17
4051.71450 1.74310e-17
4053.18420 1.83347e-17
4054.65390 1.77368e-17
4056.12360 1.31633e-17
4057.59330 1.61929e-17
4059.06300 2.08729e-17
4060.53270 1.97315e-17
4062.00240 1.77517e-17
4063.47210 1.76506e-17
4064.94180 1.79773e-17
4066.41150 1.84350e-17
4067.88120 1.69249e-17
4069.35090 1.54417e-17
4070.82060 1.72576e-17
4072.29030 1.95057e-17
4073.76000 2.04616e-17
4075.22970 1.98249e-17
4076.69940 1.97560e-17
4078.16910 1.97520e-17
4079.63880 1.90407e-17
4081.10850 1.94647e-17
4082.57820 2.13469e-17
4084.04790 2.03529e-17
4085.51760 1.87373e-17
4086.98730 1.90995e-17
4088.45700 1.90630e-17
4089.92670 1.71107e-17
4091.39640 1.59601e-17
4092.86610 1.64541e-17
4094.33580 1.72958e-17
4095.80550 1.77347e-17
4097.27520 1.76754e-17
4098.75525 1.99909e-17
4100.22495 1.86055e-17
4101.69465 1.71805e-17
4103.16435 1.87385e-17
4104.63405 1.88844e-17
4106.10375 1.91362e-17
4107.57345 1.83249e-17
4109.04315 1.75627e-17
4110.51285 1.92238e-17
4111.98255 2.07934e-17
4113.45225 2.00336e-17
4114.92195 1.80823e-17
4116.39165 1.71625e-17
4117.86135 1.78817e-17
4119.33105 1.76837e-17
4120.80075 1.68085e-17
4122.27045 1.50471e-17
4123.74015 1.63119e-17
4125.20985 1.73172e-17
4126.67955 1.72759e-17
4128.14925 1.94257e-17
4129.61895 1.78084e-17
4131.08865 1.64020e-17
4132.55835 1.46615e-17
4134.02805 1.44185e-17
4135.49775 1.70136e-17
4136.96745 2.08574e-17
4138.43715 1.77142e-17
4139.90685 1.59199e-17
4141.37655 1.66858e-17
4142.84625 1.67470e-17
4144.31595 1.65248e-17
4145.78565 1.94139e-17
4147.25535 2.01339e-17
4148.72505 1.76687e-17
4150.20510 1.73635e-17
4151.67480 1.74523e-17
4153.14450 1.96943e-17
4154.61420 1.82640e-17
4156.08390 1.62922e-17
4157.55360 1.75963e-17
4159.02330 1.73980e-17
4160.49300 1.47026e-17
4161.96270 1.63291e-17
4163.43240 1.84683e-17
4164.90210 1.85990e-17
4166.37180 1.76384e-17
4167.84150 1.83808e-17
4169.31120 2.07028e-17
4170.78090 1.86323e-17
4172.25060 1.74328e-17
4173.72030 1.70397e-17
4175.19000 1.68437e-17
4176.65970 1.65222e-17
4178.12940 1.63668e-17
4179.59910 1.64346e-17
4181.06880 1.58442e-17
4182.53850 1.66544e-17
4184.00820 1.81509e-17
4185.47790 1.70461e-17
4186.94760 1.61110e-17
4188.41730 1.64235e-17
4189.88700 1.70645e-17
4191.35670 1.65186e-17
4192.82640 1.74462e-17
4194.29610 1.62482e-17
4195.76580 1.68295e-17
4197.23550 1.68726e-17
4198.70520 1.67385e-17
4200.18525 1.58028e-17
4201.65495 1.36688e-17
4203.12465 1.66020e-17
4204.59435 1.72479e-17
4206.06405 1.55493e-17
4207.53375 1.57918e-17
4209.00345 1.59696e-17
4210.47315 1.67062e-17
4211.94285 1.66825e-17
4213.41255 1.61928e-17
4214.88225 1.61840e-17
4216.35195 1.49525e-17
4217.82165 1.56106e-17
4219.29135 1.48985e-17
4220.76105 1.46512e-17
4222.23075 1.56887e-17
4223.70045 1.58330e-17
4225.17015 1.45980e-17
4226.63985 1.46418e-17
4228.10955 1.49041e-17
4229.57925 1.48124e-17
4231.04895 1.67980e-17
4232.51865 1.72022e-17
4233.98835 1.54475e-17
4235.45805 1.51490e-17
4236.92775 1.54244e-17
4238.39745 1.46177e-17
4239.86715 1.52833e-17
4241.33685 1.52902e-17
4242.80655 1.52164e-17
4244.27625 1.61253e-17
4245.74595 1.56159e-17
4247.21565 1.44832e-17
4248.68535 1.44625e-17
4250.16540 1.52356e-17
4251.62475 1.52977e-17
4253.10480 1.61077e-17
4254.57450 1.67131e-17
4256.04420 1.56294e-17
4257.51390 1.45172e-17
4258.98360 1.49359e-17
4260.45330 1.53348e-17
4261.92300 1.55067e-17
4263.39270 1.64298e-17
4264.86240 1.60191e-17
4266.33210 1.46150e-17
4267.80180 1.51706e-17
4269.27150 1.46605e-17
4270.74120 1.53317e-17
4272.21090 1.55461e-17
4273.68060 1.43263e-17
4275.15030 1.51478e-17
4276.62000 1.72694e-17
4278.08970 1.71576e-17
4279.55940 1.53111e-17
4281.02910 1.44909e-17
4282.49880 1.51557e-17
4283.96850 1.60704e-17
4285.43820 1.66858e-17
4286.90790 1.67387e-17
4288.37760 1.49292e-17
4289.84730 1.36516e-17
4291.31700 1.40712e-17
4292.78670 1.53882e-17
4294.25640 1.59341e-17
4295.72610 1.58387e-17
4297.19580 1.52855e-17
4298.66550 1.48507e-17
4300.14555 1.47396e-17
4301.61525 1.52125e-17
4303.08495 1.58349e-17
4304.55465 1.48922e-17
4306.02435 1.51043e-17
4307.49405 1.50887e-17
4308.96375 1.60080e-17
4310.43345 1.64799e-17
4311.90315 1.60289e-17
4313.37285 1.64826e-17
4314.84255 1.77136e-17
4316.31225 1.67284e-17
4317.78195 1.63057e-17
4319.25165 1.63105e-17
4320.72135 1.46914e-17
4322.19105 1.34687e-17
4323.66075 1.42282e-17
4325.13045 1.40613e-17
4326.60015 1.44182e-17
4328.06985 1.54710e-17
4329.53955 1.62351e-17
4331.00925 1.58309e-17
4332.47895 1.60776e-17
4333.94865 1.62735e-17
4335.41835 1.57233e-17
4336.88805 1.50877e-17
4338.35775 1.49795e-17
4339.82745 1.67875e-17
4341.29715 1.62607e-17
4342.76685 1.51435e-17
4344.23655 1.60087e-17
4345.70625 1.65442e-17
4347.17595 1.48729e-17
4348.64565 1.43204e-17
4350.11535 1.58546e-17
4351.58505 1.57687e-17
4353.06510 1.35392e-17
4354.53480 1.41974e-17
4356.00450 1.64813e-17
4357.47420 1.64483e-17
4358.94390 1.56957e-17
4360.41360 1.52287e-17
4361.88330 1.51879e-17
4363.35300 1.40864e-17
4364.82270 1.57815e-17
4366.29240 1.64030e-17
4367.76210 1.50859e-17
4369.23180 1.42843e-17
4370.70150 1.51725e-17
4372.17120 1.45370e-17
4373.64090 1.53147e-17
4375.11060 1.57824e-17
4376.58030 1.49839e-17
4378.05000 1.50008e-17
4379.51970 1.51031e-17
4380.98940 1.60637e-17
4382.45910 1.59577e-17
4383.92880 1.46619e-17
4385.39850 1.53469e-17
4386.86820 1.58467e-17
4388.33790 1.51682e-17
4389.80760 1.43961e-17
4391.27730 1.45690e-17
4392.74700 1.56690e-17
4394.21670 1.70379e-17
4395.68640 1.67707e-17
4397.15610 1.67199e-17
4398.62580 1.64974e-17
4400.09550 1.54959e-17
4401.56520 1.65161e-17
4403.04525 1.72343e-17
4404.50460 1.54622e-17
4405.98465 1.50944e-17
4407.45435 1.52301e-17
4408.92405 1.57670e-17
4410.39375 1.64991e-17
4411.86345 1.62332e-17
4413.33315 1.56944e-17
4414.80285 1.43400e-17
4416.27255 1.46597e-17
4417.74225 1.45288e-17
4419.21195 1.49357e-17
4420.68165 1.58669e-17
4422.15135 1.59291e-17
4423.62105 1.48367e-17
4425.09075 1.48511e-17
4426.56045 1.60645e-17
4428.03015 1.66883e-17
4429.49985 1.74208e-17
4430.96955 1.68975e-17
4432.43925 1.56566e-17
4433.90895 1.53461e-17
4435.37865 1.57888e-17
4436.84835 1.59057e-17
4438.31805 1.59239e-17
4439.78775 1.63223e-17
4441.25745 1.52623e-17
4442.72715 1.48948e-17
4444.19685 1.51654e-17
4445.66655 1.59597e-17
4447.13625 1.61898e-17
4448.60595 1.50500e-17
4450.07565 1.51336e-17
4451.54535 1.65310e-17
4453.02540 1.61256e-17
4454.49510 1.40564e-17
4455.96480 1.38475e-17
4457.43450 1.53555e-17
4458.90420 1.48188e-17
4460.37390 1.44599e-17
4461.84360 1.61052e-17
4463.31330 1.69970e-17
4464.78300 1.69219e-17
4466.25270 1.65392e-17
4467.72240 1.54878e-17
4469.19210 1.55850e-17
4470.66180 1.64236e-17
4472.13150 1.60286e-17
4473.60120 1.60908e-17
4475.07090 1.72808e-17
4476.54060 1.78504e-17
4478.01030 1.66547e-17
4479.48000 1.53088e-17
4480.94970 1.54400e-17
4482.41940 1.69139e-17
4483.88910 1.66271e-17
4485.35880 1.53315e-17
4486.82850 1.63808e-17
4488.29820 1.77379e-17
4489.76790 1.70184e-17
4491.23760 1.61887e-17
4492.70730 1.59306e-17
4494.17700 1.55737e-17
4495.64670 1.53589e-17
4497.11640 1.51145e-17
4498.58610 1.50740e-17
4500.05580 1.57445e-17
4501.52550 1.68684e-17
4502.99520 1.71910e-17
4504.47525 1.67166e-17
4505.94495 1.62411e-17
4507.41465 1.64493e-17
4508.88435 1.68631e-17
4510.35405 1.59966e-17
4511.82375 1.52998e-17
4513.29345 1.61785e-17
4514.76315 1.71417e-17
4516.23285 1.65424e-17
4517.70255 1.58216e-17
4519.17225 1.48150e-17
4520.64195 1.35218e-17
4522.11165 1.43165e-17
4523.58135 1.64086e-17
4525.05105 1.67090e-17
4526.52075 1.55429e-17
4527.99045 1.54913e-17
4529.46015 1.68358e-17
4530.92985 1.65799e-17
4532.39955 1.56408e-17
4533.86925 1.51507e-17
4535.33895 1.52808e-17
4536.80865 1.59491e-17
4538.27835 1.53233e-17
4539.74805 1.44135e-17
4541.21775 1.47411e-17
4542.68745 1.50046e-17
4544.15715 1.51157e-17
4545.62685 1.50462e-17
4547.09655 1.53021e-17
4548.56625 1.56798e-17
4550.03595 1.51614e-17
4551.50565 1.42625e-17
4552.97535 1.48086e-17
4554.45540 1.62675e-17
4555.91475 1.60210e-17
4557.39480 1.54738e-17
4558.86450 1.53628e-17
4560.33420 1.55585e-17
4561.80390 1.60661e-17
4563.27360 1.53560e-17
4564.74330 1.47825e-17
4566.21300 1.60269e-17
4567.68270 1.60092e-17
4569.15240 1.48711e-17
4570.62210 1.44486e-17
4572.09180 1.43766e-17
4573.56150 1.47675e-17
4575.03120 1.49831e-17
4576.50090 1.46529e-17
4577.97060 1.50033e-17
4579.44030 1.54861e-17
4580.91000 1.51991e-17
4582.37970 1.51791e-17
4583.84940 1.47949e-17
4585.31910 1.45089e-17
4586.78880 1.58092e-17
4588.25850 1.64109e-17
4589.72820 1.57170e-17
4591.19790 1.54803e-17
4592.66760 1.56596e-17
4594.13730 1.50875e-17
4595.60700 1.52066e-17
4597.07670 1.52289e-17
4598.54640 1.40920e-17
4600.01610 1.44175e-17
4601.48580 1.57845e-17
4602.95550 1.51680e-17
4604.43555 1.42343e-17
4605.90525 1.57171e-17
4607.37495 1.61810e-17
4608.84465 1.54767e-17
4610.31435 1.55469e-17
4611.78405 1.59040e-17
4613.25375 1.58833e-17
4614.72345 1.54701e-17
4616.19315 1.48596e-17
4617.66285 1.45528e-17
4619.13255 1.46640e-17
4620.60225 1.46628e-17
4622.07195 1.51034e-17
4623.54165 1.44918e-17
4625.01135 1.33593e-17
4626.48105 1.43101e-17
4627.95075 1.49592e-17
4629.42045 1.40563e-17
4630.89015 1.39666e-17
4632.35985 1.41108e-17
4633.82955 1.36196e-17
4635.29925 1.40318e-17
4636.76895 1.46019e-17
4638.23865 1.46561e-17
4639.70835 1.49584e-17
4641.17805 1.55721e-17
4642.64775 1.50406e-17
4644.11745 1.40781e-17
4645.58715 1.47358e-17
4647.05685 1.49420e-17
4648.52655 1.41104e-17
4649.99625 1.39878e-17
4651.46595 1.40376e-17
4652.93565 1.41630e-17
4654.40535 1.47839e-17
4655.88540 1.48140e-17
4657.35510 1.43560e-17
4658.82480 1.51705e-17
4660.29450 1.52658e-17
4661.76420 1.45923e-17
4663.23390 1.49393e-17
4664.70360 1.50828e-17
4666.17330 1.47565e-17
4667.64300 1.51078e-17
4669.11270 1.51352e-17
4670.58240 1.50481e-17
4672.05210 1.50855e-17
4673.52180 1.44923e-17
4674.99150 1.43857e-17
4676.46120 1.43068e-17
4677.93090 1.37170e-17
4679.40060 1.43525e-17
4680.87030 1.59201e-17
4682.34000 1.49456e-17
4683.80970 1.40561e-17
4685.27940 1.53848e-17
4686.74910 1.47335e-17
4688.21880 1.39336e-17
4689.68850 1.43289e-17
4691.15820 1.49733e-17
4692.62790 1.55367e-17
4694.09760 1.51452e-17
4695.56730 1.49152e-17
4697.03700 1.43214e-17
4698.50670 1.36379e-17
4699.97640 1.43623e-17
4701.44610 1.51897e-17
4702.91580 1.46508e-17
4704.38550 1.41873e-17
4705.85520 1.44902e-17
4707.33525 1.46044e-17
4708.79460 1.45281e-17
4710.27465 1.40416e-17
4711.74435 1.38423e-17
4713.21405 1.48526e-17
4714.68375 1.45839e-17
4716.15345 1.43672e-17
4717.62315 1.45224e-17
4719.09285 1.40749e-17
4720.56255 1.40440e-17
4722.03225 1.44585e-17
4723.50195 1.41485e-17
4724.97165 1.35957e-17
4726.44135 1.47578e-17
4727.91105 1.46380e-17
4729.38075 1.35946e-17
4730.85045 1.44293e-17
4732.32015 1.49685e-17
4733.78985 1.53817e-17
4735.25955 1.50025e-17
4736.72925 1.41755e-17
4738.19895 1.48268e-17
4739.66865 1.47056e-17
4741.13835 1.44108e-17
4742.60805 1.46132e-17
4744.07775 1.42139e-17
4745.54745 1.36048e-17
4747.01715 1.30724e-17
4748.48685 1.27409e-17
4749.95655 1.31822e-17
4751.42625 1.34553e-17
4752.89595 1.35582e-17
4754.36565 1.36115e-17
4755.83535 1.39182e-17
4757.31540 1.43249e-17
4758.77475 1.41324e-17
4760.25480 1.49163e-17
4761.72450 1.51823e-17
4763.19420 1.39198e-17
4764.66390 1.37488e-17
4766.13360 1.42853e-17
4767.60330 1.35266e-17
4769.07300 1.31372e-17
4770.54270 1.31060e-17
4772.01240 1.32495e-17
4773.48210 1.30142e-17
4774.95180 1.25585e-17
4776.42150 1.29453e-17
4777.89120 1.34306e-17
4779.36090 1.36810e-17
4780.83060 1.33203e-17
4782.30030 1.38055e-17
4783.77000 1.36158e-17
4785.23970 1.31026e-17
4786.70940 1.29122e-17
4788.17910 1.35506e-17
4789.64880 1.36838e-17
4791.11850 1.30736e-17
4792.58820 1.34243e-17
4794.05790 1.26748e-17
4795.52760 1.25510e-17
4796.99730 1.37559e-17
4798.46700 1.33156e-17
4799.93670 1.25457e-17
4801.40640 1.27885e-17
4802.87610 1.27162e-17
4804.34580 1.24732e-17
4805.81550 1.29291e-17
4807.28520 1.34151e-17
4808.76525 1.31848e-17
4810.23495 1.24322e-17
4811.70465 1.26956e-17
4813.17435 1.32499e-17
4814.64405 1.31945e-17
4816.11375 1.31707e-17
4817.58345 1.26827e-17
4819.05315 1.24796e-17
4820.52285 1.30328e-17
4821.99255 1.32656e-17
4823.46225 1.26884e-17
4824.93195 1.26071e-17
4826.40165 1.26713e-17
4827.87135 1.27952e-17
4829.34105 1.29779e-17
4830.81075 1.26882e-17
4832.28045 1.24865e-17
4833.75015 1.25972e-17
4835.21985 1.26810e-17
4836.68955 1.25222e-17
4838.15925 1.33742e-17
4839.62895 1.34768e-17
4841.09865 1.28907e-17
4842.56835 1.30346e-17
4844.03805 1.31920e-17
4845.50775 1.30933e-17
4846.97745 1.24169e-17
4848.44715 1.18173e-17
4849.91685 1.28263e-17
4851.38655 1.24340e-17
4852.85625 9.53933e-18
4854.32595 9.70087e-18
4855.79565 1.18922e-17
4857.26535 1.18357e-17
4858.74540 1.21965e-17
4860.20475 1.28013e-17
4861.68480 1.22992e-17
4863.15450 1.19047e-17
4864.62420 1.27026e-17
4866.09390 1.26920e-17
4867.56360 1.17267e-17
4869.03330 1.15994e-17
4870.50300 1.22342e-17
4871.97270 1.25705e-17
4873.44240 1.25217e-17
4874.91210 1.26868e-17
4876.38180 1.25083e-17
4877.85150 1.28913e-17
4879.32120 1.30607e-17
4880.79090 1.21972e-17
4882.26060 1.20057e-17
4883.73030 1.21902e-17
4885.20000 1.22081e-17
4886.66970 1.19041e-17
4888.13940 1.16404e-17
4889.60910 1.16588e-17
4891.07880 1.20152e-17
4892.54850 1.21542e-17
4894.01820 1.17721e-17
4895.48790 1.16909e-17
4896.95760 1.22478e-17
4898.42730 1.25277e-17
4899.89700 1.20160e-17
4901.36670 1.18325e-17
4902.83640 1.20329e-17
4904.30610 1.21339e-17
4905.77580 1.22245e-17
4907.24550 1.25389e-17
4908.72555 1.25207e-17
4910.19525 1.20161e-17
4911.66495 1.11888e-17
4913.13465 1.18810e-17
4914.60435 1.18136e-17
4916.07405 1.12051e-17
4917.54375 1.14321e-17
4919.01345 1.15816e-17
4920.48315 1.17219e-17
4921.95285 1.17195e-17
4923.42255 1.19698e-17
4924.89225 1.21116e-17
4926.36195 1.19264e-17
4927.83165 1.16771e-17
4929.30135 1.08037e-17
4930.77105 1.12311e-17
4932.24075 1.19494e-17
4933.71045 1.20237e-17
4935.18015 1.15533e-17
4936.64985 1.12000e-17
4938.11955 1.14099e-17
4939.58925 1.20293e-17
4941.05895 1.14835e-17
4942.52865 1.11285e-17
4943.99835 1.17402e-17
4945.46805 1.15624e-17
4946.93775 1.09509e-17
4948.40745 1.03670e-17
4949.87715 9.79004e-18
4951.34685 1.06392e-17
4952.81655 1.13643e-17
4954.28625 1.16200e-17
4955.75595 1.16351e-17
4957.22565 1.14938e-17
4958.69535 1.12797e-17
4960.17540 1.14658e-17
4961.64510 1.14518e-17
4963.11480 1.09385e-17
4964.58450 1.09578e-17
4966.05420 1.09160e-17
4967.52390 1.13157e-17
4968.99360 1.17566e-17
4970.46330 1.15266e-17
4971.93300 1.16568e-17
4973.40270 1.21833e-17
4974.87240 1.13162e-17
4976.34210 1.02563e-17
4977.81180 1.01664e-17
4979.28150 1.07314e-17
4980.75120 1.16261e-17
4982.22090 1.19178e-17
4983.69060 1.13625e-17
4985.16030 1.17779e-17
4986.63000 1.20626e-17
4988.09970 1.10209e-17
4989.56940 1.17261e-17
4991.03910 1.24091e-17
4992.50880 1.15991e-17
4993.97850 1.12696e-17
4995.44820 1.17415e-17
4996.91790 1.13972e-17
4998.38760 1.17649e-17
4999.85730 1.17435e-17
5001.32700 1.13554e-17
5002.79670 1.15581e-17
5004.26640 1.21977e-17
5005.73610 1.25325e-17
5007.20580 1.14692e-17
5008.67550 1.04862e-17
5010.14520 1.13383e-17
5011.62525 1.20653e-17
5013.09495 1.15645e-17
5014.56465 1.13904e-17
5016.03435 1.19956e-17
5017.50405 1.17062e-17
5018.97375 1.19221e-17
5020.44345 1.16454e-17
5021.91315 1.14373e-17
5023.38285 1.18060e-17
5024.85255 1.18387e-17
5026.32225 1.16453e-17
5027.79195 1.19781e-17
5029.26165 1.23149e-17
5030.73135 1.19929e-17
5032.20105 1.08537e-17
5033.67075 1.13292e-17
5035.14045 1.20122e-17
5036.61015 1.17204e-17
5038.07985 1.16894e-17
5039.54955 1.13684e-17
5041.01925 1.09961e-17
5042.48895 1.16847e-17
5043.95865 1.08695e-17
5045.42835 1.09460e-17
5046.89805 1.20123e-17
5048.36775 1.22397e-17
5049.83745 1.19625e-17
5051.30715 1.22155e-17
5052.77685 1.16030e-17
5054.24655 1.15576e-17
5055.71625 1.20852e-17
5057.18595 1.24097e-17
5058.65565 1.15291e-17
5060.12535 1.19248e-17
5061.60540 1.27352e-17
5063.06475 1.21482e-17
5064.54480 1.18373e-17
5066.01450 1.20701e-17
5067.48420 1.19812e-17
5068.95390 1.17373e-17
5070.42360 1.20659e-17
5071.89330 1.22223e-17
5073.36300 1.24402e-17
5074.83270 1.14015e-17
5076.30240 1.16810e-17
5077.77210 1.22070e-17
5079.24180 1.23886e-17
5080.71150 1.17641e-17
5082.18120 1.25340e-17
5083.65090 1.26175e-17
5085.12060 1.18795e-17
5086.59030 1.16911e-17
5088.06000 1.20298e-17
5089.52970 1.19492e-17
5090.99940 1.18898e-17
5092.46910 1.27051e-17
5093.93880 1.25095e-17
5095.40850 1.22646e-17
5096.87820 1.19800e-17
5098.34790 1.19185e-17
5099.81760 1.20703e-17
5101.28730 1.27938e-17
5102.75700 1.24468e-17
5104.22670 1.23167e-17
5105.69640 1.15675e-17
5107.16610 1.14511e-17
5108.63580 1.22047e-17
5110.10550 1.27371e-17
5111.58555 1.22467e-17
5113.05525 1.14298e-17
5114.52495 1.15497e-17
5115.99465 1.23672e-17
5117.46435 1.23296e-17
5118.93405 1.27196e-17
5120.40375 1.28438e-17
5121.87345 1.16951e-17
5123.34315 1.18698e-17
5124.81285 1.24939e-17
5126.28255 1.15691e-17
5127.75225 1.22217e-17
5129.22195 1.27919e-17
5130.69165 1.22484e-17
5132.16135 1.19004e-17
5133.63105 1.28525e-17
5135.10075 1.31587e-17
5136.57045 1.30676e-17
5138.04015 1.23315e-17
5139.50985 1.22234e-17
5140.97955 1.27949e-17
5142.44925 1.20685e-17
5143.91895 1.16224e-17
5145.38865 1.17764e-17
5146.85835 1.19213e-17
5148.32805 1.18907e-17
5149.79775 1.16441e-17
5151.26745 1.15029e-17
5152.73715 1.18344e-17
5154.20685 1.26396e-17
5155.67655 1.20576e-17
5157.14625 1.18062e-17
5158.61595 1.23910e-17
5160.08565 1.25012e-17
5161.55535 1.25262e-17
5163.02505 1.29188e-17
5164.50510 1.23861e-17
5165.97480 1.23331e-17
5167.44450 1.30925e-17
5168.91420 1.21850e-17
5170.38390 1.19532e-17
5171.85360 1.25924e-17
5173.32330 1.27082e-17
5174.79300 1.29921e-17
5176.26270 1.30157e-17
5177.73240 1.29334e-17
5179.20210 1.32693e-17
5180.67180 1.29805e-17
5182.14150 1.25541e-17
5183.61120 1.25938e-17
5185.08090 1.25175e-17
5186.55060 1.19346e-17
5188.02030 1.20233e-17
5189.49000 1.23647e-17
5190.95970 1.26843e-17
5192.42940 1.31950e-17
5193.89910 1.27365e-17
5195.36880 1.32444e-17
5196.83850 1.32223e-17
5198.30820 1.25449e-17
5199.77790 1.24138e-17
5201.24760 1.26486e-17
5202.71730 1.29729e-17
5204.18700 1.27040e-17
5205.65670 1.22290e-17
5207.12640 1.28837e-17
5208.59610 1.33346e-17
5210.06580 1.30468e-17
5211.53550 1.29705e-17
5213.00520 1.30641e-17
5214.48525 1.29579e-17
5215.95495 1.30031e-17
5217.42465 1.33049e-17
5218.89435 1.29127e-17
5220.36405 1.30984e-17
5221.83375 1.26302e-17
5223.30345 1.19329e-17
5224.77315 1.22526e-17
5226.24285 1.33909e-17
5227.71255 1.34544e-17
5229.18225 1.26576e-17
5230.65195 1.25863e-17
5232.12165 1.28635e-17
5233.59135 1.30991e-17
5235.06105 1.31283e-17
5236.53075 1.36923e-17
5238.00045 1.33526e-17
5239.47015 1.32047e-17
5240.93985 1.36203e-17
5242.40955 1.32218e-17
5243.87925 1.30070e-17
5245.34895 1.26007e-17
5246.81865 1.32228e-17
5248.28835 1.34688e-17
5249.75805 1.30445e-17
5251.22775 1.33174e-17
5252.69745 1.30893e-17
5254.16715 1.28467e-17
5255.63685 1.27077e-17
5257.10655 1.24979e-17
5258.57625 1.27625e-17
5260.04595 1.22936e-17
5261.51565 1.18434e-17
5262.98535 1.28561e-17
5264.46540 1.35989e-17
5265.93510 1.31535e-17
5267.40480 1.23644e-17
5268.87450 1.33413e-17
5270.34420 1.36888e-17
5271.81390 1.30996e-17
5273.28360 1.37959e-17
5274.75330 1.34411e-17
5276.22300 1.29590e-17
5277.69270 1.27850e-17
5279.16240 1.21719e-17
5280.63210 1.32275e-17
5282.10180 1.41421e-17
5283.57150 1.30740e-17
5285.04120 1.31326e-17
5286.51090 1.32271e-17
5287.98060 1.24276e-17
5289.45030 1.25963e-17
5290.92000 1.28660e-17
5292.38970 1.22063e-17
5293.85940 1.27221e-17
5295.32910 1.35167e-17
5296.79880 1.26561e-17
5298.26850 1.24119e-17
5299.73820 1.27411e-17
5301.20790 1.30336e-17
5302.67760 1.27717e-17
5304.14730 1.25191e-17
5305.61700 1.27325e-17
5307.08670 1.30958e-17
5308.55640 1.32612e-17
5310.02610 1.31877e-17
5311.49580 1.33723e-17
5312.96550 1.38679e-17
5314.43520 1.33479e-17
5315.91525 1.32110e-17
5317.38495 1.28231e-17
5318.85465 1.25400e-17
5320.32435 1.32137e-17
5321.79405 1.26501e-17
5323.26375 1.27804e-17
5324.73345 1.32534e-17
5326.20315 1.30578e-17
5327.67285 1.29982e-17
5329.14255 1.37567e-17
5330.61225 1.37862e-17
5332.08195 1.24162e-17
5333.55165 1.27547e-17
5335.02135 1.26891e-17
5336.49105 1.26497e-17
5337.96075 1.29334e-17
5339.43045 1.34769e-17
5340.90015 1.39236e-17
5342.36985 1.33042e-17
5343.83955 1.28916e-17
5345.30925 1.34524e-17
5346.77895 1.34652e-17
5348.24865 1.37483e-17
5349.71835 1.37801e-17
5351.18805 1.35505e-17
5352.65775 1.31431e-17
5354.12745 1.33304e-17
5355.59715 1.39485e-17
5357.06685 1.31457e-17
5358.53655 1.27697e-17
5360.00625 1.29370e-17
5361.47595 1.35578e-17
5362.94565 1.40314e-17
5364.41535 1.32806e-17
5365.89540 1.27466e-17
5367.35475 1.28666e-17
5368.83480 1.37021e-17
5370.30450 1.29889e-17
5371.77420 1.30257e-17
5373.24390 1.33292e-17
5374.71360 1.37390e-17
5376.18330 1.30512e-17
5377.65300 1.31954e-17
5379.12270 1.36570e-17
5380.59240 1.33704e-17
5382.06210 1.37992e-17
5383.53180 1.29015e-17
5385.00150 1.31062e-17
5386.47120 1.38184e-17
5387.94090 1.34481e-17
5389.41060 1.34115e-17
5390.88030 1.37140e-17
5392.35000 1.25718e-17
5393.81970 1.29992e-17
5395.28940 1.33764e-17
5396.75910 1.33750e-17
5398.22880 1.35459e-17
5399.69850 1.30246e-17
5401.16820 1.25490e-17
5402.63790 1.25180e-17
5404.10760 1.17757e-17
5405.57730 1.12648e-17
5407.04700 1.13893e-17
5408.51670 1.15666e-17
5409.98640 1.21762e-17
5411.45610 1.20840e-17
5412.92580 1.22069e-17
5414.39550 1.22805e-17
5415.87555 1.19348e-17
5417.34525 1.25053e-17
5418.81495 1.22111e-17
5420.28465 1.27022e-17
5421.75435 1.24243e-17
5423.22405 1.20877e-17
5424.69375 1.28494e-17
5426.16345 1.23079e-17
5427.63315 1.27190e-17
5429.10285 1.19277e-17
5430.57255 1.16661e-17
5432.04225 1.19287e-17
5433.51195 1.27604e-17
5434.98165 1.27150e-17
5436.45135 1.21849e-17
5437.92105 1.17096e-17
5439.39075 1.14547e-17
5440.86045 1.15143e-17
5442.33015 1.19012e-17
5443.79985 1.14446e-17
5445.26955 1.14549e-17
5446.73925 1.20659e-17
5448.20895 1.22962e-17
5449.67865 1.16261e-17
5451.14835 1.14517e-17
5452.61805 1.12503e-17
5454.08775 1.15438e-17
5455.55745 1.21573e-17
5457.02715 1.24348e-17
5458.49685 1.32772e-17
5459.96655 1.22043e-17
5461.43625 1.11019e-17
5462.90595 1.16971e-17
5464.37565 1.20284e-17
5465.84535 1.14214e-17
5467.31505 1.14234e-17
5468.79510 1.14798e-17
5470.26480 1.16065e-17
5471.73450 1.14105e-17
5473.20420 1.14581e-17
5474.67390 1.17724e-17
5476.14360 1.18960e-17
5477.61330 1.14457e-17
5479.08300 1.17607e-17
5480.55270 1.23426e-17
5482.02240 1.20115e-17
5483.49210 1.17736e-17
5484.96180 1.19418e-17
5486.43150 1.07032e-17
5487.90120 1.08564e-17
5489.37090 1.16063e-17
5490.84060 1.14499e-17
5492.31030 1.14749e-17
5493.78000 1.15419e-17
5495.24970 1.16602e-17
5496.71940 1.19522e-17
5498.18910 1.15354e-17
5499.65880 1.12504e-17
5501.12850 1.20231e-17
5502.59820 1.18876e-17
5504.06790 1.17112e-17
5505.53760 1.16369e-17
5507.00730 1.16690e-17
5508.47700 1.19272e-17
5509.94670 1.16352e-17
5511.41640 1.10627e-17
5512.88610 1.18706e-17
5514.35580 1.08660e-17
5515.82550 1.05444e-17
5517.29520 1.12967e-17
5518.77525 1.13856e-17
5520.24495 1.10854e-17
5521.71465 1.13161e-17
5523.18435 1.18251e-17
5524.65405 1.21120e-17
5526.12375 1.13402e-17
5527.59345 1.09811e-17
5529.06315 1.11706e-17
5530.53285 1.18070e-17
5532.00255 1.19093e-17
5533.47225 1.15067e-17
5534.94195 1.13350e-17
5536.41165 1.13877e-17
5537.88135 1.13197e-17
5539.35105 1.17391e-17
5540.82075 1.11159e-17
5542.29045 9.99078e-18
5543.76015 1.01851e-17
5545.22985 1.12607e-17
5546.69955 1.16749e-17
5548.16925 1.11589e-17
5549.63895 1.10800e-17
5551.10865 1.18278e-17
5552.57835 1.15971e-17
5554.04805 1.12732e-17
5555.51775 1.12824e-17
5556.98745 1.10751e-17
5558.45715 1.03992e-17
5559.92685 1.07288e-17
5561.39655 1.12647e-17
5562.86625 1.09539e-17
5564.33595 1.10022e-17
5565.80565 1.05045e-17
5567.27535 1.07100e-17
5568.75540 1.12400e-17
5570.22510 1.10033e-17
5571.69480 1.04715e-17
5573.16450 1.05855e-17
5574.63420 1.13277e-17
5576.10390 1.17241e-17
5577.57360 1.18850e-17
5579.04330 1.13902e-17
5580.51300 1.01056e-17
5581.98270 1.00110e-17
5583.45240 1.06721e-17
5584.92210 1.01775e-17
5586.39180 1.02257e-17
5587.86150 1.02807e-17
5589.33120 9.84152e-18
5590.80090 1.00813e-17
5592.27060 1.06260e-17
5593.74030 1.00605e-17
5595.21000 9.62788e-18
5596.67970 9.38970e-18
5598.14940 9.63506e-18
5599.61910 1.01013e-17
5601.08880 1.03277e-17
5602.55850 1.01307e-17
5604.02820 1.03629e-17
5605.49790 1.00923e-17
5606.96760 9.82544e-18
5608.43730 9.61012e-18
5609.90700 9.84013e-18
5611.37670 1.01402e-17
5612.84640 9.55213e-18
5614.31610 9.45102e-18
5615.78580 1.05627e-17
5617.25550 1.01578e-17
5618.72520 9.39194e-18
5620.20525 1.04961e-17
5621.67495 9.76488e-18
5623.14465 8.92321e-18
5624.61435 9.69879e-18
5626.08405 9.56247e-18
5627.55375 9.80561e-18
5629.02345 9.83399e-18
5630.49315 1.00565e-17
5631.96285 9.88164e-18
5633.43255 9.79638e-18
5634.90225 9.32903e-18
5636.37195 8.91961e-18
5637.84165 9.77920e-18
5639.31135 1.03151e-17
5640.78105 9.13048e-18
5642.25075 8.83561e-18
5643.72045 8.78456e-18
5645.19015 9.56771e-18
5646.65985 9.31367e-18
5648.12955 9.04362e-18
5649.59925 8.56406e-18
5651.06895 9.11324e-18
5652.53865 9.67256e-18
5654.00835 9.27111e-18
5655.47805 9.08389e-18
5656.94775 9.38747e-18
5658.41745 9.02150e-18
5659.88715 8.64510e-18
5661.35685 9.18336e-18
5662.82655 9.75405e-18
5664.29625 9.78135e-18
5665.76595 1.03565e-17
5667.23565 9.93592e-18
5668.70535 9.99397e-18
5670.18540 8.85205e-18
5671.64475 8.76850e-18
5673.12480 9.73021e-18
5674.59450 9.11735e-18
5676.06420 8.68140e-18
5677.53390 8.88235e-18
5679.00360 8.70191e-18
5680.47330 8.78735e-18
5681.94300 8.98568e-18
5683.41270 9.15426e-18
5684.88240 9.39168e-18
5686.35210 8.69052e-18
5687.82180 8.98376e-18
5689.29150 9.50242e-18
5690.76120 8.63105e-18
5692.23090 8.89348e-18
5693.70060 9.88083e-18
5695.17030 9.46560e-18
5696.64000 9.13044e-18
5698.10970 9.51290e-18
5699.57940 9.27432e-18
5701.04910 8.98546e-18
5702.51880 9.38877e-18
5703.98850 9.44323e-18
5705.45820 8.62882e-18
5706.92790 8.38207e-18
5708.39760 8.42108e-18
5709.86730 8.83833e-18
5711.33700 9.01656e-18
5712.80670 8.85665e-18
5714.27640 9.30740e-18
5715.74610 8.31900e-18
5717.21580 8.85886e-18
5718.68550 9.44019e-18
5720.16555 9.05328e-18
5721.63525 8.54680e-18
5723.10495 8.67827e-18
5724.57465 8.22172e-18
5726.04435 8.47548e-18
5727.51405 8.32325e-18
5728.98375 8.35602e-18
5730.45345 8.48032e-18
5731.92315 8.91360e-18
5733.39285 8.69195e-18
5734.86255 9.04094e-18
5736.33225 8.26018e-18
5737.80195 8.26795e-18
5739.27165 8.21321e-18
5740.74135 7.82872e-18
5742.21105 8.35033e-18
5743.68075 8.60030e-18
5745.15045 8.75340e-18
5746.62015 9.17953e-18
5748.08985 8.62889e-18
5749.55955 8.17143e-18
5751.02925 8.46738e-18
5752.49895 8.50973e-18
5753.96865 8.53072e-18
5755.43835 8.37167e-18
5756.90805 8.46600e-18
5758.37775 8.40522e-18
5759.84745 8.72100e-18
5761.31715 8.60888e-18
5762.78685 9.11921e-18
5764.25655 9.19050e-18
5765.72625 8.66389e-18
5767.19595 8.23156e-18
5768.66565 9.04389e-18
5770.13535 8.76382e-18
5771.61540 8.54436e-18
5773.08510 8.59630e-18
5774.55480 8.36703e-18
5776.02450 8.07364e-18
5777.49420 8.12078e-18
5778.96390 8.30786e-18
5780.43360 8.34948e-18
5781.90330 8.78623e-18
5783.37300 8.50748e-18
5784.84270 8.28761e-18
5786.31240 8.30460e-18
5787.78210 8.59385e-18
5789.25180 8.73862e-18
5790.72150 7.90059e-18
5792.19120 7.62585e-18
5793.66090 7.96884e-18
5795.13060 8.87614e-18
5796.60030 8.70558e-18
5798.07000 8.92112e-18
5799.53970 9.17142e-18
5801.00940 8.94687e-18
5802.47910 9.10281e-18
5803.94880 9.06568e-18
5805.41850 8.95048e-18
5806.88820 8.25358e-18
5808.35790 8.54335e-18
5809.82760 8.95519e-18
5811.29730 8.72179e-18
5812.76700 9.05285e-18
5814.23670 9.26946e-18
5815.70640 8.95200e-18
5817.17610 9.45819e-18
5818.64580 9.31647e-18
5820.11550 8.36528e-18
5821.58520 9.23650e-18
5823.06525 9.62156e-18
5824.53495 8.87567e-18
5826.00465 9.35296e-18
5827.47435 9.33726e-18
5828.94405 9.29256e-18
5830.41375 8.86681e-18
5831.88345 8.85529e-18
5833.35315 8.72291e-18
5834.82285 9.38605e-18
5836.29255 9.60432e-18
5837.76225 9.26725e-18
5839.23195 9.24613e-18
5840.70165 8.79814e-18
5842.17135 8.75771e-18
5843.64105 8.69756e-18
5845.11075 8.46063e-18
5846.58045 8.69065e-18
5848.05015 9.02174e-18
5849.51985 9.13152e-18
5850.98955 1.02452e-17
5852.45925 9.49667e-18
5853.92895 8.82128e-18
5855.39865 8.64219e-18
5856.86835 9.70720e-18
5858.33805 9.66915e-18
5859.80775 8.75966e-18
5861.27745 8.98312e-18
5862.74715 1.01838e-17
5864.21685 9.59015e-18
5865.68655 9.62670e-18
5867.15625 9.07676e-18
5868.62595 9.36705e-18
5870.09565 9.49745e-18
5871.56535 8.98651e-18
5873.04540 9.00388e-18
5874.50475 8.98331e-18
5875.98480 9.74208e-18
5877.45450 9.71249e-18
5878.92420 9.90719e-18
5880.39390 1.02047e-17
5881.86360 1.03120e-17
5883.33330 9.60168e-18
5884.80300 8.97837e-18
5886.27270 9.15866e-18
5887.74240 9.27468e-18
5889.21210 9.00369e-18
5890.68180 9.07449e-18
5892.15150 1.00523e-17
5893.62120 9.31523e-18
5895.09090 9.07668e-18
5896.56060 9.54409e-18
5898.03030 9.84434e-18
5899.50000 9.75685e-18
5900.96970 8.91410e-18
5902.43940 9.79425e-18
5903.90910 9.09206e-18
5905.37880 8.73577e-18
5906.84850 1.00503e-17
5908.31820 9.54366e-18
5909.78790 8.93772e-18
5911.25760 9.52446e-18
5912.72730 1.02083e-17
5914.19700 9.34559e-18
5915.66670 9.43691e-18
5917.13640 9.17454e-18
5918.60610 9.54950e-18
5920.07580 9.45711e-18
5921.54550 9.65008e-18
5923.01520 9.79660e-18
5924.49525 8.90844e-18
5925.96495 9.54586e-18
5927.43465 9.12416e-18
5928.90435 1.00516e-17
5930.37405 1.03313e-17
5931.84375 9.45702e-18
5933.31345 1.01814e-17
5934.78315 1.02252e-17
5936.25285 9.91329e-18
5937.72255 9.38429e-18
5939.19225 8.80232e-18
5940.66195 9.85624e-18
5942.13165 9.56364e-18
5943.60135 8.99656e-18
5945.07105 9.06216e-18
5946.54075 1.01166e-17
5948.01045 8.93662e-18
5949.48015 8.45275e-18
5950.94985 8.71890e-18
5952.41955 9.29548e-18
5953.88925 9.25111e-18
5955.35895 9.09341e-18
5956.82865 8.37612e-18
5958.29835 9.73951e-18
5959.76805 9.16157e-18
5961.23775 9.05111e-18
5962.70745 9.31200e-18
5964.17715 9.72107e-18
5965.64685 1.00630e-17
5967.11655 9.63324e-18
5968.58625 8.85053e-18
5970.05595 9.74101e-18
5971.52565 9.50585e-18
5972.99535 9.53630e-18
5974.47540 9.17418e-18
5975.93475 8.34479e-18
5977.41480 8.74020e-18
5978.88450 9.69226e-18
5980.35420 9.61475e-18
5981.82390 9.19960e-18
5983.29360 9.21652e-18
5984.76330 9.18737e-18
5986.23300 8.89286e-18
5987.70270 8.72511e-18
5989.17240 9.06559e-18
5990.64210 9.43302e-18
5992.11180 9.69340e-18
5993.58150 9.37768e-18
5995.05120 8.69903e-18
5996.52090 8.57797e-18
5997.99060 8.74116e-18
5999.46030 8.97477e-18
6000.93000 8.81454e-18
6002.39970 9.14560e-18
6003.86940 8.97887e-18
6005.33910 9.14825e-18
6006.80880 9.32822e-18
6008.27850 8.21129e-18
6009.74820 8.56757e-18
6011.21790 9.17725e-18
6012.68760 8.91181e-18
6014.15730 8.52495e-18
6015.62700 8.40199e-18
6017.09670 9.15411e-18
6018.56640 9.48862e-18
6020.03610 9.15119e-18
6021.50580 8.77264e-18
6022.97550 8.68673e-18
6024.45555 9.25694e-18
6025.92525 9.16657e-18
6027.39495 8.57749e-18
6028.86465 8.73014e-18
6030.33435 8.91749e-18
6031.80405 9.12037e-18
6033.27375 9.14119e-18
6034.74345 8.62149e-18
6036.21315 8.98688e-18
6037.68285 9.59571e-18
6039.15255 9.70549e-18
6040.62225 8.82677e-18
6042.09195 8.54325e-18
6043.56165 9.54064e-18
6045.03135 9.71900e-18
6046.50105 8.50128e-18
6047.97075 8.77053e-18
6049.44045 8.63672e-18
6050.91015 8.05949e-18
6052.37985 8.28161e-18
6053.84955 8.29201e-18
6055.31925 8.56359e-18
6056.78895 8.38066e-18
6058.25865 8.61213e-18
6059.72835 8.84216e-18
6061.19805 8.39833e-18
6062.66775 8.26636e-18
6064.13745 8.38332e-18
6065.60715 8.49784e-18
6067.07685 8.40911e-18
6068.54655 7.87070e-18
6070.01625 8.38805e-18
6071.48595 8.98904e-18
6072.95565 8.08898e-18
6074.42535 8.41323e-18
6075.90540 7.99036e-18
6077.37510 8.12008e-18
6078.84480 8.89635e-18
6080.31450 8.76254e-18
6081.78420 9.02988e-18
6083.25390 8.43160e-18
6084.72360 8.70840e-18
6086.19330 8.86902e-18
6087.66300 8.71353e-18
6089.13270 8.98501e-18
6090.60240 8.00893e-18
6092.07210 7.99781e-18
6093.54180 8.33003e-18
6095.01150 8.28976e-18
6096.48120 8.57728e-18
6097.95090 8.18911e-18
6099.42060 8.03085e-18
6100.89030 8.67912e-18
6102.36000 8.23371e-18
6103.82970 8.53389e-18
6105.29940 8.76712e-18
6106.76910 8.36816e-18
6108.23880 8.36817e-18
6109.70850 8.71249e-18
6111.17820 8.15195e-18
6112.64790 9.01222e-18
6114.11760 8.76572e-18
6115.58730 8.00240e-18
6117.05700 8.43526e-18
6118.52670 8.80236e-18
6119.99640 8.77584e-18
6121.46610 8.67878e-18
6122.93580 8.45720e-18
6124.40550 8.22425e-18
6125.87520 8.15110e-18
6127.35525 8.10714e-18
6128.82495 8.90986e-18
6130.29465 8.02740e-18
6131.76435 7.87735e-18
6133.23405 8.35584e-18
6134.70375 7.52971e-18
6136.17345 8.01872e-18
6137.64315 8.32273e-18
6139.11285 8.10521e-18
6140.58255 7.93079e-18
6142.05225 8.41228e-18
6143.52195 8.55187e-18
6144.99165 8.38918e-18
6146.46135 7.99367e-18
6147.93105 8.60469e-18
6149.40075 7.91736e-18
6150.87045 7.78061e-18
6152.34015 8.13003e-18
6153.80985 7.74608e-18
6155.27955 8.24843e-18
6156.74925 8.67886e-18
6158.21895 8.70900e-18
6159.68865 8.66356e-18
6161.15835 8.25295e-18
6162.62805 7.59031e-18
6164.09775 7.98914e-18
6165.56745 8.27079e-18
6167.03715 8.40384e-18
6168.50685 9.29208e-18
6169.97655 8.49638e-18
6171.44625 8.34967e-18
6172.91595 7.74489e-18
6174.38565 8.01631e-18
6175.85535 8.31235e-18
6177.33540 8.02661e-18
6178.79475 7.97882e-18
6180.27480 7.50958e-18
6181.74450 8.14476e-18
6183.21420 7.92389e-18
6184.68390 7.91079e-18
6186.15360 7.77874e-18
6187.62330 7.81399e-18
6189.09300 8.61172e-18
6190.56270 8.79348e-18
6192.03240 7.55801e-18
6193.50210 7.73834e-18
6194.97180 8.71538e-18
6196.44150 8.88479e-18
6197.91120 8.52888e-18
6199.38090 7.80781e-18
6200.85060 7.65814e-18
6202.32030 7.54070e-18
6203.79000 7.89139e-18
6205.25970 8.24181e-18
6206.72940 7.91224e-18
6208.19910 7.95600e-18
6209.66880 8.31623e-18
6211.13850 8.03284e-18
6212.60820 8.23155e-18
6214.07790 8.49721e-18
6215.54760 7.78841e-18
6217.01730 7.99359e-18
6218.48700 8.68685e-18
6219.95670 8.53131e-18
6221.42640 7.87492e-18
6222.89610 7.55523e-18
6224.36580 7.46130e-18
6225.83550 7.55533e-18
6227.31555 8.15645e-18
6228.78525 8.19412e-18
6230.25495 7.45374e-18
6231.72465 7.69871e-18
6233.19435 8.04774e-18
6234.66405 8.08403e-18
6236.13375 8.04393e-18
6237.60345 8.12572e-18
6239.07315 8.11975e-18
6240.54285 8.02034e-18
6242.01255 7.97892e-18
6243.48225 7.93443e-18
6244.95195 8.17672e-18
6246.42165 8.00579e-18
6247.89135 7.71797e-18
6249.36105 8.09465e-18
6250.83075 8.12425e-18
6252.30045 7.60621e-18
6253.77015 8.10030e-18
6255.23985 8.34550e-18
6256.70955 7.73874e-18
6258.17925 7.95588e-18
6259.64895 7.76762e-18
6261.11865 8.45886e-18
6262.58835 8.11433e-18
6264.05805 7.73493e-18
6265.52775 7.84960e-18
6266.99745 7.71904e-18
6268.46715 7.86403e-18
6269.93685 7.92932e-18
6271.40655 8.10583e-18
6272.87625 7.47728e-18
6274.34595 7.55826e-18
6275.81565 7.71367e-18
6277.28535 7.54035e-18
6278.75505 6.90292e-18
6280.23510 6.55032e-18
6281.70480 6.43291e-18
6283.17450 6.83852e-18
6284.64420 7.70273e-18
6286.11390 7.21273e-18
6287.58360 6.91091e-18
6289.05330 7.77806e-18
6290.52300 7.73997e-18
6291.99270 7.55252e-18
6293.46240 7.21446e-18
6294.93210 7.19794e-18
6296.40180 7.01210e-18
6297.87150 6.84400e-18
6299.34120 7.71604e-18
6300.81090 8.08625e-18
6302.28060 7.17925e-18
6303.75030 7.78534e-18
6305.22000 7.52912e-18
6306.68970 7.74263e-18
6308.15940 7.68518e-18
6309.62910 6.74755e-18
6311.09880 7.01891e-18
6312.56850 7.62593e-18
6314.03820 7.76773e-18
6315.50790 7.69311e-18
6316.97760 7.93004e-18
6318.44730 8.33810e-18
6319.91700 7.01442e-18
6321.38670 7.04313e-18
6322.85640 7.51867e-18
6324.32610 8.08007e-18
6325.79580 7.48141e-18
6327.26550 7.07055e-18
6328.74555 7.06605e-18
6330.21525 7.20113e-18
6331.68495 7.25736e-18
6333.15465 7.05978e-18
6334.62435 7.08056e-18
6336.09405 7.75732e-18
6337.56375 7.73160e-18
6339.03345 8.20384e-18
6340.50315 7.43546e-18
6341.97285 6.97253e-18
6343.44255 7.02233e-18
6344.91225 6.81658e-18
6346.38195 7.38038e-18
6347.85165 7.66504e-18
6349.32135 7.11189e-18
6350.79105 7.14860e-18
6352.26075 7.22706e-18
6353.73045 6.55236e-18
6355.20015 6.81151e-18
6356.66985 7.09369e-18
6358.13955 7.05518e-18
6359.60925 7.35271e-18
6361.07895 8.00554e-18
6362.54865 7.64555e-18
6364.01835 7.60081e-18
6365.48805 7.73574e-18
6366.95775 7.27019e-18
6368.42745 7.33691e-18
6369.89715 7.36464e-18
6371.36685 7.09829e-18
6372.83655 7.38508e-18
6374.30625 6.97394e-18
6375.77595 6.67384e-18
6377.24565 7.48159e-18
6378.72570 7.79614e-18
6380.19540 7.11105e-18
6381.66510 7.04990e-18
6383.13480 7.23997e-18
6384.60450 7.12473e-18
6386.07420 7.22038e-18
6387.54390 7.22433e-18
6389.01360 7.28754e-18
6390.48330 7.83765e-18
6391.95300 8.03221e-18
6393.42270 7.87614e-18
6394.89240 7.70359e-18
6396.36210 7.35024e-18
6397.83180 7.56068e-18
6399.30150 7.55280e-18
6400.77120 7.55116e-18
6402.24090 7.94586e-18
6403.71060 7.75320e-18
6405.18030 8.31708e-18
6406.65000 8.08087e-18
6408.11970 7.34635e-18
6409.58940 7.81765e-18
6411.05910 7.87806e-18
6412.52880 7.84829e-18
6413.99850 7.75972e-18
6415.46820 7.76947e-18
6416.93790 7.64783e-18
6418.40760 7.49442e-18
6419.87730 7.61724e-18
6421.34700 8.05675e-18
6422.81670 7.65398e-18
6424.28640 7.60179e-18
6425.75610 7.85505e-18
6427.22580 7.67555e-18
6428.69550 7.45180e-18
6430.16520 7.38360e-18
6431.64525 7.44773e-18
6433.11495 7.28291e-18
6434.58465 7.32866e-18
6436.05435 7.49542e-18
6437.52405 7.60189e-18
6438.99375 7.92224e-18
6440.46345 7.89452e-18
6441.93315 7.58477e-18
6443.40285 7.72547e-18
6444.87255 7.79562e-18
6446.34225 7.87704e-18
6447.81195 7.73094e-18
6449.28165 7.82024e-18
6450.75135 7.60110e-18
6452.22105 8.15886e-18
6453.69075 8.26903e-18
6455.16045 8.39086e-18
6456.63015 8.13686e-18
6458.09985 7.82838e-18
6459.56955 8.08123e-18
6461.03925 8.07588e-18
6462.50895 7.86209e-18
6463.97865 7.72357e-18
6465.44835 7.32367e-18
6466.91805 7.46585e-18
6468.38775 7.24662e-18
6469.85745 7.33368e-18
6471.32715 7.49899e-18
6472.79685 7.62525e-18
6474.26655 7.49903e-18
6475.73625 7.70028e-18
6477.20595 8.22967e-18
6478.67565 7.26592e-18
6480.14535 7.22733e-18
6481.62540 7.56760e-18
6483.08475 7.57091e-18
6484.56480 7.32235e-18
6486.03450 7.49236e-18
6487.50420 7.68935e-18
6488.97390 7.66439e-18
6490.44360 7.45504e-18
6491.91330 7.67254e-18
6493.38300 7.30471e-18
6494.85270 7.68807e-18
6496.32240 8.06376e-18
6497.79210 7.53208e-18
6499.26180 7.65804e-18
6500.73150 8.22110e-18
6502.20120 7.43355e-18
6503.67090 7.50530e-18
6505.14060 7.77021e-18
6506.61030 7.33042e-18
6508.08000 7.33731e-18
6509.54970 7.63111e-18
6511.01940 7.63086e-18
6512.48910 7.37200e-18
6513.95880 7.91022e-18
6515.42850 7.94035e-18
6516.89820 7.74429e-18
6518.36790 7.04228e-18
6519.83760 7.10447e-18
6521.30730 7.75456e-18
6522.77700 7.83115e-18
6524.24670 7.63538e-18
6525.71640 7.87664e-18
6527.18610 7.75177e-18
6528.65580 7.54316e-18
6530.12550 7.72017e-18
6531.60555 7.56161e-18
6533.07525 7.88288e-18
6534.54495 7.74387e-18
6536.01465 7.55148e-18
6537.48435 7.97335e-18
6538.95405 8.19980e-18
6540.42375 7.65301e-18
6541.89345 8.09938e-18
6543.36315 8.00269e-18
6544.83285 7.59526e-18
6546.30255 7.72929e-18
6547.77225 7.81889e-18
6549.24195 7.48627e-18
6550.71165 7.64652e-18
6552.18135 7.64551e-18
6553.65105 7.38316e-18
6555.12075 7.68925e-18
6556.59045 7.86037e-18
6558.06015 7.90885e-18
6559.52985 7.94246e-18
6560.99955 7.78494e-18
6562.46925 7.96124e-18
6563.93895 8.57248e-18
6565.40865 8.69580e-18
6566.87835 8.49858e-18
6568.34805 7.73333e-18
6569.81775 7.68061e-18
6571.28745 8.26528e-18
6572.75715 7.72316e-18
6574.22685 7.19394e-18
6575.69655 7.61465e-18
6577.16625 8.25962e-18
6578.63595 8.25596e-18
6580.10565 8.29604e-18
6581.57535 8.10414e-18
6583.04505 7.55169e-18
6584.52510 7.63853e-18
6585.99480 8.03436e-18
6587.46450 8.28881e-18
6588.93420 7.87708e-18
6590.40390 7.92979e-18
6591.87360 8.03832e-18
6593.34330 7.72442e-18
6594.81300 8.12216e-18
6596.28270 8.44067e-18
6597.75240 7.58123e-18
6599.22210 7.41561e-18
6600.69180 8.16073e-18
6602.16150 8.02917e-18
6603.63120 8.03868e-18
6605.10090 8.01416e-18
6606.57060 7.76888e-18
6608.04030 8.12159e-18
6609.51000 8.26993e-18
6610.97970 7.52976e-18
6612.44940 7.44966e-18
6613.91910 8.23739e-18
6615.38880 7.85617e-18
6616.85850 6.85124e-18
6618.32820 7.26861e-18
6619.79790 8.15796e-18
6621.26760 8.20279e-18
6622.73730 8.41105e-18
6624.20700 7.86940e-18
6625.67670 7.67250e-18
6627.14640 8.38372e-18
6628.61610 8.58260e-18
6630.08580 7.79431e-18
6631.55550 7.32996e-18
6633.02520 7.24598e-18
6634.50525 7.75199e-18
6635.97495 8.30900e-18
6637.44465 8.46887e-18
6638.91435 8.26236e-18
6640.38405 7.82138e-18
6641.85375 7.01838e-18
6643.32345 7.44838e-18
6644.79315 8.22915e-18
6646.26285 8.06723e-18
6647.73255 7.97114e-18
6649.20225 8.15369e-18
6650.67195 8.21334e-18
6652.14165 8.11339e-18
6653.61135 7.71293e-18
6655.08105 7.71919e-18
6656.55075 8.69374e-18
6658.02045 9.10639e-18
6659.49015 8.26043e-18
6660.95985 7.74596e-18
6662.42955 8.30196e-18
6663.89925 8.43685e-18
6665.36895 8.26319e-18
6666.83865 7.74453e-18
6668.30835 7.81005e-18
6669.77805 8.35286e-18
6671.24775 8.46198e-18
6672.71745 8.44317e-18
6674.18715 8.58843e-18
6675.65685 8.15222e-18
6677.12655 8.58026e-18
6678.59625 8.53606e-18
6680.06595 8.06377e-18
6681.53565 8.59961e-18
6683.00535 8.81953e-18
6684.48540 8.45623e-18
6685.95510 8.32465e-18
6687.42480 8.17260e-18
6688.89450 8.45729e-18
6690.36420 7.91047e-18
6691.83390 7.86954e-18
6693.30360 8.67026e-18
6694.77330 8.53193e-18
6696.24300 7.59143e-18
6697.71270 8.36207e-18
6699.18240 8.34289e-18
6700.65210 7.71817e-18
6702.12180 7.72755e-18
6703.59150 8.27294e-18
6705.06120 8.54672e-18
6706.53090 8.27958e-18
6708.00060 8.23665e-18
6709.47030 8.05726e-18
6710.94000 8.23416e-18
6712.40970 8.64070e-18
6713.87940 8.52535e-18
6715.34910 8.38734e-18
6716.81880 7.97597e-18
6718.28850 8.13718e-18
6719.75820 7.59530e-18
6721.22790 7.91130e-18
6722.69760 8.28239e-18
6724.16730 8.27151e-18
6725.63700 8.26745e-18
6727.10670 8.15737e-18
6728.57640 8.17220e-18
6730.04610 8.27244e-18
6731.51580 8.32741e-18
6732.98550 8.38327e-18
6734.45520 8.26000e-18
6735.93525 8.59903e-18
6737.40495 8.49562e-18
6738.87465 8.36608e-18
6740.34435 8.32553e-18
6741.81405 7.86014e-18
6743.28375 7.94818e-18
6744.75345 7.39704e-18
6746.22315 7.47568e-18
6747.69285 7.84048e-18
6749.16255 7.88396e-18
6750.63225 8.18870e-18
6752.10195 7.99189e-18
6753.57165 7.81967e-18
6755.04135 7.82253e-18
6756.51105 7.32300e-18
6757.98075 7.47723e-18
6759.45045 8.12699e-18
6760.92015 8.24239e-18
6762.38985 8.14386e-18
6763.85955 8.19071e-18
6765.32925 7.97305e-18
6766.79895 7.77175e-18
6768.26865 7.55539e-18
6769.73835 7.43303e-18
6771.20805 8.11141e-18
6772.67775 8.03077e-18
6774.14745 7.79863e-18
6775.61715 7.87646e-18
6777.08685 7.89149e-18
6778.55655 7.88581e-18
6780.02625 7.52759e-18
6781.49595 7.98030e-18
6782.96565 8.72315e-18
6784.43535 8.40754e-18
6785.91540 7.97062e-18
6787.37475 7.70260e-18
6788.85480 7.61439e-18
6790.32450 8.15180e-18
6791.79420 8.39503e-18
6793.26390 8.10517e-18
6794.73360 7.80172e-18
6796.20330 7.70097e-18
6797.67300 7.64036e-18
6799.14270 8.24171e-18
6800.61240 8.49709e-18
6802.08210 8.15498e-18
6803.55180 8.00951e-18
6805.02150 7.68291e-18
6806.49120 8.03123e-18
6807.96090 8.37347e-18
6809.43060 8.20860e-18
6810.90030 8.54555e-18
6812.37000 8.18696e-18
6813.83970 7.37077e-18
6815.30940 7.67790e-18
6816.77910 8.06776e-18
6818.24880 7.75948e-18
6819.71850 7.39118e-18
6821.18820 7.12166e-18
6822.65790 7.50797e-18
6824.12760 8.33596e-18
6825.59730 8.41970e-18
6827.06700 7.74961e-18
6828.53670 7.63873e-18
6830.00640 7.98527e-18
6831.47610 7.80434e-18
6832.94580 7.88725e-18
6834.41550 8.61590e-18
6835.89555 8.38495e-18
6837.36525 7.54733e-18
6838.83495 7.59726e-18
6840.30465 7.41122e-18
6841.77435 7.35702e-18
6843.24405 7.54553e-18
6844.71375 7.75127e-18
6846.18345 7.73406e-18
6847.65315 7.71686e-18
6849.12285 7.69965e-18
6850.59255 7.68245e-18
6852.06225 7.66525e-18
6853.53195 7.64805e-18
6855.00165 7.63084e-18
6856.47135 7.61364e-18
6857.94105 7.59645e-18
6859.41075 7.57925e-18
6860.88045 7.56205e-18
6862.35015 7.54485e-18
6863.81985 7.52766e-18
6865.28955 7.51046e-18
6866.75925 7.49327e-18
6868.22895 7.47608e-18
6869.69865 7.45888e-18
6871.16835 7.44169e-18
6872.63805 7.42450e-18
6874.10775 7.40731e-18
6875.57745 7.39012e-18
6877.04715 7.37294e-18
6878.51685 7.35575e-18
6879.98655 7.33856e-18
6881.45625 7.32138e-18
6882.92595 7.30419e-18
6884.39565 7.28701e-18
6885.86535 7.26982e-18
6887.34540 7.25265e-18
6888.81510 7.23546e-18
6890.28480 7.21828e-18
6891.75450 7.20110e-18
6893.22420 7.18392e-18
6894.69390 7.16675e-18
6896.16360 7.14957e-18
6897.63330 7.13239e-18
6899.10300 7.11522e-18
6900.57270 7.09804e-18
6902.04240 7.08087e-18
6903.51210 7.06370e-18
6904.98180 7.04652e-18
6906.45150 7.02935e-18
6907.92120 7.01218e-18
6909.39090 6.99501e-18
6910.86060 6.97785e-18
6912.33030 6.96068e-18
6913.80000 6.94351e-18
6915.26970 6.92635e-18
6916.73940 6.90918e-18
6918.20910 6.89202e-18
6919.67880 6.87485e-18
6921.14850 6.85769e-18
6922.61820 6.84053e-18
6924.08790 6.82337e-18
6925.55760 6.80621e-18
6927.02730 6.78905e-18
6928.49700 6.77189e-18
6929.96670 6.75473e-18
6931.43640 6.73758e-18
6932.90610 6.72042e-18
6934.37580 6.70327e-18
6935.84550 6.68611e-18
6937.31520 6.54541e-18
6938.79525 7.13368e-18
6940.26495 7.33505e-18
6941.73465 7.17213e-18
6943.20435 7.19424e-18
6944.67405 6.66452e-18
6946.14375 7.17854e-18
6947.61345 7.77099e-18
6949.08315 7.31286e-18
6950.55285 7.44069e-18
6952.02255 7.25100e-18
6953.49225 6.56073e-18
6954.96195 6.93238e-18
6956.43165 7.33872e-18
6957.90135 6.87510e-18
6959.37105 6.74009e-18
6960.84075 7.10875e-18
6962.31045 7.13794e-18
6963.78015 6.70858e-18
6965.24985 6.77556e-18
6966.71955 7.09542e-18
6968.18925 7.52609e-18
6969.65895 7.75025e-18
6971.12865 6.83509e-18
6972.59835 6.18876e-18
6974.06805 6.48597e-18
6975.53775 6.64521e-18
6977.00745 6.74204e-18
6978.47715 6.83021e-18
6979.94685 6.79316e-18
6981.41655 6.89945e-18
6982.88625 6.87124e-18
6984.35595 6.76091e-18
6985.82565 7.03822e-18
6987.29535 6.83211e-18
6988.77540 6.15868e-18
6990.24510 6.49966e-18
6991.71480 6.66696e-18
6993.18450 6.52153e-18
6994.65420 7.16246e-18
6996.12390 7.29812e-18
6997.59360 7.11411e-18
6999.06330 7.37828e-18
7000.53300 7.22112e-18
7002.00270 6.61376e-18
7003.47240 6.12458e-18
7004.94210 6.46307e-18
7006.41180 6.79684e-18
7007.88150 6.67464e-18
7009.35120 6.77251e-18
7010.82090 6.82775e-18
7012.29060 6.99774e-18
7013.76030 6.82063e-18
7015.23000 6.59123e-18
7016.69970 6.39916e-18
7018.16940 6.21342e-18
7019.63910 7.29745e-18
7021.10880 8.61570e-18
7022.57850 8.77634e-18
7024.04820 7.80834e-18
7025.51790 6.54071e-18
7026.98760 6.33497e-18
7028.45730 6.87133e-18
7029.92700 7.25663e-18
7031.39670 6.57460e-18
7032.86640 6.10658e-18
7034.33610 6.68059e-18
7035.80580 6.85220e-18
7037.27550 7.07165e-18
7038.75555 7.45814e-18
7040.22525 7.06057e-18
7041.69495 6.91590e-18
7043.16465 7.53788e-18
7044.63435 7.54228e-18
7046.10405 7.01712e-18
7047.57375 6.59874e-18
7049.04345 6.48608e-18
7050.51315 6.37337e-18
7051.98285 6.41217e-18
7053.45255 6.80983e-18
7054.92225 7.17922e-18
7056.39195 7.35970e-18
7057.86165 7.39916e-18
7059.33135 7.19759e-18
7060.80105 6.94025e-18
7062.27075 6.89419e-18
7063.74045 6.74514e-18
7065.21015 7.00350e-18
7066.67985 7.65149e-18
7068.14955 7.49727e-18
7069.61925 7.21014e-18
7071.08895 7.24239e-18
7072.55865 6.70321e-18
7074.02835 6.22327e-18
7075.49805 6.41648e-18
7076.96775 6.91227e-18
7078.43745 7.02688e-18
7079.90715 6.74475e-18
7081.37685 6.81186e-18
7082.84655 6.98674e-18
7084.31625 6.98327e-18
7085.78595 7.29053e-18
7087.25565 7.37374e-18
7088.72535 7.03902e-18
7090.20540 6.87658e-18
7091.66475 6.82909e-18
7093.14480 7.09655e-18
7094.61450 7.14229e-18
7096.08420 7.00047e-18
7097.55390 7.43179e-18
7099.02360 7.51814e-18
7100.49330 7.57475e-18
7101.96300 7.54198e-18
7103.43270 6.64375e-18
7104.90240 6.55778e-18
7106.37210 7.17085e-18
7107.84180 6.90293e-18
7109.31150 6.96933e-18
7110.78120 7.46222e-18
7112.25090 7.00571e-18
7113.72060 6.81883e-18
7115.19030 7.24776e-18
7116.66000 7.22907e-18
7118.12970 7.23850e-18
7119.59940 7.11648e-18
7121.06910 6.90655e-18
7122.53880 7.24899e-18
7124.00850 7.19917e-18
7125.47820 6.57092e-18
7126.94790 6.60118e-18
7128.41760 6.68193e-18
7129.88730 6.44804e-18
7131.35700 6.40966e-18
7132.82670 6.61446e-18
7134.29640 7.10195e-18
7135.76610 7.32390e-18
7137.23580 7.14714e-18
7138.70550 6.72219e-18
7140.18555 6.63442e-18
7141.65525 6.75479e-18
7143.12495 6.64893e-18
7144.59465 6.80088e-18
7146.06435 6.92834e-18
7147.53405 6.77214e-18
7149.00375 6.54901e-18
7150.47345 6.55598e-18
7151.94315 6.82838e-18
7153.41285 6.62386e-18
7154.88255 6.75937e-18
7156.35225 7.06575e-18
7157.82195 6.55331e-18
7159.29165 6.71512e-18
7160.76135 7.10235e-18
7162.23105 6.84665e-18
7163.70075 6.76357e-18
7165.17045 6.76870e-18
7166.64015 6.39828e-18
7168.10985 6.44822e-18
7169.57955 6.61084e-18
7171.04925 6.03413e-18
7172.51895 5.79965e-18
7173.98865 6.27401e-18
7175.45835 6.39984e-18
7176.92805 5.92992e-18
7178.39775 5.60142e-18
7179.86745 5.49425e-18
7181.33715 5.06967e-18
7182.80685 4.91884e-18
7184.27655 5.36463e-18
7185.74625 5.35795e-18
7187.21595 5.57663e-18
7188.68565 6.04669e-18
7190.15535 5.89861e-18
7191.63540 5.54641e-18
7193.10510 5.80917e-18
7194.57480 5.99856e-18
7196.04450 5.85515e-18
7197.51420 5.40471e-18
7198.98390 5.33902e-18
7200.45360 6.17202e-18
7201.92330 6.26341e-18
7203.39300 6.05814e-18
7204.86270 6.60843e-18
7206.33240 7.02540e-18
7207.80210 6.88411e-18
7209.27180 5.78424e-18
7210.74150 6.91151e-18
7212.21120 1.20118e-17
7213.68090 1.22474e-17
7215.15060 8.14848e-18
7216.62030 6.77581e-18
7218.09000 6.43363e-18
7219.55970 7.02522e-18
7221.02940 6.32514e-18
7222.49910 6.27985e-18
7223.96880 6.72420e-18
7225.43850 6.35020e-18
7226.90820 6.34463e-18
7228.37790 6.93776e-18
7229.84760 6.51911e-18
7231.31730 5.90140e-18
7232.78700 5.60712e-18
7234.25670 6.08143e-18
7235.72640 6.70579e-18
7237.19610 6.57892e-18
7238.66580 5.71697e-18
7240.13550 4.93639e-18
7241.60520 5.56984e-18
7243.08525 5.85359e-18
7244.55495 6.15469e-18
7246.02465 6.30314e-18
7247.49435 6.09726e-18
7248.96405 6.34939e-18
7250.43375 5.78401e-18
7251.90345 5.38396e-18
7253.37315 5.75035e-18
7254.84285 6.09941e-18
7256.31255 6.25733e-18
7257.78225 6.45886e-18
7259.25195 6.45686e-18
7260.72165 5.88761e-18
7262.19135 5.59820e-18
7263.66105 5.47805e-18
7265.13075 5.84534e-18
7266.60045 5.90559e-18
7268.07015 6.44032e-18
7269.53985 6.61795e-18
7271.00955 6.60898e-18
7272.47925 6.84462e-18
7273.94895 6.67700e-18
7275.41865 5.91139e-18
7276.88835 5.95618e-18
7278.35805 5.60490e-18
7279.82775 5.22980e-18
7281.29745 5.72925e-18
7282.76715 6.38714e-18
7284.23685 6.61772e-18
7285.70655 6.41190e-18
7287.17625 6.46086e-18
7288.64595 5.86698e-18
7290.11565 6.09936e-18
7291.58535 6.56514e-18
7293.06540 6.02542e-18
7294.52475 5.63294e-18
7296.00480 5.79211e-18
7297.47450 6.22990e-18
7298.94420 5.97895e-18
7300.41390 5.60313e-18
7301.88360 5.51100e-18
7303.35330 5.97961e-18
7304.82300 5.99304e-18
7306.29270 5.97660e-18
7307.76240 6.19089e-18
7309.23210 5.97056e-18
7310.70180 6.00934e-18
7312.17150 6.37071e-18
7313.64120 7.04961e-18
7315.11090 6.76336e-18
7316.58060 5.57029e-18
7318.05030 5.49402e-18
7319.52000 5.69765e-18
7320.98970 5.93494e-18
7322.45940 6.44873e-18
7323.92910 6.04958e-18
7325.39880 5.65622e-18
7326.86850 6.10901e-18
7328.33820 6.94972e-18
7329.80790 7.46941e-18
7331.27760 6.56597e-18
7332.74730 6.00170e-18
7334.21700 6.36888e-18
7335.68670 6.39079e-18
7337.15640 6.16355e-18
7338.62610 6.52690e-18
7340.09580 6.33172e-18
7341.56550 6.22194e-18
7343.04555 5.94459e-18
7344.51525 6.34219e-18
7345.98495 6.15469e-18
7347.45465 6.02627e-18
7348.92435 6.41005e-18
7350.39405 6.38033e-18
7351.86375 7.17280e-18
7353.33345 1.60086e-17
7354.80315 1.88494e-17
7356.27285 6.89097e-18
7357.74255 6.15568e-18
7359.21225 6.06827e-18
7360.68195 6.09552e-18
7362.15165 6.03877e-18
7363.62135 5.51681e-18
7365.09105 5.91659e-18
7366.56075 6.50881e-18
7368.03045 6.76974e-18
7369.50015 6.70247e-18
7370.96985 6.72434e-18
7372.43955 6.03186e-18
7373.90925 6.10458e-18
7375.37895 5.65072e-18
7376.84865 5.64268e-18
7378.31835 5.75731e-18
7379.78805 6.31597e-18
7381.25775 6.45771e-18
7382.72745 5.89481e-18
7384.19715 5.90318e-18
7385.66685 6.34433e-18
7387.13655 6.43576e-18
7388.60625 6.08659e-18
7390.07595 6.11747e-18
7391.54565 6.69266e-18
7393.01535 6.34802e-18
7394.49540 6.04350e-18
7395.96510 6.23273e-18
7397.43480 5.78976e-18
7398.90450 5.50025e-18
7400.37420 5.68620e-18
7401.84390 5.34285e-18
7403.31360 5.33478e-18
7404.78330 4.98075e-18
7406.25300 5.52460e-18
7407.72270 6.36278e-18
7409.19240 5.91474e-18
7410.66210 5.51196e-18
7412.13180 6.41625e-18
7413.60150 6.41705e-18
7415.07120 5.76533e-18
7416.54090 6.23304e-18
