# wavelength flux
3800.34405 2.20916e-17
3801.81375 1.90826e-17
3803.28345 2.55618e-17
3804.75315 2.29677e-17
3806.22285 2.71644e-17
3807.69255 2.65778e-17
3809.16225 2.48595e-17
3810.63195 2.31553e-17
3812.10165 2.34002e-17
3813.57135 2.13234e-17
3815.04105 2.24245e-17
3816.51075 2.26057e-17
3817.98045 2.28018e-17
3819.45015 1.73903e-17
3820.91985 1.59768e-17
3822.38955 1.59346e-17
3823.85925 1.87567e-17
3825.32895 1.90906e-17
3826.79865 2.10100e-17
3828.26835 1.54387e-17
3829.73805 1.78231e-17
3831.20775 1.62284e-17
3832.67745 1.82918e-17
3834.14715 1.82888e-17
3835.61685 1.79538e-17
3837.08655 1.61769e-17
3838.55625 1.42360e-17
3840.02595 1.88991e-17
3841.49565 2.01523e-17
3842.96535 1.84825e-17
3844.43505 2.21925e-17
3845.91510 1.87507e-17
3847.38480 1.64732e-17
3848.85450 1.67205e-17
3850.32420 1.90054e-17
3851.79390 1.71720e-17
3853.26360 1.24485e-17
3854.73330 1.33758e-17
3856.20300 1.54693e-17
3857.67270 1.66810e-17
3859.14240 1.76988e-17
3860.61210 1.66519e-17
3862.08180 1.97155e-17
3863.55150 1.87284e-17
3865.02120 2.25973e-17
3866.49090 1.55227e-17
3867.96060 1.96192e-17
3869.43030 2.45096e-17
3870.90000 1.70324e-17
3872.36970 1.74903e-17
3873.83940 1.82825e-17
3875.30910 1.93247e-17
3876.77880 2.32695e-17
3878.24850 1.53333e-17
3879.71820 1.40846e-17
3881.18790 1.64321e-17
3882.65760 1.95274e-17
3884.12730 2.05046e-17
3885.59700 2.31318e-17
3887.06670 1.61048e-17
3888.53640 1.63019e-17
3890.00610 1.96773e-17
3891.47580 2.01478e-17
3892.94550 1.96941e-17
3894.41520 1.93162e-17
3895.89525 1.70963e-17
3897.36495 2.06463e-17
3898.83465 1.86754e-17
3900.30435 1.36974e-17
3901.77405 1.82910e-17
3903.24375 1.66116e-17
3904.71345 1.62817e-17
3906.18315 2.01413e-17
3907.65285 1.88686e-17
3909.12255 2.08348e-17
3910.59225 2.06013e-17
3912.06195 1.86180e-17
3913.53165 2.34116e-17
3915.00135 1.99207e-17
3916.47105 1.79704e-17
3917.94075 1.84911e-17
3919.41045 1.71528e-17
3920.88015 1.57341e-17
3922.34985 1.30097e-17
3923.81955 1.56465e-17
3925.28925 1.93152e-17
3926.75895 2.04041e-17
3928.22865 1.51079e-17
3929.69835 1.46544e-17
3931.16805 1.65741e-17
3932.63775 1.71906e-17
3934.10745 1.97865e-17
3935.57715 1.53817e-17
3937.04685 1.29755e-17
3938.51655 1.58897e-17
3939.98625 1.58585e-17
3941.45595 1.88301e-17
3942.92565 2.06867e-17
3944.39535 1.75013e-17
3945.87540 1.62202e-17
3947.34510 1.78601e-17
3948.81480 1.93429e-17
3950.28450 1.83499e-17
3951.75420 1.61842e-17
3953.22390 1.58969e-17
3954.69360 1.52234e-17
3956.16330 1.62815e-17
3957.63300 1.83363e-17
3959.10270 1.55860e-17
3960.57240 1.53704e-17
3962.04210 1.58880e-17
3963.51180 1.63793e-17
3964.98150 1.70724e-17
3966.45120 1.74379e-17
3967.92090 1.80075e-17
3969.39060 1.66986e-17
3970.86030 1.86444e-17
3972.33000 1.89860e-17
3973.79970 1.72273e-17
3975.26940 1.77173e-17
3976.73910 1.96908e-17
3978.20880 1.95382e-17
3979.67850 1.70391e-17
3981.14820 1.61828e-17
3982.61790 1.60846e-17
3984.08760 1.58240e-17
3985.55730 1.70961e-17
3987.02700 1.68794e-17
3988.49670 1.72225e-17
3989.96640 1.83507e-17
3991.43610 1.53433e-17
3992.90580 1.34146e-17
3994.37550 1.56449e-17
3995.84520 2.01304e-17
3997.32525 1.78052e-17
3998.79495 1.89363e-17
4000.26465 1.86198e-17
4001.73435 1.84982e-17
4003.20405 1.59346e-17
4004.67375 1.69299e-17
4006.14345 1.81768e-17
4007.61315 1.60638e-17
4009.08285 1.81752e-17
4010.55255 2.06909e-17
4012.02225 1.76231e-17
4013.49195 1.74439e-17
4014.96165 1.77744e-17
4016.43135 1.76711e-17
4017.90105 1.69219e-17
4019.37075 1.83979e-17
4020.84045 1.78915e-17
4022.31015 1.73643e-17
4023.77985 1.47769e-17
4025.24955 1.35571e-17
4026.71925 1.64387e-17
4028.18895 1.70533e-17
4029.65865 1.77020e-17
4031.12835 1.81894e-17
4032.59805 1.87957e-17
4034.06775 1.79632e-17
4035.53745 1.80054e-17
4037.00715 1.65129e-17
4038.47685 1.72754e-17
4039.94655 1.87953e-17
4041.41625 1.83526e-17
4042.88595 1.55217e-17
4044.35565 1.69477e-17
4045.82535 1.58479e-17
4047.30540 1.73817e-17
4048.77510 1.86072e-17
4050.24480 1.73109e-17
4051.71450 1.75585e-17
4053.18420 1.88771e-17
4054.65390 1.86375e-17
4056.12360 1.95471e-17
4057.59330 1.66644e-17
4059.06300 1.55893e-17
4060.53270 1.70139e-17
4062.00240 1.73239e-17
4063.47210 1.90355e-17
4064.94180 1.84968e-17
4066.41150 1.91811e-17
4067.88120 1.75886e-17
4069.35090 1.59693e-17
4070.82060 1.70624e-17
4072.29030 1.76983e-17
4073.76000 1.84780e-17
4075.22970 1.71423e-17
4076.69940 1.53672e-17
4078.16910 1.88886e-17
4079.63880 2.04296e-17
4081.10850 1.88638e-17
4082.57820 1.65908e-17
4084.04790 1.68298e-17
4085.51760 1.75805e-17
4086.98730 1.93198e-17
4088.45700 2.05091e-17
4089.92670 1.61679e-17
4091.39640 1.42611e-17
4092.86610 1.83433e-17
4094.33580 1.81268e-17
4095.80550 1.79964e-17
4097.27520 1.73193e-17
4098.75525 1.61028e-17
4100.22495 1.60239e-17
4101.69465 1.57069e-17
4103.16435 1.65376e-17
4104.63405 1.74056e-17
4106.10375 1.73309e-17
4107.57345 1.66496e-17
4109.04315 1.72879e-17
4110.51285 1.79444e-17
4111.98255 1.65976e-17
4113.45225 1.58815e-17
4114.92195 1.79560e-17
4116.39165 1.79535e-17
4117.86135 1.70102e-17
4119.33105 1.71569e-17
4120.80075 1.72125e-17
4122.27045 1.85327e-17
4123.74015 1.91578e-17
4125.20985 1.73803e-17
4126.67955 1.50512e-17
4128.14925 1.84301e-17
4129.61895 1.87106e-17
4131.08865 1.75696e-17
4132.55835 1.64655e-17
4134.02805 1.42341e-17
4135.49775 1.68659e-17
4136.96745 1.84983e-17
4138.43715 1.71751e-17
4139.90685 1.66036e-17
4141.37655 1.83853e-17
4142.84625 1.60731e-17
4144.31595 1.63855e-17
4145.78565 1.83406e-17
4147.25535 1.62604e-17
4148.72505 1.61174e-17
4150.20510 1.81448e-17
4151.67480 1.66599e-17
4153.14450 1.56474e-17
4154.61420 1.76637e-17
4156.08390 1.73570e-17
4157.55360 1.63659e-17
4159.02330 1.66924e-17
4160.49300 1.41863e-17
4161.96270 1.50937e-17
4163.43240 1.43690e-17
4164.90210 1.84530e-17
4166.37180 1.73991e-17
4167.84150 1.48519e-17
4169.31120 1.71108e-17
4170.78090 1.68988e-17
4172.25060 1.84156e-17
4173.72030 1.82278e-17
4175.19000 1.89899e-17
4176.65970 1.83957e-17
4178.12940 1.74181e-17
4179.59910 1.72323e-17
4181.06880 1.51122e-17
4182.53850 1.51646e-17
4184.00820 1.55592e-17
4185.47790 1.57441e-17
4186.94760 1.49559e-17
4188.41730 1.74787e-17
4189.88700 1.80074e-17
4191.35670 1.86302e-17
4192.82640 1.72808e-17
4194.29610 1.59077e-17
4195.76580 1.71261e-17
4197.23550 1.78766e-17
4198.70520 1.70741e-17
4200.18525 1.71840e-17
4201.65495 1.70118e-17
4203.12465 1.85559e-17
4204.59435 1.66105e-17
4206.06405 1.63750e-17
4207.53375 1.63457e-17
4209.00345 1.61841e-17
4210.47315 1.59167e-17
4211.94285 1.67889e-17
4213.41255 1.80968e-17
4214.88225 1.79868e-17
4216.35195 1.79629e-17
4217.82165 1.72639e-17
4219.29135 1.66467e-17
4220.76105 1.78413e-17
4222.23075 1.94731e-17
4223.70045 2.08520e-17
4225.17015 2.04838e-17
4226.63985 1.70969e-17
4228.10955 1.57588e-17
4229.57925 1.55672e-17
4231.04895 1.61366e-17
4232.51865 1.84217e-17
4233.98835 1.71987e-17
4235.45805 1.45137e-17
4236.92775 1.51789e-17
4238.39745 1.48427e-17
4239.86715 1.45542e-17
4241.33685 1.59622e-17
4242.80655 1.58346e-17
4244.27625 1.38079e-17
4245.74595 1.36305e-17
4247.21565 1.36492e-17
4248.68535 1.41948e-17
4250.16540 1.62009e-17
4251.62475 1.71023e-17
4253.10480 1.52314e-17
4254.57450 1.44840e-17
4256.04420 1.56575e-17
4257.51390 1.64529e-17
4258.98360 1.58767e-17
4260.45330 1.61861e-17
4261.92300 1.64668e-17
4263.39270 1.59941e-17
4264.86240 1.56875e-17
4266.33210 1.71571e-17
4267.80180 1.71386e-17
4269.27150 1.51692e-17
4270.74120 1.45548e-17
4272.21090 1.57710e-17
4273.68060 1.45681e-17
4275.15030 1.56642e-17
4276.62000 1.70343e-17
4278.08970 1.52705e-17
4279.55940 1.50048e-17
4281.02910 1.52481e-17
4282.49880 1.47964e-17
4283.96850 1.48637e-17
4285.43820 1.63512e-17
4286.90790 1.71674e-17
4288.37760 1.52923e-17
4289.84730 1.49798e-17
4291.31700 1.69291e-17
4292.78670 1.57608e-17
4294.25640 1.37452e-17
4295.72610 1.51210e-17
4297.19580 1.51009e-17
4298.66550 1.49263e-17
4300.14555 1.55631e-17
4301.61525 1.59149e-17
4303.08495 1.66687e-17
4304.55465 1.63098e-17
4306.02435 1.62079e-17
4307.49405 1.68125e-17
4308.96375 1.60421e-17
4310.43345 1.64386e-17
4311.90315 1.63165e-17
4313.37285 1.55273e-17
4314.84255 1.61368e-17
4316.31225 1.64423e-17
4317.78195 1.61005e-17
4319.25165 1.83758e-17
4320.72135 1.84003e-17
4322.19105 1.77464e-17
4323.66075 1.71273e-17
4325.13045 1.56782e-17
4326.60015 1.61024e-17
4328.06985 1.55719e-17
4329.53955 1.71722e-17
4331.00925 1.77447e-17
4332.47895 1.58981e-17
4333.94865 1.59261e-17
4335.41835 1.69602e-17
4336.88805 1.72700e-17
4338.35775 1.57841e-17
4339.82745 1.55958e-17
4341.29715 1.71101e-17
4342.76685 1.69355e-17
4344.23655 1.44493e-17
4345.70625 1.38803e-17
4347.17595 1.61557e-17
4348.64565 1.65439e-17
4350.11535 1.53613e-17
4351.58505 1.58723e-17
4353.06510 1.77271e-17
4354.53480 1.67737e-17
4356.00450 1.59147e-17
4357.47420 1.64786e-17
4358.94390 1.51436e-17
4360.41360 1.47152e-17
4361.88330 1.51562e-17
4363.35300 1.64989e-17
4364.82270 1.74331e-17
4366.29240 1.60104e-17
4367.76210 1.51012e-17
4369.23180 1.54058e-17
4370.70150 1.63456e-17
4372.17120 1.61740e-17
4373.64090 1.65245e-17
4375.11060 1.69314e-17
4376.58030 1.68511e-17
4378.05000 1.60015e-17
4379.51970 1.65840e-17
4380.98940 1.65578e-17
4382.45910 1.62636e-17
4383.92880 1.62503e-17
4385.39850 1.56793e-17
4386.86820 1.69656e-17
4388.33790 1.59844e-17
4389.80760 1.62701e-17
4391.27730 1.63997e-17
4392.74700 1.60186e-17
4394.21670 1.72429e-17
4395.68640 1.66196e-17
4397.15610 1.54937e-17
4398.62580 1.72533e-17
4400.09550 1.84098e-17
4401.56520 1.72125e-17
4403.04525 1.59038e-17
4404.50460 1.68907e-17
4405.98465 1.61557e-17
4407.45435 1.76358e-17
4408.92405 1.68002e-17
4410.39375 1.48188e-17
4411.86345 1.60435e-17
4413.33315 1.57633e-17
4414.80285 1.56037e-17
4416.27255 1.57532e-17
4417.74225 1.55647e-17
4419.21195 1.66236e-17
4420.68165 1.67205e-17
4422.15135 1.70967e-17
4423.62105 1.70190e-17
4425.09075 1.75521e-17
4426.56045 1.60552e-17
4428.03015 1.64356e-17
4429.49985 1.66806e-17
4430.96955 1.58282e-17
4432.43925 1.67017e-17
4433.90895 1.65091e-17
4435.37865 1.58103e-17
4436.84835 1.57552e-17
4438.31805 1.39307e-17
4439.78775 1.46204e-17
4441.25745 1.71713e-17
4442.72715 1.84469e-17
4444.19685 1.71811e-17
4445.66655 1.55016e-17
4447.13625 1.50829e-17
4448.60595 1.66665e-17
4450.07565 1.69031e-17
4451.54535 1.63949e-17
4453.02540 1.61036e-17
4454.49510 1.66448e-17
4455.96480 1.66985e-17
4457.43450 1.58916e-17
4458.90420 1.45491e-17
4460.37390 1.51996e-17
4461.84360 1.76998e-17
4463.31330 1.81077e-17
4464.78300 1.73834e-17
4466.25270 1.67557e-17
4467.72240 1.74134e-17
4469.19210 1.73267e-17
4470.66180 1.59940e-17
4472.13150 1.65560e-17
4473.60120 1.69032e-17
4475.07090 1.70092e-17
4476.54060 1.77170e-17
4478.01030 1.81543e-17
4479.48000 1.71757e-17
4480.94970 1.67219e-17
4482.41940 1.73881e-17
4483.88910 1.66553e-17
4485.35880 1.66177e-17
4486.82850 1.71536e-17
4488.29820 1.69250e-17
4489.76790 1.70565e-17
4491.23760 1.58475e-17
4492.70730 1.56498e-17
4494.17700 1.73317e-17
4495.64670 1.69057e-17
4497.11640 1.57270e-17
4498.58610 1.66613e-17
4500.05580 1.68254e-17
4501.52550 1.67564e-17
4502.99520 1.79127e-17
4504.47525 1.77241e-17
4505.94495 1.68487e-17
4507.41465 1.58701e-17
4508.88435 1.68951e-17
4510.35405 1.78442e-17
4511.82375 1.64744e-17
4513.29345 1.66767e-17
4514.76315 1.78289e-17
4516.23285 1.71714e-17
4517.70255 1.64856e-17
4519.17225 1.58981e-17
4520.64195 1.65848e-17
4522.11165 1.85904e-17
4523.58135 1.80965e-17
4525.05105 1.80037e-17
4526.52075 1.84589e-17
4527.99045 1.73197e-17
4529.46015 1.70501e-17
4530.92985 1.74676e-17
4532.39955 1.77749e-17
4533.86925 1.82017e-17
4535.33895 1.61037e-17
4536.80865 1.43014e-17
4538.27835 1.56361e-17
4539.74805 1.67529e-17
4541.21775 1.59907e-17
4542.68745 1.41175e-17
4544.15715 1.53495e-17
4545.62685 1.70644e-17
4547.09655 1.56825e-17
4548.56625 1.51430e-17
4550.03595 1.56987e-17
4551.50565 1.63345e-17
4552.97535 1.64941e-17
4554.45540 1.63383e-17
4555.91475 1.54130e-17
4557.39480 1.52213e-17
4558.86450 1.49084e-17
4560.33420 1.44207e-17
4561.80390 1.40925e-17
4563.27360 1.43684e-17
4564.74330 1.54458e-17
4566.21300 1.55801e-17
4567.68270 1.56240e-17
4569.15240 1.41913e-17
4570.62210 1.37478e-17
4572.09180 1.52056e-17
4573.56150 1.68082e-17
4575.03120 1.60078e-17
4576.50090 1.57937e-17
4577.97060 1.68415e-17
4579.44030 1.66057e-17
4580.91000 1.63802e-17
4582.37970 1.62868e-17
4583.84940 1.58620e-17
4585.31910 1.56352e-17
4586.78880 1.64813e-17
4588.25850 1.74972e-17
4589.72820 1.62381e-17
4591.19790 1.48205e-17
4592.66760 1.51025e-17
4594.13730 1.53464e-17
4595.60700 1.57353e-17
4597.07670 1.52916e-17
4598.54640 1.61054e-17
4600.01610 1.57736e-17
4601.48580 1.51103e-17
4602.95550 1.59945e-17
4604.43555 1.48216e-17
4605.90525 1.41744e-17
4607.37495 1.59561e-17
4608.84465 1.61797e-17
4610.31435 1.56764e-17
4611.78405 1.70435e-17
4613.25375 1.65113e-17
4614.72345 1.55843e-17
4616.19315 1.61643e-17
4617.66285 1.61112e-17
4619.13255 1.55886e-17
4620.60225 1.53130e-17
4622.07195 1.60046e-17
4623.54165 1.57636e-17
4625.01135 1.47915e-17
4626.48105 1.52316e-17
4627.95075 1.53342e-17
4629.42045 1.53966e-17
4630.89015 1.51347e-17
4632.35985 1.47780e-17
4633.82955 1.44011e-17
4635.29925 1.39060e-17
4636.76895 1.48068e-17
4638.23865 1.56878e-17
4639.70835 1.66106e-17
4641.17805 1.70041e-17
4642.64775 1.71082e-17
4644.11745 1.66788e-17
4645.58715 1.63455e-17
4647.05685 1.60428e-17
4648.52655 1.62688e-17
4649.99625 1.67448e-17
4651.46595 1.52013e-17
4652.93565 1.51274e-17
4654.40535 1.62191e-17
4655.88540 1.64505e-17
4657.35510 1.54765e-17
4658.82480 1.50091e-17
4660.29450 1.53121e-17
4661.76420 1.52123e-17
4663.23390 1.52442e-17
4664.70360 1.58088e-17
4666.17330 1.56518e-17
4667.64300 1.46179e-17
4669.11270 1.48974e-17
4670.58240 1.57540e-17
4672.05210 1.58307e-17
4673.52180 1.67197e-17
4674.99150 1.74359e-17
4676.46120 1.67125e-17
4677.93090 1.59151e-17
4679.40060 1.56676e-17
4680.87030 1.62037e-17
4682.34000 1.56792e-17
4683.80970 1.50159e-17
4685.27940 1.60197e-17
4686.74910 1.66455e-17
4688.21880 1.64679e-17
4689.68850 1.53692e-17
4691.15820 1.51312e-17
4692.62790 1.49262e-17
4694.09760 1.45291e-17
4695.56730 1.49901e-17
4697.03700 1.48715e-17
4698.50670 1.50427e-17
4699.97640 1.50138e-17
4701.44610 1.49445e-17
4702.91580 1.55390e-17
4704.38550 1.44896e-17
4705.85520 1.36117e-17
4707.33525 1.60419e-17
4708.79460 1.65963e-17
4710.27465 1.46250e-17
4711.74435 1.44554e-17
4713.21405 1.49397e-17
4714.68375 1.54573e-17
4716.15345 1.54510e-17
4717.62315 1.47336e-17
4719.09285 1.46322e-17
4720.56255 1.36728e-17
4722.03225 1.42846e-17
4723.50195 1.55277e-17
4724.97165 1.61841e-17
4726.44135 1.59299e-17
4727.91105 1.43673e-17
4729.38075 1.47818e-17
4730.85045 1.51698e-17
4732.32015 1.43488e-17
4733.78985 1.43386e-17
4735.25955 1.52906e-17
4736.72925 1.60510e-17
4738.19895 1.69219e-17
4739.66865 1.63528e-17
4741.13835 1.59387e-17
4742.60805 1.54238e-17
4744.07775 1.40619e-17
4745.54745 1.44739e-17
4747.01715 1.51872e-17
4748.48685 1.50441e-17
4749.95655 1.57732e-17
4751.42625 1.67633e-17
4752.89595 1.57890e-17
4754.36565 1.44557e-17
4755.83535 1.34974e-17
4757.31540 1.41517e-17
4758.77475 1.46918e-17
4760.25480 1.49427e-17
4761.72450 1.64083e-17
4763.19420 1.58941e-17
4764.66390 1.51764e-17
4766.13360 1.46139e-17
4767.60330 1.48100e-17
4769.07300 1.54189e-17
4770.54270 1.33618e-17
4772.01240 1.22476e-17
4773.48210 1.44451e-17
4774.95180 1.55056e-17
4776.42150 1.46413e-17
4777.89120 1.40983e-17
4779.36090 1.49377e-17
4780.83060 1.51895e-17
4782.30030 1.39985e-17
4783.77000 1.43136e-17
4785.23970 1.48894e-17
4786.70940 1.48303e-17
4788.17910 1.45655e-17
4789.64880 1.47913e-17
4791.11850 1.45572e-17
4792.58820 1.45459e-17
4794.05790 1.43249e-17
4795.52760 1.41945e-17
4796.99730 1.42208e-17
4798.46700 1.36597e-17
4799.93670 1.45678e-17
4801.40640 1.51668e-17
4802.87610 1.46012e-17
4804.34580 1.38845e-17
4805.81550 1.36020e-17
4807.28520 1.38906e-17
4808.76525 1.36266e-17
4810.23495 1.48499e-17
4811.70465 1.46374e-17
4813.17435 1.33047e-17
4814.64405 1.34880e-17
4816.11375 1.40108e-17
4817.58345 1.47109e-17
4819.05315 1.36757e-17
4820.52285 1.25072e-17
4821.99255 1.28716e-17
4823.46225 1.33547e-17
4824.93195 1.35643e-17
4826.40165 1.40271e-17
4827.87135 1.37490e-17
4829.34105 1.31868e-17
4830.81075 1.25247e-17
4832.28045 1.27808e-17
4833.75015 1.37252e-17
4835.21985 1.42373e-17
4836.68955 1.47468e-17
4838.15925 1.41704e-17
4839.62895 1.31801e-17
4841.09865 1.34440e-17
4842.56835 1.36372e-17
4844.03805 1.29966e-17
4845.50775 1.35462e-17
4846.97745 1.42183e-17
4848.44715 1.37371e-17
4849.91685 1.29661e-17
4851.38655 1.37841e-17
4852.85625 1.35307e-17
4854.32595 1.34595e-17
4855.79565 1.34124e-17
4857.26535 1.39437e-17
4858.74540 1.38998e-17
4860.20475 1.27984e-17
4861.68480 1.30457e-17
4863.15450 1.28617e-17
4864.62420 1.30113e-17
4866.09390 1.27755e-17
4867.56360 1.33876e-17
4869.03330 1.42022e-17
4870.50300 1.27486e-17
4871.97270 1.25083e-17
4873.44240 1.36001e-17
4874.91210 1.38208e-17
4876.38180 1.30403e-17
4877.85150 1.25780e-17
4879.32120 1.15538e-17
4880.79090 1.20528e-17
4882.26060 1.36455e-17
4883.73030 1.32161e-17
4885.20000 1.37022e-17
4886.66970 1.25266e-17
4888.13940 1.21798e-17
4889.60910 1.36548e-17
4891.07880 1.27542e-17
4892.54850 1.19146e-17
4894.01820 1.26597e-17
4895.48790 1.23690e-17
4896.95760 1.19275e-17
4898.42730 1.20053e-17
4899.89700 1.20551e-17
4901.36670 1.23735e-17
4902.83640 1.27292e-17
4904.30610 1.23096e-17
4905.77580 1.17041e-17
4907.24550 1.17891e-17
4908.72555 1.23979e-17
4910.19525 1.27332e-17
4911.66495 1.19125e-17
4913.13465 1.15301e-17
4914.60435 1.10914e-17
4916.07405 1.17049e-17
4917.54375 1.19569e-17
4919.01345 1.23131e-17
4920.48315 1.16830e-17
4921.95285 1.17427e-17
4923.42255 1.36221e-17
4924.89225 1.29855e-17
4926.36195 1.25461e-17
4927.83165 1.25667e-17
4929.30135 1.10201e-17
4930.77105 1.12199e-17
4932.24075 1.25672e-17
4933.71045 1.26386e-17
4935.18015 1.25322e-17
4936.64985 1.13777e-17
4938.11955 1.11815e-17
4939.58925 1.20384e-17
4941.05895 1.25398e-17
4942.52865 1.25620e-17
4943.99835 1.21024e-17
4945.46805 1.19643e-17
4946.93775 1.19685e-17
4948.40745 1.22071e-17
4949.87715 1.28456e-17
4951.34685 1.25040e-17
4952.81655 1.15093e-17
4954.28625 1.20969e-17
4955.75595 1.35315e-17
4957.22565 1.22538e-17
4958.69535 1.24193e-17
4960.17540 1.19532e-17
4961.64510 1.07759e-17
4963.11480 1.15964e-17
4964.58450 1.16771e-17
4966.05420 1.19534e-17
4967.52390 1.25383e-17
4968.99360 1.20628e-17
4970.46330 1.16046e-17
4971.93300 1.24231e-17
4973.40270 1.25139e-17
4974.87240 1.28651e-17
4976.34210 1.29633e-17
4977.81180 1.23923e-17
4979.28150 1.17037e-17
4980.75120 1.10756e-17
4982.22090 1.12343e-17
4983.69060 1.11355e-17
4985.16030 1.10215e-17
4986.63000 1.20615e-17
4988.09970 1.18573e-17
4989.56940 1.15927e-17
4991.03910 1.20802e-17
4992.50880 1.21347e-17
4993.97850 1.29526e-17
4995.44820 1.26614e-17
4996.91790 1.11123e-17
4998.38760 1.15763e-17
4999.85730 1.26263e-17
5001.32700 1.27600e-17
5002.79670 1.29220e-17
5004.26640 1.37569e-17
5005.73610 1.22918e-17
5007.20580 1.19981e-17
5008.67550 1.18543e-17
5010.14520 1.14728e-17
5011.62525 1.15818e-17
5013.09495 1.20394e-17
5014.56465 1.18459e-17
5016.03435 1.17038e-17
5017.50405 1.25984e-17
5018.97375 1.18145e-17
5020.44345 1.17119e-17
5021.91315 1.25609e-17
5023.38285 1.20636e-17
5024.85255 1.18224e-17
5026.32225 1.25301e-17
5027.79195 1.33490e-17
5029.26165 1.30890e-17
5030.73135 1.28932e-17
5032.20105 1.26196e-17
5033.67075 1.23983e-17
5035.14045 1.16500e-17
5036.61015 1.21469e-17
5038.07985 1.20562e-17
5039.54955 1.22233e-17
5041.01925 1.28955e-17
5042.48895 1.34307e-17
5043.95865 1.26343e-17
5045.42835 1.26093e-17
5046.89805 1.32133e-17
5048.36775 1.22267e-17
5049.83745 1.22309e-17
5051.30715 1.26556e-17
5052.77685 1.27174e-17
5054.24655 1.22548e-17
5055.71625 1.25201e-17
5057.18595 1.32211e-17
5058.65565 1.35552e-17
5060.12535 1.25488e-17
5061.60540 1.24126e-17
5063.06475 1.28321e-17
5064.54480 1.32835e-17
5066.01450 1.35494e-17
5067.48420 1.37144e-17
5068.95390 1.27284e-17
5070.42360 1.22655e-17
5071.89330 1.26755e-17
5073.36300 1.24443e-17
5074.83270 1.25430e-17
5076.30240 1.32203e-17
5077.77210 1.32075e-17
5079.24180 1.28374e-17
5080.71150 1.20937e-17
5082.18120 1.25743e-17
5083.65090 1.28157e-17
5085.12060 1.30231e-17
5086.59030 1.31928e-17
5088.06000 1.28119e-17
5089.52970 1.37610e-17
5090.99940 1.40327e-17
5092.46910 1.24581e-17
5093.93880 1.30424e-17
5095.40850 1.34926e-17
5096.87820 1.27221e-17
5098.34790 1.25852e-17
5099.81760 1.25356e-17
5101.28730 1.33611e-17
5102.75700 1.37004e-17
5104.22670 1.29251e-17
5105.69640 1.25040e-17
5107.16610 1.20936e-17
5108.63580 1.19351e-17
5110.10550 1.22101e-17
5111.58555 1.29471e-17
5113.05525 1.42562e-17
5114.52495 1.49370e-17
5115.99465 1.48066e-17
5117.46435 1.44232e-17
5118.93405 1.31589e-17
5120.40375 1.32975e-17
5121.87345 1.36892e-17
5123.34315 1.31087e-17
5124.81285 1.23611e-17
5126.28255 1.24255e-17
5127.75225 1.38160e-17
5129.22195 1.32385e-17
5130.69165 1.23406e-17
5132.16135 1.26241e-17
5133.63105 1.23455e-17
5135.10075 1.17098e-17
5136.57045 1.19015e-17
5138.04015 1.15425e-17
5139.50985 1.28546e-17
5140.97955 1.38262e-17
5142.44925 1.28518e-17
5143.91895 1.35618e-17
5145.38865 1.32392e-17
5146.85835 1.23847e-17
5148.32805 1.34846e-17
5149.79775 1.25662e-17
5151.26745 1.24037e-17
5152.73715 1.36863e-17
5154.20685 1.38783e-17
5155.67655 1.28084e-17
5157.14625 1.31027e-17
5158.61595 1.39180e-17
5160.08565 1.38514e-17
5161.55535 1.30726e-17
5163.02505 1.29371e-17
5164.50510 1.37952e-17
5165.97480 1.35618e-17
5167.44450 1.27580e-17
5168.91420 1.32326e-17
5170.38390 1.36023e-17
5171.85360 1.33776e-17
5173.32330 1.35312e-17
5174.79300 1.30313e-17
5176.26270 1.33094e-17
5177.73240 1.27910e-17
5179.20210 1.24759e-17
5180.67180 1.32579e-17
5182.14150 1.39591e-17
5183.61120 1.41681e-17
5185.08090 1.38940e-17
5186.55060 1.37387e-17
5188.02030 1.29991e-17
5189.49000 1.24769e-17
5190.95970 1.29078e-17
5192.42940 1.41696e-17
5193.89910 1.40272e-17
5195.36880 1.35133e-17
5196.83850 1.35484e-17
5198.30820 1.44583e-17
5199.77790 1.46230e-17
5201.24760 1.35307e-17
5202.71730 1.27523e-17
5204.18700 1.27121e-17
5205.65670 1.35082e-17
5207.12640 1.44567e-17
5208.59610 1.37812e-17
5210.06580 1.30521e-17
5211.53550 1.42414e-17
5213.00520 1.51528e-17
5214.48525 1.40367e-17
5215.95495 1.36069e-17
5217.42465 1.45172e-17
5218.89435 1.39981e-17
5220.36405 1.36609e-17
5221.83375 1.42517e-17
5223.30345 1.40696e-17
5224.77315 1.39148e-17
5226.24285 1.41479e-17
5227.71255 1.35362e-17
5229.18225 1.27275e-17
5230.65195 1.33932e-17
5232.12165 1.40157e-17
5233.59135 1.36948e-17
5235.06105 1.36618e-17
5236.53075 1.33453e-17
5238.00045 1.26672e-17
5239.47015 1.32246e-17
5240.93985 1.35182e-17
5242.40955 1.41312e-17
5243.87925 1.46200e-17
5245.34895 1.37169e-17
5246.81865 1.36735e-17
5248.28835 1.43148e-17
5249.75805 1.47705e-17
5251.22775 1.40957e-17
5252.69745 1.42678e-17
5254.16715 1.47685e-17
5255.63685 1.36648e-17
5257.10655 1.42626e-17
5258.57625 1.51066e-17
5260.04595 1.43112e-17
5261.51565 1.37103e-17
5262.98535 1.40895e-17
5264.46540 1.66219e-17
5265.93510 1.74701e-17
5267.40480 1.48604e-17
5268.87450 1.49256e-17
5270.34420 1.47218e-17
5271.81390 1.31687e-17
5273.28360 1.35477e-17
5274.75330 1.32429e-17
5276.22300 1.37426e-17
5277.69270 1.39416e-17
5279.16240 1.39765e-17
5280.63210 1.48605e-17
5282.10180 1.45300e-17
5283.57150 1.38900e-17
5285.04120 1.34626e-17
5286.51090 1.33129e-17
5287.98060 1.36172e-17
5289.45030 1.42026e-17
5290.92000 1.43778e-17
5292.38970 1.38249e-17
5293.85940 1.35602e-17
5295.32910 1.29422e-17
5296.79880 1.24862e-17
5298.26850 1.37289e-17
5299.73820 1.41036e-17
5301.20790 1.44805e-17
5302.67760 1.41671e-17
5304.14730 1.41101e-17
5305.61700 1.39212e-17
5307.08670 1.45532e-17
5308.55640 1.40591e-17
5310.02610 1.30161e-17
5311.49580 1.23991e-17
5312.96550 1.24731e-17
5314.43520 1.36159e-17
5315.91525 1.55643e-17
5317.38495 1.51224e-17
5318.85465 1.34372e-17
5320.32435 1.32293e-17
5321.79405 1.36417e-17
5323.26375 1.31149e-17
5324.73345 1.42446e-17
5326.20315 1.39169e-17
5327.67285 1.34611e-17
5329.14255 1.40126e-17
5330.61225 1.38142e-17
5332.08195 1.26835e-17
5333.55165 1.19984e-17
5335.02135 1.26320e-17
5336.49105 1.24330e-17
5337.96075 1.30930e-17
5339.43045 1.40488e-17
5340.90015 1.38644e-17
5342.36985 1.34502e-17
5343.83955 1.39612e-17
5345.30925 1.39888e-17
5346.77895 1.39537e-17
5348.24865 1.45823e-17
5349.71835 1.41863e-17
5351.18805 1.40807e-17
5352.65775 1.39885e-17
5354.12745 1.35691e-17
5355.59715 1.35040e-17
5357.06685 1.31530e-17
5358.53655 1.46602e-17
5360.00625 1.44353e-17
5361.47595 1.44589e-17
5362.94565 1.42814e-17
5364.41535 1.39312e-17
5365.89540 1.40356e-17
5367.35475 1.45661e-17
5368.83480 1.55243e-17
5370.30450 1.40756e-17
5371.77420 1.40056e-17
5373.24390 1.43660e-17
5374.71360 1.45242e-17
5376.18330 1.46269e-17
5377.65300 1.43191e-17
5379.12270 1.42114e-17
5380.59240 1.44565e-17
5382.06210 1.43943e-17
5383.53180 1.49814e-17
5385.00150 1.52781e-17
5386.47120 1.53123e-17
5387.94090 1.42869e-17
5389.41060 1.45786e-17
5390.88030 1.50012e-17
5392.35000 1.40202e-17
5393.81970 1.32905e-17
5395.28940 1.43607e-17
5396.75910 1.49352e-17
5398.22880 1.47343e-17
5399.69850 1.35496e-17
5401.16820 1.43058e-17
5402.63790 1.51134e-17
5404.10760 1.33034e-17
5405.57730 1.36161e-17
5407.04700 1.40463e-17
5408.51670 1.39682e-17
5409.98640 1.47505e-17
5411.45610 1.37673e-17
5412.92580 1.39786e-17
5414.39550 1.34653e-17
5415.87555 1.44912e-17
5417.34525 1.46146e-17
5418.81495 1.36150e-17
5420.28465 1.39240e-17
5421.75435 1.50145e-17
5423.22405 1.40554e-17
5424.69375 1.39932e-17
5426.16345 1.25511e-17
5427.63315 1.27241e-17
5429.10285 1.45047e-17
5430.57255 1.48748e-17
5432.04225 1.38186e-17
5433.51195 1.36416e-17
5434.98165 1.45753e-17
5436.45135 1.48338e-17
5437.92105 1.38949e-17
5439.39075 1.28215e-17
5440.86045 1.37926e-17
5442.33015 1.35719e-17
5443.79985 1.36727e-17
5445.26955 1.29578e-17
5446.73925 1.24409e-17
5448.20895 1.41288e-17
5449.67865 1.37847e-17
5451.14835 1.34042e-17
5452.61805 1.31250e-17
5454.08775 1.27864e-17
5455.55745 1.39491e-17
5457.02715 1.42228e-17
5458.49685 1.29395e-17
5459.96655 1.35519e-17
5461.43625 1.40979e-17
5462.90595 1.43892e-17
5464.37565 1.34918e-17
5465.84535 1.37620e-17
5467.31505 1.31611e-17
5468.79510 1.36457e-17
5470.26480 1.41264e-17
5471.73450 1.31481e-17
5473.20420 1.27985e-17
5474.67390 1.29735e-17
5476.14360 1.34753e-17
5477.61330 1.32494e-17
5479.08300 1.34526e-17
5480.55270 1.33542e-17
5482.02240 1.28011e-17
5483.49210 1.29168e-17
5484.96180 1.24942e-17
5486.43150 1.27395e-17
5487.90120 1.41226e-17
5489.37090 1.34923e-17
5490.84060 1.25851e-17
5492.31030 1.24978e-17
5493.78000 1.34028e-17
5495.24970 1.38752e-17
5496.71940 1.40844e-17
5498.18910 1.32968e-17
5499.65880 1.39540e-17
5501.12850 1.46518e-17
5502.59820 1.39405e-17
5504.06790 1.28820e-17
5505.53760 1.30392e-17
5507.00730 1.31796e-17
5508.47700 1.29708e-17
5509.94670 1.24923e-17
5511.41640 1.36557e-17
5512.88610 1.31902e-17
5514.35580 1.23635e-17
5515.82550 1.20903e-17
5517.29520 1.34046e-17
5518.77525 1.24993e-17
5520.24495 1.33542e-17
5521.71465 1.36307e-17
5523.18435 1.28607e-17
5524.65405 1.28963e-17
5526.12375 1.41222e-17
5527.59345 1.33708e-17
5529.06315 1.26977e-17
5530.53285 1.25071e-17
5532.00255 1.29805e-17
5533.47225 1.39260e-17
5534.94195 1.49052e-17
5536.41165 1.48140e-17
5537.88135 1.34603e-17
5539.35105 1.26828e-17
5540.82075 1.25165e-17
5542.29045 1.33501e-17
5543.76015 1.35479e-17
5545.22985 1.32523e-17
5546.69955 1.23791e-17
5548.16925 1.32206e-17
5549.63895 1.36003e-17
5551.10865 1.27029e-17
5552.57835 1.31960e-17
5554.04805 1.32381e-17
5555.51775 1.24960e-17
5556.98745 1.16292e-17
5558.45715 1.19852e-17
5559.92685 1.32382e-17
5561.39655 1.27980e-17
5562.86625 1.19850e-17
5564.33595 1.24559e-17
5565.80565 1.23456e-17
5567.27535 1.20161e-17
5568.75540 1.22369e-17
5570.22510 1.12493e-17
5571.69480 1.18259e-17
5573.16450 1.18887e-17
5574.63420 1.37888e-17
5576.10390 1.48676e-17
5577.57360 9.81384e-18
5579.04330 1.08089e-17
5580.51300 1.18675e-17
5581.98270 1.04712e-17
5583.45240 1.28636e-17
5584.92210 1.28881e-17
5586.39180 1.24795e-17
5587.86150 1.21004e-17
5589.33120 1.09031e-17
5590.80090 1.17815e-17
5592.27060 1.22155e-17
5593.74030 1.17821e-17
5595.21000 1.19108e-17
5596.67970 1.09681e-17
5598.14940 1.09074e-17
5599.61910 1.12828e-17
5601.08880 1.23524e-17
5602.55850 1.28918e-17
5604.02820 1.24516e-17
5605.49790 1.17843e-17
5606.96760 1.18825e-17
5608.43730 1.18871e-17
5609.90700 1.13955e-17
5611.37670 1.17376e-17
5612.84640 1.23207e-17
5614.31610 1.17258e-17
5615.78580 1.14644e-17
5617.25550 1.15168e-17
5618.72520 1.11569e-17
5620.20525 1.25566e-17
5621.67495 1.17368e-17
5623.14465 1.15804e-17
5624.61435 1.18999e-17
5626.08405 1.21539e-17
5627.55375 1.01668e-17
5629.02345 1.00952e-17
5630.49315 1.07812e-17
5631.96285 1.07415e-17
5633.43255 1.02554e-17
5634.90225 1.13716e-17
5636.37195 1.15372e-17
5637.84165 1.14180e-17
5639.31135 1.16903e-17
5640.78105 1.16160e-17
5642.25075 1.11442e-17
5643.72045 1.07431e-17
5645.19015 1.14553e-17
5646.65985 1.03798e-17
5648.12955 9.94072e-18
5649.59925 1.06755e-17
5651.06895 1.05630e-17
5652.53865 1.05571e-17
5654.00835 9.63137e-18
5655.47805 9.83991e-18
5656.94775 1.06750e-17
5658.41745 1.07508e-17
5659.88715 1.06739e-17
5661.35685 1.04314e-17
5662.82655 1.06266e-17
5664.29625 1.15298e-17
5665.76595 1.13016e-17
5667.23565 1.09890e-17
5668.70535 1.03608e-17
5670.18540 1.10862e-17
5671.64475 1.18651e-17
5673.12480 1.16271e-17
5674.59450 1.12648e-17
5676.06420 1.12987e-17
5677.53390 1.05934e-17
5679.00360 1.07629e-17
5680.47330 1.01918e-17
5681.94300 1.04586e-17
5683.41270 1.00709e-17
5684.88240 1.01142e-17
5686.35210 9.48590e-18
5687.82180 1.05425e-17
5689.29150 1.05700e-17
5690.76120 1.03243e-17
5692.23090 9.84485e-18
5693.70060 9.95899e-18
5695.17030 9.97384e-18
5696.64000 1.02326e-17
5698.10970 1.04757e-17
5699.57940 1.01467e-17
5701.04910 1.08497e-17
5702.51880 9.53216e-18
5703.98850 9.47329e-18
5705.45820 1.05219e-17
5706.92790 9.91320e-18
5708.39760 1.07775e-17
5709.86730 1.07989e-17
5711.33700 1.07573e-17
5712.80670 9.72123e-18
5714.27640 1.01107e-17
5715.74610 1.13657e-17
5717.21580 1.03132e-17
5718.68550 9.60097e-18
5720.16555 1.06599e-17
5721.63525 1.07330e-17
5723.10495 9.71727e-18
5724.57465 1.05737e-17
5726.04435 9.85866e-18
5727.51405 1.08806e-17
5728.98375 9.22265e-18
5730.45345 9.98194e-18
5731.92315 9.67738e-18
5733.39285 9.42355e-18
5734.86255 9.26825e-18
5736.33225 9.34326e-18
5737.80195 8.51599e-18
5739.27165 9.07961e-18
5740.74135 9.76568e-18
5742.21105 9.93236e-18
5743.68075 9.94213e-18
5745.15045 9.62172e-18
5746.62015 9.51723e-18
5748.08985 9.71288e-18
5749.55955 9.40131e-18
5751.02925 7.87893e-18
5752.49895 8.86459e-18
5753.96865 1.02618e-17
5755.43835 1.03673e-17
5756.90805 1.03315e-17
5758.37775 9.60586e-18
5759.84745 8.31253e-18
5761.31715 9.01752e-18
5762.78685 8.77443e-18
5764.25655 9.05305e-18
5765.72625 8.94330e-18
5767.19595 9.31358e-18
5768.66565 8.19296e-18
5770.13535 8.15874e-18
5771.61540 8.11172e-18
5773.08510 7.61419e-18
5774.55480 8.02064e-18
5776.02450 8.30920e-18
5777.49420 8.89481e-18
5778.96390 8.83884e-18
5780.43360 9.29999e-18
5781.90330 8.41148e-18
5783.37300 7.63932e-18
5784.84270 8.61172e-18
5786.31240 9.11735e-18
5787.78210 1.04766e-17
5789.25180 9.64201e-18
5790.72150 8.80438e-18
5792.19120 9.42515e-18
5793.66090 8.99063e-18
5795.13060 8.78008e-18
5796.60030 8.97744e-18
5798.07000 1.01292e-17
5799.53970 1.00562e-17
5801.00940 9.51770e-18
5802.47910 1.01366e-17
5803.94880 9.47082e-18
5805.41850 8.31409e-18
5806.88820 8.61082e-18
5808.35790 9.67031e-18
5809.82760 9.28141e-18
5811.29730 9.07398e-18
5812.76700 9.49080e-18
5814.23670 9.35046e-18
5815.70640 9.50803e-18
5817.17610 8.84987e-18
5818.64580 9.13503e-18
5820.11550 1.01754e-17
5821.58520 1.04706e-17
5823.06525 1.00478e-17
5824.53495 9.82157e-18
5826.00465 1.01615e-17
5827.47435 9.58561e-18
5828.94405 9.89375e-18
5830.41375 9.91370e-18
5831.88345 1.03551e-17
5833.35315 9.74341e-18
5834.82285 9.71498e-18
5836.29255 9.92087e-18
5837.76225 9.29124e-18
5839.23195 9.62265e-18
5840.70165 9.57324e-18
5842.17135 9.97300e-18
5843.64105 1.00282e-17
5845.11075 1.00998e-17
5846.58045 1.03449e-17
5848.05015 1.04473e-17
5849.51985 9.91980e-18
5850.98955 1.00044e-17
5852.45925 1.08618e-17
5853.92895 1.07173e-17
5855.39865 1.02337e-17
5856.86835 1.02938e-17
5858.33805 1.05079e-17
5859.80775 1.02325e-17
5861.27745 9.51874e-18
5862.74715 1.06873e-17
5864.21685 1.05354e-17
5865.68655 1.02963e-17
5867.15625 1.08511e-17
5868.62595 1.12180e-17
5870.09565 1.08327e-17
5871.56535 1.10230e-17
5873.04540 1.10577e-17
5874.50475 1.09575e-17
5875.98480 1.07203e-17
5877.45450 1.03756e-17
5878.92420 9.95614e-18
5880.39390 1.07560e-17
5881.86360 1.11002e-17
5883.33330 1.03832e-17
5884.80300 1.01128e-17
5886.27270 1.06590e-17
5887.74240 1.06699e-17
5889.21210 9.91082e-18
5890.68180 9.58063e-18
5892.15150 9.82704e-18
5893.62120 1.05457e-17
5895.09090 9.81290e-18
5896.56060 1.03893e-17
5898.03030 1.01391e-17
5899.50000 1.04843e-17
5900.96970 1.00892e-17
5902.43940 1.06767e-17
5903.90910 1.04951e-17
5905.37880 1.03945e-17
5906.84850 1.07775e-17
5908.31820 9.51059e-18
5909.78790 9.59431e-18
5911.25760 9.97102e-18
5912.72730 1.10061e-17
5914.19700 1.10915e-17
5915.66670 1.12061e-17
5917.13640 1.05251e-17
5918.60610 9.63034e-18
5920.07580 9.70800e-18
5921.54550 9.75943e-18
5923.01520 1.07091e-17
5924.49525 1.03658e-17
5925.96495 1.07526e-17
5927.43465 1.08681e-17
5928.90435 1.07987e-17
5930.37405 1.05138e-17
5931.84375 1.09683e-17
5933.31345 1.08153e-17
5934.78315 1.14262e-17
5936.25285 1.10715e-17
5937.72255 1.01160e-17
5939.19225 9.98253e-18
5940.66195 1.04474e-17
5942.13165 1.08948e-17
5943.60135 1.01679e-17
5945.07105 1.07484e-17
5946.54075 1.01642e-17
5948.01045 1.01899e-17
5949.48015 9.64155e-18
5950.94985 9.56375e-18
5952.41955 1.10520e-17
5953.88925 9.95513e-18
5955.35895 9.61911e-18
5956.82865 1.01794e-17
5958.29835 1.02262e-17
5959.76805 9.81877e-18
5961.23775 1.01704e-17
5962.70745 1.05049e-17
5964.17715 1.08650e-17
5965.64685 1.08181e-17
5967.11655 1.03937e-17
5968.58625 1.03453e-17
5970.05595 9.57411e-18
5971.52565 9.56080e-18
5972.99535 9.95370e-18
5974.47540 1.05032e-17
5975.93475 1.10856e-17
5977.41480 1.04214e-17
5978.88450 1.00025e-17
5980.35420 1.00849e-17
5981.82390 9.60782e-18
5983.29360 9.59680e-18
5984.76330 9.27771e-18
5986.23300 8.97314e-18
5987.70270 1.01666e-17
5989.17240 1.08308e-17
5990.64210 1.06836e-17
5992.11180 9.99726e-18
5993.58150 1.04847e-17
5995.05120 1.06773e-17
5996.52090 9.88018e-18
5997.99060 9.08454e-18
5999.46030 8.87844e-18
6000.93000 9.78108e-18
6002.39970 1.05408e-17
6003.86940 9.44533e-18
6005.33910 8.45034e-18
6006.80880 9.65974e-18
6008.27850 1.02967e-17
6009.74820 1.03896e-17
6011.21790 9.98364e-18
6012.68760 9.67898e-18
6014.15730 9.94560e-18
6015.62700 9.46297e-18
6017.09670 9.22771e-18
6018.56640 9.54611e-18
6020.03610 1.05791e-17
6021.50580 1.12155e-17
6022.97550 9.75276e-18
6024.45555 8.25365e-18
6025.92525 8.90994e-18
6027.39495 9.74952e-18
6028.86465 1.01505e-17
6030.33435 1.00429e-17
6031.80405 9.70636e-18
6033.27375 9.75643e-18
6034.74345 9.79927e-18
6036.21315 9.76522e-18
6037.68285 9.57421e-18
6039.15255 9.36052e-18
6040.62225 9.13802e-18
6042.09195 9.34986e-18
6043.56165 9.37747e-18
6045.03135 8.77093e-18
6046.50105 8.60563e-18
6047.97075 9.02347e-18
6049.44045 9.09469e-18
6050.91015 8.37775e-18
6052.37985 8.68184e-18
6053.84955 9.47114e-18
6055.31925 9.34117e-18
6056.78895 9.08978e-18
6058.25865 8.99954e-18
6059.72835 9.19016e-18
6061.19805 8.70050e-18
6062.66775 8.63453e-18
6064.13745 9.49978e-18
6065.60715 9.28089e-18
6067.07685 8.72091e-18
6068.54655 8.77685e-18
6070.01625 8.64346e-18
6071.48595 8.63000e-18
6072.95565 9.14032e-18
6074.42535 9.56201e-18
6075.90540 9.08100e-18
6077.37510 9.08041e-18
6078.84480 9.48888e-18
6080.31450 8.69978e-18
6081.78420 8.79629e-18
6083.25390 8.96038e-18
6084.72360 9.57131e-18
6086.19330 9.02951e-18
6087.66300 8.77235e-18
6089.13270 9.19096e-18
6090.60240 9.15721e-18
6092.07210 8.16409e-18
6093.54180 8.57907e-18
6095.01150 8.71069e-18
6096.48120 7.81047e-18
6097.95090 8.30708e-18
6099.42060 8.11409e-18
6100.89030 8.22304e-18
6102.36000 8.58245e-18
6103.82970 8.80173e-18
6105.29940 8.43749e-18
6106.76910 8.39463e-18
6108.23880 8.65183e-18
6109.70850 9.05414e-18
6111.17820 9.45054e-18
6112.64790 8.87876e-18
6114.11760 8.37056e-18
6115.58730 7.94052e-18
6117.05700 9.30352e-18
6118.52670 9.34047e-18
6119.99640 9.12334e-18
6121.46610 1.02638e-17
6122.93580 1.06336e-17
6124.40550 9.80536e-18
6125.87520 9.89133e-18
6127.35525 1.01288e-17
6128.82495 9.65069e-18
6130.29465 8.64627e-18
6131.76435 8.19096e-18
6133.23405 8.59491e-18
6134.70375 8.63780e-18
6136.17345 8.85060e-18
6137.64315 8.37712e-18
6139.11285 7.81265e-18
6140.58255 7.95783e-18
6142.05225 8.53063e-18
6143.52195 8.40196e-18
6144.99165 7.91141e-18
6146.46135 7.98136e-18
6147.93105 8.21712e-18
6149.40075 8.53807e-18
6150.87045 8.40466e-18
6152.34015 8.56988e-18
6153.80985 7.73993e-18
6155.27955 7.19122e-18
6156.74925 7.22868e-18
6158.21895 7.58647e-18
6159.68865 8.18138e-18
6161.15835 7.75063e-18
6162.62805 8.13826e-18
6164.09775 8.08692e-18
6165.56745 8.06130e-18
6167.03715 7.79299e-18
6168.50685 7.88899e-18
6169.97655 8.02737e-18
6171.44625 8.26003e-18
6172.91595 8.62543e-18
6174.38565 9.33669e-18
6175.85535 8.98200e-18
6177.33540 8.53376e-18
6178.79475 8.26636e-18
6180.27480 7.80883e-18
6181.74450 7.68009e-18
6183.21420 7.77219e-18
6184.68390 7.16801e-18
6186.15360 7.34953e-18
6187.62330 7.66120e-18
6189.09300 7.51074e-18
6190.56270 8.05850e-18
6192.03240 8.41431e-18
6193.50210 8.11131e-18
6194.97180 7.91910e-18
6196.44150 7.75471e-18
6197.91120 7.37690e-18
6199.38090 7.87985e-18
6200.85060 8.38968e-18
6202.32030 8.04870e-18
6203.79000 7.74943e-18
6205.25970 7.50627e-18
6206.72940 7.46917e-18
6208.19910 7.51943e-18
6209.66880 7.76183e-18
6211.13850 7.99777e-18
6212.60820 7.99031e-18
6214.07790 8.02706e-18
6215.54760 7.64311e-18
6217.01730 7.31214e-18
6218.48700 7.51768e-18
6219.95670 7.48222e-18
6221.42640 7.58039e-18
6222.89610 8.01147e-18
6224.36580 7.49357e-18
6225.83550 7.66820e-18
6227.31555 8.38930e-18
6228.78525 7.86749e-18
6230.25495 7.94432e-18
6231.72465 7.95695e-18
6233.19435 7.51833e-18
6234.66405 7.51563e-18
6236.13375 7.97904e-18
6237.60345 8.50944e-18
6239.07315 8.27389e-18
6240.54285 7.38528e-18
6242.01255 7.01879e-18
6243.48225 7.53896e-18
6244.95195 7.47894e-18
6246.42165 7.68585e-18
6247.89135 8.00873e-18
6249.36105 7.24833e-18
6250.83075 7.00122e-18
6252.30045 7.37911e-18
6253.77015 7.97216e-18
6255.23985 8.22132e-18
6256.70955 8.00034e-18
6258.17925 7.43923e-18
6259.64895 7.44839e-18
6261.11865 7.71758e-18
6262.58835 7.45179e-18
6264.05805 7.35206e-18
6265.52775 7.02401e-18
6266.99745 7.54074e-18
6268.46715 7.89242e-18
6269.93685 8.01169e-18
6271.40655 7.44965e-18
6272.87625 7.21893e-18
6274.34595 6.74805e-18
6275.81565 6.88922e-18
6277.28535 7.36141e-18
6278.75505 7.25818e-18
6280.23510 7.30570e-18
6281.70480 6.99698e-18
6283.17450 6.76985e-18
6284.64420 7.21231e-18
6286.11390 8.03836e-18
6287.58360 7.07637e-18
6289.05330 6.68068e-18
6290.52300 7.12687e-18
6291.99270 7.62443e-18
6293.46240 7.47825e-18
6294.93210 6.91080e-18
6296.40180 7.40040e-18
6297.87150 7.76607e-18
6299.34120 6.99947e-18
6300.81090 7.28535e-18
6302.28060 7.60466e-18
6303.75030 7.34144e-18
6305.22000 7.13322e-18
6306.68970 6.95541e-18
6308.15940 7.48924e-18
6309.62910 7.65925e-18
6311.09880 6.71141e-18
6312.56850 6.87965e-18
6314.03820 7.29261e-18
6315.50790 7.17537e-18
6316.97760 7.15166e-18
6318.44730 7.26302e-18
6319.91700 7.47293e-18
6321.38670 6.86628e-18
6322.85640 6.44591e-18
6324.32610 7.10788e-18
6325.79580 7.57565e-18
6327.26550 6.85322e-18
6328.74555 7.02779e-18
6330.21525 7.52035e-18
6331.68495 6.87823e-18
6333.15465 7.05972e-18
6334.62435 7.60111e-18
6336.09405 8.05356e-18
6337.56375 7.45313e-18
6339.03345 7.04439e-18
6340.50315 7.34407e-18
6341.97285 7.44064e-18
6343.44255 6.96704e-18
6344.91225 7.07624e-18
6346.38195 7.55272e-18
6347.85165 7.40896e-18
6349.32135 6.59339e-18
6350.79105 6.42029e-18
6352.26075 6.93182e-18
6353.73045 7.01316e-18
6355.20015 7.65019e-18
6356.66985 6.94455e-18
6358.13955 6.65615e-18
6359.60925 6.97588e-18
6361.07895 7.03706e-18
6362.54865 6.98739e-18
6364.01835 7.02144e-18
6365.48805 7.30480e-18
6366.95775 6.89111e-18
6368.42745 7.05756e-18
6369.89715 7.04914e-18
6371.36685 7.20008e-18
6372.83655 7.01591e-18
6374.30625 6.68643e-18
6375.77595 7.26397e-18
6377.24565 7.98447e-18
6378.72570 8.01770e-18
6380.19540 7.79556e-18
6381.66510 7.64324e-18
6383.13480 7.66478e-18
6384.60450 7.85942e-18
6386.07420 7.02354e-18
6387.54390 6.81226e-18
6389.01360 7.47422e-18
6390.48330 8.07404e-18
6391.95300 8.00854e-18
6393.42270 7.86473e-18
6394.89240 7.91633e-18
6396.36210 7.33534e-18
6397.83180 7.31222e-18
6399.30150 7.95264e-18
6400.77120 8.34355e-18
6402.24090 8.27613e-18
6403.71060 7.83825e-18
6405.18030 7.33964e-18
6406.65000 7.20973e-18
6408.11970 7.55674e-18
6409.58940 7.41742e-18
6411.05910 7.17106e-18
6412.52880 7.34790e-18
6413.99850 7.90538e-18
6415.46820 8.29995e-18
6416.93790 7.79640e-18
6418.40760 7.90653e-18
6419.87730 8.33233e-18
6421.34700 8.40360e-18
6422.81670 8.48353e-18
6424.28640 8.52967e-18
6425.75610 8.35918e-18
6427.22580 8.37533e-18
6428.69550 8.60971e-18
6430.16520 8.00374e-18
6431.64525 7.83437e-18
6433.11495 8.13737e-18
6434.58465 8.63481e-18
6436.05435 8.71385e-18
6437.52405 8.15070e-18
6438.99375 8.42538e-18
6440.46345 8.38595e-18
6441.93315 8.07287e-18
6443.40285 8.52080e-18
6444.87255 8.64556e-18
6446.34225 8.57168e-18
6447.81195 8.42664e-18
6449.28165 8.65751e-18
6450.75135 8.60783e-18
6452.22105 8.12781e-18
6453.69075 8.37485e-18
6455.16045 8.51350e-18
6456.63015 8.38433e-18
6458.09985 8.65485e-18
6459.56955 8.62351e-18
6461.03925 8.45977e-18
6462.50895 7.61414e-18
6463.97865 7.40367e-18
6465.44835 7.49929e-18
6466.91805 7.54557e-18
6468.38775 8.07762e-18
6469.85745 7.95240e-18
6471.32715 8.12845e-18
6472.79685 8.30738e-18
6474.26655 8.47863e-18
6475.73625 8.69640e-18
6477.20595 8.48243e-18
6478.67565 7.91364e-18
6480.14535 7.75239e-18
6481.62540 7.96671e-18
6483.08475 7.89345e-18
6484.56480 7.73706e-18
6486.03450 8.20080e-18
6487.50420 8.52621e-18
6488.97390 8.03016e-18
6490.44360 8.13822e-18
6491.91330 7.86840e-18
6493.38300 8.15146e-18
6494.85270 8.95207e-18
6496.32240 8.32066e-18
6497.79210 7.77784e-18
6499.26180 7.76077e-18
6500.73150 8.50698e-18
6502.20120 8.47718e-18
6503.67090 7.77436e-18
6505.14060 7.80171e-18
6506.61030 8.22605e-18
6508.08000 8.39671e-18
6509.54970 8.39016e-18
6511.01940 8.61564e-18
6512.48910 8.77305e-18
6513.95880 8.90976e-18
6515.42850 8.39402e-18
6516.89820 7.71938e-18
6518.36790 7.94694e-18
6519.83760 8.70513e-18
6521.30730 8.95750e-18
6522.77700 8.36707e-18
6524.24670 8.87341e-18
6525.71640 9.11648e-18
6527.18610 8.49688e-18
6528.65580 8.10001e-18
6530.12550 7.96501e-18
6531.60555 7.74044e-18
6533.07525 8.10266e-18
6534.54495 8.58359e-18
6536.01465 8.36519e-18
6537.48435 8.62845e-18
6538.95405 8.58857e-18
6540.42375 8.76124e-18
6541.89345 8.17483e-18
6543.36315 7.43536e-18
6544.83285 8.23494e-18
6546.30255 9.14062e-18
6547.77225 9.04219e-18
6549.24195 8.62462e-18
6550.71165 7.87515e-18
6552.18135 8.10036e-18
6553.65105 8.75198e-18
6555.12075 8.30875e-18
6556.59045 8.32416e-18
6558.06015 8.69104e-18
6559.52985 8.77105e-18
6560.99955 8.52257e-18
6562.46925 8.54742e-18
6563.93895 8.59691e-18
6565.40865 9.52737e-18
6566.87835 9.59501e-18
6568.34805 8.49609e-18
6569.81775 8.32524e-18
6571.28745 8.80141e-18
6572.75715 8.40369e-18
6574.22685 7.71762e-18
6575.69655 8.21051e-18
6577.16625 8.95737e-18
6578.63595 9.57578e-18
6580.10565 9.73740e-18
6581.57535 8.68226e-18
6583.04505 8.56562e-18
6584.52510 9.23454e-18
6585.99480 9.11386e-18
6587.46450 9.42747e-18
6588.93420 9.54324e-18
6590.40390 9.08796e-18
6591.87360 8.96625e-18
6593.34330 8.69105e-18
6594.81300 8.60805e-18
6596.28270 8.32483e-18
6597.75240 7.97570e-18
6599.22210 8.65696e-18
6600.69180 8.88092e-18
6602.16150 8.59876e-18
6603.63120 9.05984e-18
6605.10090 8.76015e-18
6606.57060 8.13682e-18
6608.04030 9.04345e-18
6609.51000 9.46487e-18
6610.97970 8.99572e-18
6612.44940 9.25452e-18
6613.91910 9.44902e-18
6615.38880 9.29517e-18
6616.85850 9.41332e-18
6618.32820 8.84715e-18
6619.79790 8.29423e-18
6621.26760 9.33572e-18
6622.73730 9.81068e-18
6624.20700 9.05436e-18
6625.67670 8.79062e-18
6627.14640 9.15404e-18
6628.61610 9.43148e-18
6630.08580 9.06647e-18
6631.55550 8.84523e-18
6633.02520 9.50214e-18
6634.50525 9.77702e-18
6635.97495 9.70308e-18
6637.44465 9.84704e-18
6638.91435 9.72090e-18
6640.38405 9.21105e-18
6641.85375 8.80640e-18
6643.32345 9.25744e-18
6644.79315 9.94636e-18
6646.26285 9.25403e-18
6647.73255 8.80923e-18
6649.20225 9.23506e-18
6650.67195 9.15303e-18
6652.14165 9.51718e-18
6653.61135 9.91028e-18
6655.08105 9.70275e-18
6656.55075 9.27173e-18
6658.02045 9.55763e-18
6659.49015 1.02629e-17
6660.95985 9.72441e-18
6662.42955 9.35464e-18
6663.89925 9.50367e-18
6665.36895 9.52739e-18
6666.83865 9.60727e-18
6668.30835 9.44222e-18
6669.77805 9.87442e-18
6671.24775 9.78464e-18
6672.71745 9.42803e-18
6674.18715 9.52486e-18
6675.65685 9.12633e-18
6677.12655 9.71898e-18
6678.59625 1.08086e-17
6680.06595 1.03725e-17
6681.53565 9.79795e-18
6683.00535 9.40425e-18
6684.48540 9.13564e-18
6685.95510 9.00588e-18
6687.42480 8.92256e-18
6688.89450 9.67819e-18
6690.36420 9.89909e-18
6691.83390 1.00399e-17
6693.30360 1.00821e-17
6694.77330 9.88801e-18
6696.24300 9.97408e-18
6697.71270 9.58993e-18
6699.18240 8.90787e-18
6700.65210 9.23197e-18
6702.12180 9.99480e-18
6703.59150 9.74344e-18
6705.06120 9.34370e-18
6706.53090 9.10392e-18
6708.00060 9.49504e-18
6709.47030 9.53368e-18
6710.94000 9.68624e-18
6712.40970 9.60074e-18
6713.87940 8.99639e-18
6715.34910 9.51350e-18
6716.81880 9.27678e-18
6718.28850 9.03758e-18
6719.75820 9.20889e-18
6721.22790 9.12663e-18
6722.69760 9.37228e-18
6724.16730 9.80362e-18
6725.63700 9.57209e-18
6727.10670 9.49655e-18
6728.57640 9.65800e-18
6730.04610 9.12045e-18
6731.51580 9.85763e-18
6732.98550 9.98516e-18
6734.45520 9.24997e-18
6735.93525 9.21699e-18
6737.40495 9.42775e-18
6738.87465 9.42312e-18
6740.34435 9.36741e-18
6741.81405 1.01618e-17
6743.28375 1.02938e-17
6744.75345 9.26312e-18
6746.22315 9.65579e-18
6747.69285 9.89387e-18
6749.16255 8.94904e-18
6750.63225 9.08292e-18
6752.10195 9.02123e-18
6753.57165 8.85790e-18
6755.04135 8.91342e-18
6756.51105 9.73705e-18
6757.98075 9.97989e-18
6759.45045 9.23533e-18
6760.92015 9.27633e-18
6762.38985 9.46890e-18
6763.85955 9.08938e-18
6765.32925 9.47371e-18
6766.79895 1.06273e-17
6768.26865 9.71153e-18
6769.73835 8.76069e-18
6771.20805 9.10358e-18
6772.67775 9.40895e-18
6774.14745 9.33107e-18
6775.61715 9.23047e-18
6777.08685 9.16600e-18
6778.55655 8.83292e-18
6780.02625 9.28743e-18
6781.49595 9.93059e-18
6782.96565 9.55727e-18
6784.43535 9.81260e-18
6785.91540 9.90293e-18
6787.37475 1.03314e-17
6788.85480 9.97251e-18
6790.32450 9.28409e-18
6791.79420 9.27858e-18
6793.26390 8.96462e-18
6794.73360 9.44006e-18
6796.20330 9.56605e-18
6797.67300 9.02339e-18
6799.14270 9.05697e-18
6800.61240 9.42098e-18
6802.08210 9.28245e-18
6803.55180 9.17327e-18
6805.02150 9.32244e-18
6806.49120 9.58468e-18
6807.96090 9.54907e-18
6809.43060 8.94428e-18
6810.90030 8.22527e-18
6812.37000 8.48515e-18
6813.83970 9.61248e-18
6815.30940 9.04426e-18
6816.77910 8.26821e-18
6818.24880 8.85448e-18
6819.71850 9.16372e-18
6821.18820 9.07944e-18
6822.65790 9.18686e-18
6824.12760 9.14417e-18
6825.59730 9.09099e-18
6827.06700 9.92380e-18
6828.53670 9.95070e-18
6830.00640 9.14583e-18
6831.47610 9.12390e-18
6832.94580 8.59801e-18
6834.41550 8.71769e-18
6835.89555 9.55195e-18
6837.36525 9.08905e-18
6838.83495 8.79991e-18
6840.30465 9.07097e-18
6841.77435 9.01273e-18
6843.24405 8.74888e-18
6844.71375 8.76822e-18
6846.18345 8.76135e-18
6847.65315 8.75448e-18
6849.12285 8.74761e-18
6850.59255 8.74074e-18
6852.06225 8.73387e-18
6853.53195 8.72700e-18
6855.00165 8.72014e-18
6856.47135 8.71327e-18
6857.94105 8.70640e-18
6859.41075 8.69953e-18
6860.88045 8.69267e-18
6862.35015 8.68580e-18
6863.81985 8.67894e-18
6865.28955 8.67207e-18
6866.75925 8.66520e-18
6868.22895 8.65834e-18
6869.69865 8.65147e-18
6871.16835 8.64461e-18
6872.63805 8.63774e-18
6874.10775 8.63088e-18
6875.57745 8.62402e-18
6877.04715 8.61715e-18
6878.51685 8.61029e-18
6879.98655 8.60343e-18
6881.45625 8.59657e-18
6882.92595 8.58970e-18
6884.39565 8.58284e-18
6885.86535 8.57598e-18
6887.34540 8.56912e-18
6888.81510 8.56226e-18
6890.28480 8.55540e-18
6891.75450 8.54854e-18
6893.22420 8.54168e-18
6894.69390 8.53482e-18
6896.16360 8.52796e-18
6897.63330 8.52110e-18
6899.10300 8.51425e-18
6900.57270 8.50739e-18
6902.04240 8.50053e-18
6903.51210 8.49367e-18
6904.98180 8.48682e-18
6906.45150 8.47996e-18
6907.92120 8.47310e-18
6909.39090 8.46624e-18
6910.86060 8.45939e-18
6912.33030 8.45253e-18
6913.80000 8.44568e-18
6915.26970 8.43882e-18
6916.73940 8.43197e-18
6918.20910 8.42511e-18
6919.67880 8.41826e-18
6921.14850 8.41141e-18
6922.61820 8.40455e-18
6924.08790 8.39770e-18
6925.55760 8.39085e-18
6927.02730 8.38400e-18
6928.49700 8.37714e-18
6929.96670 8.37029e-18
6931.43640 8.36344e-18
6932.90610 8.35659e-18
6934.37580 8.34974e-18
6935.84550 8.34289e-18
6937.31520 7.96907e-18
6938.79525 8.00994e-18
6940.26495 7.77277e-18
6941.73465 7.71743e-18
6943.20435 7.42642e-18
6944.67405 7.25637e-18
6946.14375 8.08250e-18
6947.61345 7.50958e-18
6949.08315 7.10336e-18
6950.55285 7.39227e-18
6952.02255 7.55221e-18
6953.49225 7.47902e-18
6954.96195 7.09438e-18
6956.43165 6.60590e-18
6957.90135 6.66238e-18
6959.37105 6.94234e-18
6960.84075 7.74553e-18
6962.31045 8.37638e-18
6963.78015 8.19208e-18
6965.24985 8.25407e-18
6966.71955 7.81488e-18
6968.18925 7.47792e-18
6969.65895 7.67877e-18
6971.12865 8.21605e-18
6972.59835 8.02423e-18
6974.06805 8.11667e-18
6975.53775 8.21541e-18
6977.00745 8.30720e-18
6978.47715 8.05922e-18
6979.94685 8.68261e-18
6981.41655 8.36661e-18
6982.88625 8.28350e-18
6984.35595 8.14517e-18
6985.82565 7.34390e-18
6987.29535 7.16781e-18
6988.77540 7.33605e-18
6990.24510 7.87320e-18
6991.71480 8.66899e-18
6993.18450 8.28648e-18
6994.65420 7.22358e-18
6996.12390 7.66940e-18
6997.59360 8.31512e-18
6999.06330 8.06115e-18
7000.53300 7.36976e-18
7002.00270 7.64698e-18
7003.47240 7.72466e-18
7004.94210 7.15067e-18
7006.41180 7.06861e-18
7007.88150 7.83119e-18
7009.35120 7.58533e-18
7010.82090 7.81306e-18
7012.29060 8.79358e-18
7013.76030 8.13752e-18
7015.23000 7.19602e-18
7016.69970 7.20777e-18
7018.16940 7.87708e-18
7019.63910 8.09066e-18
7021.10880 7.36758e-18
7022.57850 7.34487e-18
7024.04820 7.02418e-18
7025.51790 7.73892e-18
7026.98760 8.16159e-18
7028.45730 7.66553e-18
7029.92700 7.46340e-18
7031.39670 8.77864e-18
7032.86640 8.98791e-18
7034.33610 7.99849e-18
7035.80580 7.13294e-18
7037.27550 7.44444e-18
7038.75555 8.00763e-18
7040.22525 7.96289e-18
7041.69495 8.24597e-18
7043.16465 7.95501e-18
7044.63435 7.49740e-18
7046.10405 7.43793e-18
7047.57375 7.63135e-18
7049.04345 8.56467e-18
7050.51315 7.90851e-18
7051.98285 6.67456e-18
7053.45255 7.34841e-18
7054.92225 8.24144e-18
7056.39195 7.56159e-18
7057.86165 7.90912e-18
7059.33135 9.11615e-18
7060.80105 8.35925e-18
7062.27075 7.16435e-18
7063.74045 7.30425e-18
7065.21015 7.41113e-18
7066.67985 7.41665e-18
7068.14955 7.35481e-18
7069.61925 8.20556e-18
7071.08895 8.38421e-18
7072.55865 7.90932e-18
7074.02835 7.59832e-18
7075.49805 7.92361e-18
7076.96775 8.13410e-18
7078.43745 7.68397e-18
7079.90715 7.48476e-18
7081.37685 7.57935e-18
7082.84655 7.66611e-18
7084.31625 7.88578e-18
7085.78595 7.74402e-18
7087.25565 7.32858e-18
7088.72535 7.78714e-18
7090.20540 8.17170e-18
7091.66475 7.92360e-18
7093.14480 8.10317e-18
7094.61450 8.28058e-18
7096.08420 8.38769e-18
7097.55390 8.49314e-18
7099.02360 8.64912e-18
7100.49330 8.79308e-18
7101.96300 8.42620e-18
7103.43270 7.54705e-18
7104.90240 7.26188e-18
7106.37210 7.38975e-18
7107.84180 7.56062e-18
7109.31150 7.41190e-18
7110.78120 7.79770e-18
7112.25090 7.99388e-18
7113.72060 8.24832e-18
7115.19030 8.20659e-18
7116.66000 7.39003e-18
7118.12970 7.15659e-18
7119.59940 7.09281e-18
7121.06910 7.18845e-18
7122.53880 7.54481e-18
7124.00850 8.41667e-18
7125.47820 8.44461e-18
7126.94790 7.92506e-18
7128.41760 7.88446e-18
7129.88730 7.56089e-18
7131.35700 7.39059e-18
7132.82670 8.30871e-18
7134.29640 8.64174e-18
7135.76610 8.02945e-18
7137.23580 7.82056e-18
7138.70550 7.34863e-18
7140.18555 7.64469e-18
7141.65525 8.21594e-18
7143.12495 8.10044e-18
7144.59465 7.71189e-18
7146.06435 7.30800e-18
7147.53405 7.52132e-18
7149.00375 8.03309e-18
7150.47345 8.46662e-18
7151.94315 8.45207e-18
7153.41285 7.53511e-18
7154.88255 7.00476e-18
7156.35225 7.70937e-18
7157.82195 7.83775e-18
7159.29165 8.32231e-18
7160.76135 8.37009e-18
7162.23105 7.11525e-18
7163.70075 6.98294e-18
7165.17045 7.26365e-18
7166.64015 7.30066e-18
7168.10985 6.90255e-18
7169.57955 6.96437e-18
7171.04925 7.49370e-18
7172.51895 7.89400e-18
7173.98865 7.27196e-18
7175.45835 6.42980e-18
7176.92805 6.21235e-18
7178.39775 6.32628e-18
7179.86745 6.42805e-18
7181.33715 6.81527e-18
7182.80685 7.06644e-18
7184.27655 5.88848e-18
7185.74625 5.36190e-18
7187.21595 6.46050e-18
7188.68565 7.29243e-18
7190.15535 7.17005e-18
7191.63540 6.37549e-18
7193.10510 5.91403e-18
7194.57480 6.41104e-18
7196.04450 6.89885e-18
7197.51420 6.53559e-18
7198.98390 6.48314e-18
7200.45360 5.95271e-18
7201.92330 5.90975e-18
7203.39300 6.91978e-18
7204.86270 6.95032e-18
7206.33240 7.64439e-18
7207.80210 7.83411e-18
7209.27180 7.44864e-18
7210.74150 7.70432e-18
7212.21120 7.49077e-18
7213.68090 7.80258e-18
7215.15060 7.93946e-18
7216.62030 7.43438e-18
7218.09000 7.36190e-18
7219.55970 7.13606e-18
7221.02940 7.22602e-18
7222.49910 7.40600e-18
7223.96880 7.05750e-18
7225.43850 7.51318e-18
7226.90820 7.07559e-18
7228.37790 7.67773e-18
7229.84760 7.43894e-18
7231.31730 7.14868e-18
7232.78700 6.76520e-18
7234.25670 7.24389e-18
7235.72640 6.90791e-18
7237.19610 6.23098e-18
7238.66580 6.50864e-18
7240.13550 7.32840e-18
7241.60520 7.18101e-18
7243.08525 6.52190e-18
7244.55495 7.04583e-18
7246.02465 6.76252e-18
7247.49435 7.42729e-18
7248.96405 7.47142e-18
7250.43375 6.48432e-18
7251.90345 6.52932e-18
7253.37315 6.41622e-18
7254.84285 7.46285e-18
7256.31255 7.83856e-18
7257.78225 7.37735e-18
7259.25195 6.40150e-18
7260.72165 6.01290e-18
7262.19135 5.93419e-18
7263.66105 6.89147e-18
7265.13075 7.27129e-18
7266.60045 6.69189e-18
7268.07015 7.22729e-18
7269.53985 7.46239e-18
7271.00955 7.26500e-18
7272.47925 7.98886e-18
7273.94895 8.01989e-18
7275.41865 7.39991e-18
7276.88835 7.01111e-18
7278.35805 6.54090e-18
7279.82775 6.91757e-18
7281.29745 7.23972e-18
7282.76715 7.99178e-18
7284.23685 9.05333e-18
7285.70655 7.21114e-18
7287.17625 7.66451e-18
7288.64595 7.39508e-18
7290.11565 6.44884e-18
7291.58535 6.40126e-18
7293.06540 7.05224e-18
7294.52475 7.34619e-18
7296.00480 7.59845e-18
7297.47450 7.34553e-18
7298.94420 7.90657e-18
7300.41390 7.21235e-18
7301.88360 6.60062e-18
7303.35330 6.72435e-18
7304.82300 7.10994e-18
7306.29270 6.68611e-18
7307.76240 6.37834e-18
7309.23210 6.67293e-18
7310.70180 6.71264e-18
7312.17150 6.78079e-18
7313.64120 7.09723e-18
7315.11090 7.58655e-18
7316.58060 7.79876e-18
7318.05030 7.47298e-18
7319.52000 6.15598e-18
7320.98970 6.87621e-18
7322.45940 7.66252e-18
7323.92910 6.88113e-18
7325.39880 6.66639e-18
7326.86850 7.28048e-18
7328.33820 7.10483e-18
7329.80790 7.54170e-18
7331.27760 7.13010e-18
7332.74730 6.38979e-18
7334.21700 7.12393e-18
7335.68670 7.21945e-18
7337.15640 6.60563e-18
7338.62610 6.67893e-18
7340.09580 6.41951e-18
7341.56550 7.91722e-18
7343.04555 7.38756e-18
7344.51525 7.35763e-18
7345.98495 6.78568e-18
7347.45465 7.01910e-18
7348.92435 7.13906e-18
7350.39405 6.43665e-18
7351.86375 7.10249e-18
7353.33345 6.98467e-18
7354.80315 7.03473e-18
7356.27285 7.50570e-18
7357.74255 7.13808e-18
7359.21225 7.29998e-18
7360.68195 7.06808e-18
7362.15165 6.74668e-18
7363.62135 7.04189e-18
7365.09105 6.73182e-18
7366.56075 7.66006e-18
7368.03045 7.19388e-18
7369.50015 6.79052e-18
7370.96985 7.18677e-18
7372.43955 7.22656e-18
7373.90925 6.71087e-18
7375.37895 6.99659e-18
7376.84865 8.03651e-18
7378.31835 7.99534e-18
7379.78805 6.31954e-18
7381.25775 6.64074e-18
7382.72745 6.61246e-18
7384.19715 7.21028e-18
7385.66685 7.45010e-18
7387.13655 6.61360e-18
7388.60625 7.08428e-18
7390.07595 7.57089e-18
7391.54565 6.74397e-18
7393.01535 6.30886e-18
7394.49540 7.37714e-18
7395.96510 6.94358e-18
7397.43480 6.95169e-18
7398.90450 7.86807e-18
7400.37420 7.86809e-18
7401.84390 1.10205e-17
7403.31360 1.69712e-17
7404.78330 1.00935e-17
7406.25300 6.39327e-18
7407.72270 7.03464e-18
7409.19240 7.36548e-18
7410.66210 6.88972e-18
7412.13180 6.66639e-18
7413.60150 6.69275e-18
7415.07120 6.74237e-18
7416.54090 7.01442e-18
7418.01060 7.16520e-18
