# wavelength flux
3300.00362 4.83783e-18
3302.00045 1.25215e-17
3303.99727 2.94573e-18
3306.00419 -5.14848e-17
3308.00102 -1.41051e-16
3309.99785 -1.57713e-16
3312.00477 -7.99962e-17
3314.00160 -1.83457e-17
3315.99843 7.23124e-18
3317.99526 8.47953e-18
3320.00217 3.11926e-18
3321.99900 -1.22234e-18
3323.99583 -3.68023e-18
3326.00274 -6.44558e-18
3327.99957 -8.88578e-18
3329.99640 -4.74219e-18
3332.00332 8.87939e-18
3334.00015 1.24306e-17
3335.99698 2.09397e-18
3338.00389 -9.24467e-18
3340.00072 -1.85563e-18
3341.99755 1.23246e-17
3344.00447 1.27039e-17
3346.00130 5.61529e-18
3347.99813 2.00950e-18
3350.00504 6.63773e-18
3352.00187 9.86353e-18
3353.99870 8.44723e-18
3355.99554 4.69134e-18
3358.00245 3.64555e-18
3359.99928 4.25347e-18
3361.99611 4.75506e-18
3364.00302 6.05693e-18
3365.99986 7.16032e-18
3367.99669 6.92420e-18
3370.00360 4.79825e-18
3372.00043 -2.02489e-18
3373.99726 -8.09707e-18
3376.00418 -2.76885e-18
3378.00101 3.65427e-18
3379.99784 4.53324e-18
3382.00475 2.63564e-18
3384.00158 2.93888e-18
3385.99841 5.21023e-18
3387.99524 5.74378e-18
3390.00215 6.38387e-18
3391.99898 5.85743e-18
3393.99581 2.65760e-18
3396.00273 2.18837e-18
3397.99956 5.26997e-18
3399.99639 8.86789e-18
3402.00330 9.66756e-18
3404.00013 5.80755e-18
3405.99696 -2.05590e-19
3408.00388 5.96289e-20
3410.00071 4.14079e-18
3411.99754 6.74303e-18
3414.00445 7.77109e-18
3416.00128 9.07160e-18
3417.99811 1.09565e-17
3420.00503 1.04904e-17
3422.00186 7.29431e-18
3423.99869 4.28314e-18
3425.99552 5.85887e-18
3428.00243 6.12028e-18
3429.99926 3.94157e-18
3431.99609 5.55531e-18
3434.00301 7.59741e-18
3435.99984 6.73438e-18
3437.99667 3.21793e-18
3440.00358 1.86376e-18
3442.00041 3.00176e-18
3443.99724 3.39960e-18
3446.00416 4.74723e-18
3448.00099 5.70982e-18
3449.99782 4.10089e-18
3452.00473 3.37369e-18
3454.00156 3.24455e-18
3455.99839 2.37369e-18
3457.99522 4.12933e-18
3460.00214 5.74286e-18
3461.99897 4.22919e-18
3463.99580 3.83416e-18
3466.00271 4.57251e-18
3467.99954 5.05268e-18
3469.99637 5.62411e-18
3472.00329 4.74192e-18
3474.00012 2.57520e-18
3475.99695 2.68635e-18
3478.00386 4.57340e-18
3480.00069 6.10418e-18
3481.99752 5.67951e-18
3484.00444 5.42495e-18
3486.00127 5.89997e-18
3487.99810 4.96179e-18
3490.00502 4.31035e-18
3492.00184 4.76067e-18
3493.99867 5.28458e-18
3495.99550 5.56375e-18
3498.00242 5.07692e-18
3499.99925 3.74477e-18
3501.99608 4.22214e-18
3504.00299 5.12697e-18
3505.99982 3.68779e-18
3507.99665 3.61798e-18
3510.00357 5.11334e-18
3512.00040 5.83795e-18
3513.99723 4.80543e-18
3516.00414 3.55095e-18
3518.00097 3.63385e-18
3519.99780 3.49083e-18
3522.00472 3.17838e-18
3524.00155 3.59326e-18
3525.99838 5.26516e-18
3527.99521 5.52614e-18
3530.00212 3.21949e-18
3531.99896 1.71696e-18
3533.99579 2.00122e-18
3536.00270 3.34355e-18
3537.99953 4.19803e-18
3539.99636 4.02990e-18
3542.00328 3.45835e-18
3544.00011 3.68292e-18
3545.99694 3.79968e-18
3548.00385 3.62388e-18
3550.00068 4.02130e-18
3551.99751 3.96522e-18
3554.00443 3.52620e-18
3556.00126 3.75031e-18
3557.99809 4.05705e-18
3560.00500 3.94591e-18
3562.00183 3.53267e-18
3563.99866 3.88049e-18
3565.99549 4.74808e-18
3568.00240 5.13093e-18
3569.99923 4.75939e-18
3571.99606 4.59469e-18
3574.00298 5.37324e-18
3575.99981 5.78718e-18
3577.99664 5.07389e-18
3580.00355 3.77350e-18
3582.00038 3.93850e-18
3583.99721 5.05271e-18
3586.00413 5.49282e-18
3588.00096 4.25484e-18
3589.99779 3.62329e-18
3592.00470 4.61054e-18
3594.00153 4.72416e-18
3595.99836 4.82661e-18
3597.99519 5.52288e-18
3600.00211 5.71553e-18
3601.99894 4.72756e-18
3603.99577 3.44721e-18
3606.00268 3.73304e-18
3607.99951 4.47560e-18
3609.99635 4.71741e-18
3612.00326 4.52817e-18
3614.00009 4.45059e-18
3615.99692 4.59639e-18
3618.00383 4.68460e-18
3620.00066 4.75410e-18
3621.99749 4.83094e-18
3624.00441 4.90727e-18
3626.00124 4.98161e-18
3627.99807 5.06531e-18
3630.00498 5.14339e-18
3632.00181 5.12356e-18
3633.99864 5.05086e-18
3635.99547 4.97579e-18
3638.00239 4.79816e-18
3639.99922 4.82344e-18
3641.99605 5.14778e-18
3644.00296 5.21802e-18
3645.99979 4.79468e-18
3647.99662 4.47766e-18
3650.00354 5.56466e-18
3652.00037 6.14646e-18
3653.99720 5.76225e-18
3656.00411 6.82356e-18
3658.00094 7.50882e-18
3659.99777 6.97568e-18
3662.00469 6.69824e-18
3664.00152 6.41738e-18
3665.99835 6.07238e-18
3667.99518 6.06369e-18
3670.00209 6.24451e-18
3671.99892 6.47200e-18
3673.99575 6.64782e-18
3676.00267 6.42030e-18
3677.99950 6.21018e-18
3679.99633 6.56691e-18
3682.00324 6.66146e-18
3684.00007 6.50342e-18
3685.99690 6.66823e-18
3688.00382 7.45727e-18
3690.00065 7.89651e-18
3691.99748 7.38094e-18
3694.00439 7.51895e-18
3696.00122 7.76764e-18
3697.99805 7.30133e-18
3700.00497 6.87922e-18
3702.00180 6.48853e-18
3703.99863 6.39560e-18
3705.99546 7.58352e-18
3708.00238 8.49752e-18
3709.99920 8.07163e-18
3711.99603 7.24630e-18
3714.00295 6.76202e-18
3715.99978 6.95232e-18
3717.99661 7.58495e-18
3720.00353 7.79062e-18
3722.00036 7.54844e-18
3723.99719 7.67632e-18
3726.00410 7.97316e-18
3728.00093 8.05221e-18
3729.99776 7.75671e-18
3732.00468 7.64674e-18
3734.00151 7.64815e-18
3735.99834 7.35578e-18
3737.99516 7.18970e-18
3740.00208 7.19362e-18
3741.99891 7.19755e-18
3743.99574 7.24415e-18
3746.00265 7.29074e-18
3747.99948 7.33733e-18
3749.99631 7.38390e-18
3752.00323 7.43047e-18
3754.00006 7.47704e-18
3755.99689 7.52359e-18
3758.00380 7.57013e-18
3760.00063 7.61667e-18
3761.99746 7.66320e-18
3764.00438 7.70972e-18
3766.00121 7.75623e-18
3767.99804 7.80274e-18
3770.00495 7.84924e-18
3772.00178 7.89573e-18
3773.99861 7.94221e-18
3775.99545 7.98869e-18
3778.00236 8.03515e-18
3779.99919 8.08161e-18
3781.99602 8.33403e-18
3784.00293 8.05913e-18
3785.99977 8.22333e-18
3787.99660 8.63068e-18
3790.00351 8.86399e-18
3792.00034 8.64637e-18
3793.99717 8.10150e-18
3796.00409 7.85650e-18
3798.00091 8.35163e-18
3799.99774 8.80042e-18
3802.00466 8.81116e-18
3804.00149 8.58236e-18
3805.99832 8.80704e-18
3807.99515 9.13273e-18
3810.00206 9.08188e-18
3811.99889 9.10011e-18
3813.99572 8.94728e-18
3816.00264 8.45781e-18
3817.99947 8.12768e-18
3819.99630 8.39583e-18
3822.00321 9.06743e-18
3824.00004 9.23119e-18
3825.99687 9.16683e-18
3828.00379 9.22284e-18
3830.00062 9.28357e-18
3831.99745 9.33982e-18
3834.00436 9.30485e-18
3836.00119 9.07527e-18
3837.99802 8.97524e-18
3840.00494 9.07464e-18
3842.00177 9.19771e-18
3843.99860 9.67890e-18
3845.99543 1.01898e-17
3848.00234 1.00667e-17
3849.99917 9.56622e-18
3851.99600 9.25923e-18
3854.00292 9.47174e-18
3855.99975 9.53120e-18
3857.99658 9.74606e-18
3860.00349 1.05456e-17
3862.00032 1.10041e-17
3863.99715 1.07359e-17
3866.00407 1.00360e-17
3868.00090 9.72018e-18
3869.99773 1.00821e-17
3872.00464 1.07530e-17
3874.00147 1.08495e-17
3875.99830 1.03159e-17
3877.99513 9.72141e-18
3880.00205 9.84047e-18
3881.99888 1.04927e-17
3883.99571 1.09874e-17
3886.00262 1.07198e-17
3887.99945 1.07830e-17
3889.99628 1.13634e-17
3892.00320 1.12900e-17
3894.00003 1.11124e-17
3895.99686 1.12070e-17
3898.00378 1.13388e-17
3900.00060 1.12564e-17
3901.99743 1.11502e-17
3904.00435 1.13907e-17
3906.00118 1.15351e-17
3907.99801 1.18157e-17
3910.00493 1.25691e-17
3912.00176 1.26378e-17
3913.99858 1.23517e-17
3915.99541 1.25806e-17
3918.00233 1.27720e-17
3919.99916 1.25928e-17
3921.99599 1.21252e-17
3924.00290 1.18646e-17
3925.99973 1.18556e-17
3927.99656 1.19748e-17
3930.00348 1.22547e-17
3932.00031 1.23082e-17
3933.99714 1.21098e-17
3936.00405 1.23586e-17
3938.00088 1.24576e-17
3939.99771 1.21284e-17
3942.00463 1.20867e-17
3944.00146 1.20531e-17
3945.99829 1.19131e-17
3947.99512 1.20407e-17
3950.00203 1.23576e-17
3951.99887 1.27068e-17
3953.99570 1.29619e-17
3956.00261 1.29150e-17
3957.99944 1.25984e-17
3959.99627 1.22948e-17
3962.00319 1.23947e-17
3964.00002 1.26552e-17
3965.99685 1.25974e-17
3968.00376 1.26105e-17
3970.00059 1.25977e-17
3971.99742 1.23305e-17
3974.00434 1.22895e-17
3976.00116 1.25429e-17
3977.99799 1.28406e-17
3980.00491 1.29064e-17
3982.00174 1.29840e-17
3983.99857 1.32123e-17
3985.99540 1.30510e-17
3988.00231 1.29229e-17
3989.99914 1.31950e-17
3991.99597 1.34285e-17
3994.00289 1.35979e-17
3995.99972 1.36119e-17
3997.99655 1.31718e-17
4000.00346 1.28880e-17
4002.00029 1.30326e-17
4003.99712 1.31313e-17
4006.00404 1.30484e-17
4008.00087 1.29609e-17
4009.99770 1.31570e-17
4012.00461 1.33266e-17
4014.00144 1.32815e-17
4015.99827 1.31336e-17
4018.00519 1.31977e-17
4020.00202 1.32376e-17
4021.99885 1.28928e-17
4023.99568 1.29694e-17
4026.00259 1.32949e-17
4027.99942 1.32342e-17
4029.99626 1.31214e-17
4032.00317 1.30906e-17
4034.00000 1.30812e-17
4035.99683 1.30217e-17
4038.00374 1.29053e-17
4040.00057 1.28186e-17
4041.99740 1.29276e-17
4044.00432 1.30758e-17
4046.00115 1.30086e-17
4047.99798 1.26209e-17
4050.00489 1.23224e-17
4052.00172 1.24109e-17
4053.99855 1.26912e-17
4055.99538 1.29022e-17
4058.00230 1.30362e-17
4059.99913 1.33520e-17
4061.99596 1.34822e-17
4064.00287 1.33015e-17
4065.99970 1.31144e-17
4067.99653 1.29650e-17
4070.00345 1.28178e-17
4072.00028 1.26652e-17
4073.99711 1.27241e-17
4076.00402 1.29446e-17
4078.00085 1.30489e-17
4079.99768 1.28516e-17
4082.00460 1.26542e-17
4084.00143 1.28078e-17
4085.99826 1.28438e-17
4087.99509 1.26836e-17
4090.00200 1.25489e-17
4091.99883 1.25998e-17
4093.99566 1.26554e-17
4096.00258 1.26057e-17
4097.99941 1.28553e-17
4099.99624 1.30343e-17
4102.00315 1.27906e-17
4103.99998 1.24846e-17
4105.99681 1.23032e-17
4108.00373 1.23094e-17
4110.00056 1.24762e-17
4111.99739 1.25252e-17
4114.00430 1.23942e-17
4116.00113 1.23820e-17
4117.99796 1.24785e-17
4120.00488 1.26090e-17
4122.00171 1.26947e-17
4123.99854 1.23107e-17
4125.99537 1.18350e-17
4128.00228 1.21492e-17
4129.99911 1.25772e-17
4131.99594 1.26129e-17
4134.00286 1.23325e-17
4135.99969 1.22129e-17
4137.99652 1.23815e-17
4140.00343 1.26096e-17
4142.00026 1.26395e-17
4143.99709 1.26444e-17
4146.00401 1.28459e-17
4148.00084 1.28691e-17
4149.99767 1.25730e-17
4152.00458 1.21480e-17
4154.00141 1.20695e-17
4155.99824 1.22311e-17
4158.00516 1.22670e-17
4160.00199 1.19686e-17
4161.99882 1.16721e-17
4163.99565 1.16433e-17
4166.00256 1.16590e-17
4167.99939 1.17257e-17
4169.99622 1.18916e-17
4172.00314 1.21159e-17
4173.99997 1.20496e-17
4175.99680 1.17722e-17
4178.00371 1.18435e-17
4180.00054 1.20011e-17
4181.99737 1.20199e-17
4184.00429 1.19608e-17
4186.00112 1.18971e-17
4187.99795 1.18967e-17
4190.00486 1.19763e-17
4192.00169 1.20519e-17
4193.99852 1.20479e-17
4195.99536 1.19647e-17
4198.00227 1.19400e-17
4199.99910 1.20401e-17
4201.99593 1.21535e-17
4204.00284 1.18944e-17
4205.99968 1.15726e-17
4207.99650 1.16747e-17
4210.00342 1.21058e-17
4212.00025 1.23115e-17
4213.99708 1.20517e-17
4216.00400 1.20407e-17
4218.00082 1.20645e-17
4219.99766 1.18996e-17
4222.00457 1.19864e-17
4224.00140 1.20986e-17
4225.99823 1.20506e-17
4227.99506 1.20693e-17
4230.00198 1.22043e-17
4231.99881 1.23735e-17
4233.99564 1.24411e-17
4236.00255 1.25005e-17
4237.99938 1.26073e-17
4239.99621 1.26791e-17
4242.00313 1.24625e-17
4243.99995 1.22218e-17
4245.99679 1.24579e-17
4248.00370 1.26077e-17
4250.00053 1.24110e-17
4251.99736 1.21209e-17
4254.00427 1.22899e-17
4256.00111 1.25541e-17
4257.99793 1.23089e-17
4260.00485 1.21750e-17
4262.00168 1.21729e-17
4263.99851 1.20472e-17
4265.99534 1.19630e-17
4268.00225 1.20337e-17
4269.99909 1.22186e-17
4271.99591 1.22823e-17
4274.00283 1.21985e-17
4275.99966 1.21233e-17
4277.99649 1.22891e-17
4280.00341 1.24670e-17
4282.00023 1.24632e-17
4283.99707 1.24181e-17
4286.00398 1.22974e-17
4288.00081 1.21901e-17
4289.99764 1.23332e-17
4292.00455 1.24751e-17
4294.00139 1.24487e-17
4295.99821 1.23451e-17
4297.99505 1.21981e-17
4300.00196 1.20434e-17
4301.99879 1.19469e-17
4303.99562 1.21062e-17
4306.00253 1.23623e-17
4307.99936 1.24213e-17
4309.99619 1.26380e-17
4312.00311 1.28178e-17
4313.99994 1.26042e-17
4315.99677 1.25358e-17
4318.00368 1.25113e-17
4320.00051 1.22665e-17
4321.99734 1.22861e-17
4324.00426 1.24968e-17
4326.00109 1.25710e-17
4327.99792 1.24035e-17
4330.00483 1.22849e-17
4332.00166 1.24530e-17
4333.99849 1.27044e-17
4335.99532 1.26563e-17
4338.00224 1.22804e-17
4339.99907 1.21337e-17
4341.99590 1.23260e-17
4344.00281 1.26551e-17
4345.99964 1.27890e-17
4347.99647 1.26268e-17
4350.00339 1.24117e-17
4352.00022 1.25412e-17
4353.99705 1.26947e-17
4356.00396 1.26148e-17
4358.00079 1.23865e-17
4359.99762 1.24481e-17
4362.00454 1.26082e-17
4364.00137 1.24115e-17
4365.99820 1.27241e-17
4368.00511 1.32660e-17
4370.00194 1.31481e-17
4371.99877 1.27343e-17
4373.99561 1.25323e-17
4376.00252 1.27757e-17
4377.99935 1.30789e-17
4379.99618 1.32441e-17
4382.00309 1.32441e-17
4383.99993 1.32578e-17
4385.99675 1.32715e-17
4388.00367 1.32852e-17
4390.00050 1.32989e-17
4391.99733 1.33126e-17
4394.00425 1.33263e-17
4396.00107 1.33400e-17
4397.99791 1.33537e-17
4400.00482 1.33674e-17
4402.00165 1.33811e-17
4403.99848 1.33948e-17
4405.99531 1.34084e-17
4408.00223 1.34221e-17
4409.99905 1.34358e-17
4411.99589 1.34494e-17
4414.00280 1.34631e-17
4415.99963 1.34768e-17
4417.99646 1.34904e-17
4420.00338 1.35041e-17
4422.00020 1.36553e-17
4423.99703 1.37615e-17
4426.00395 1.39937e-17
4428.00078 1.40290e-17
4429.99761 1.39787e-17
4432.00452 1.41380e-17
4434.00136 1.43934e-17
4435.99818 1.44774e-17
4438.00510 1.42343e-17
4440.00193 1.38879e-17
4441.99876 1.37677e-17
4443.99559 1.40475e-17
4446.00250 1.45406e-17
4447.99934 1.47944e-17
4449.99616 1.46641e-17
4452.00308 1.46399e-17
4453.99991 1.47155e-17
4455.99674 1.47890e-17
4458.00366 1.49121e-17
4460.00048 1.51713e-17
4461.99732 1.53848e-17
4464.00423 1.51757e-17
4466.00106 1.50887e-17
4467.99789 1.52892e-17
4470.00480 1.53393e-17
4472.00164 1.53013e-17
4473.99846 1.52684e-17
4475.99530 1.52703e-17
4478.00221 1.53704e-17
4479.99904 1.55845e-17
4481.99587 1.58650e-17
4484.00278 1.61212e-17
4485.99961 1.61834e-17
4487.99644 1.60197e-17
4490.00336 1.60713e-17
4492.00019 1.63378e-17
4493.99702 1.65357e-17
4496.00393 1.64829e-17
4498.00076 1.63802e-17
4499.99759 1.64318e-17
4502.00451 1.64359e-17
4504.00134 1.64777e-17
4505.99817 1.65942e-17
4507.99500 1.65345e-17
4510.00191 1.65996e-17
4511.99874 1.68891e-17
4513.99557 1.69337e-17
4516.00249 1.68216e-17
4517.99932 1.67073e-17
4519.99615 1.65872e-17
4522.00306 1.65756e-17
4523.99989 1.67345e-17
4525.99672 1.69985e-17
4528.00364 1.71051e-17
4530.00047 1.70982e-17
4531.99730 1.72407e-17
4534.00421 1.72475e-17
4536.00104 1.71492e-17
4537.99788 1.72321e-17
4540.00479 1.74402e-17
4542.00162 1.76465e-17
4543.99845 1.77291e-17
4545.99528 1.76204e-17
4548.00220 1.73897e-17
4549.99902 1.72163e-17
4551.99586 1.73276e-17
4554.00277 1.76260e-17
4555.99960 1.78770e-17
4557.99643 1.79728e-17
4560.00334 1.79492e-17
4562.00018 1.78236e-17
4563.99700 1.74784e-17
4566.00392 1.72274e-17
4568.00075 1.72867e-17
4569.99758 1.74384e-17
4572.00450 1.74367e-17
4574.00132 1.72921e-17
4575.99816 1.73113e-17
4578.00507 1.74468e-17
4580.00190 1.74727e-17
4581.99873 1.72170e-17
4583.99556 1.71998e-17
4586.00248 1.74387e-17
4587.99930 1.74169e-17
4589.99614 1.73315e-17
4592.00305 1.72924e-17
4593.99988 1.72130e-17
4595.99671 1.70397e-17
4598.00362 1.68214e-17
4600.00045 1.66966e-17
4601.99728 1.68504e-17
4604.00420 1.70250e-17
4606.00103 1.68842e-17
4607.99786 1.66248e-17
4610.00477 1.66199e-17
4612.00160 1.69588e-17
4613.99843 1.70286e-17
4615.99526 1.68009e-17
4618.00218 1.65361e-17
4619.99901 1.63868e-17
4621.99584 1.64352e-17
4624.00275 1.66436e-17
4625.99958 1.68561e-17
4627.99641 1.68635e-17
4630.00333 1.66857e-17
4632.00016 1.66320e-17
4633.99699 1.67475e-17
4636.00391 1.67949e-17
4638.00073 1.64639e-17
4639.99756 1.63258e-17
4642.00448 1.65296e-17
4644.00131 1.65943e-17
4645.99814 1.63554e-17
4648.00505 1.61098e-17
4650.00189 1.62922e-17
4651.99871 1.65553e-17
4653.99554 1.65850e-17
4656.00246 1.63447e-17
4657.99929 1.61571e-17
4659.99612 1.61564e-17
4662.00303 1.62581e-17
4663.99986 1.62978e-17
4665.99669 1.62294e-17
4668.00361 1.61218e-17
4670.00044 1.60977e-17
4671.99727 1.60963e-17
4674.00418 1.60182e-17
4676.00101 1.58905e-17
4677.99784 1.58138e-17
4680.00476 1.57851e-17
4682.00159 1.56077e-17
4683.99842 1.53544e-17
4685.99525 1.52020e-17
4688.00216 1.52676e-17
4689.99899 1.53181e-17
4691.99582 1.52512e-17
4694.00274 1.52563e-17
4695.99957 1.53457e-17
4697.99640 1.54690e-17
4700.00331 1.55592e-17
4702.00014 1.55375e-17
4703.99698 1.54274e-17
4706.00389 1.53204e-17
4708.00072 1.51817e-17
4709.99755 1.50392e-17
4712.00446 1.49839e-17
4714.00130 1.51051e-17
4715.99813 1.51981e-17
4717.99495 1.50301e-17
4720.00187 1.48399e-17
4721.99870 1.48011e-17
4723.99553 1.48948e-17
4726.00245 1.48669e-17
4727.99927 1.46416e-17
4729.99611 1.43532e-17
4732.00302 1.42864e-17
4733.99985 1.42931e-17
4735.99668 1.41579e-17
4738.00359 1.39366e-17
4740.00043 1.38436e-17
4741.99725 1.39368e-17
4744.00417 1.39738e-17
4746.00100 1.39800e-17
4747.99783 1.39897e-17
4750.00475 1.39485e-17
4752.00157 1.39949e-17
4753.99841 1.40579e-17
4756.00532 1.38738e-17
4758.00215 1.36810e-17
4759.99898 1.36513e-17
4761.99581 1.37409e-17
4764.00273 1.38410e-17
4765.99955 1.38635e-17
4767.99639 1.37888e-17
4770.00330 1.36684e-17
4772.00013 1.36445e-17
4773.99696 1.37939e-17
4776.00387 1.38754e-17
4778.00070 1.38445e-17
4779.99753 1.37674e-17
4782.00445 1.35825e-17
4784.00128 1.35218e-17
4785.99811 1.37461e-17
4788.00502 1.39473e-17
4790.00185 1.39297e-17
4791.99868 1.37444e-17
4793.99551 1.37122e-17
4796.00243 1.37550e-17
4797.99926 1.37788e-17
4799.99609 1.39200e-17
4802.00300 1.40303e-17
4803.99983 1.40854e-17
4805.99666 1.42923e-17
4808.00358 1.43279e-17
4810.00041 1.41089e-17
4811.99724 1.39765e-17
4814.00415 1.40381e-17
4816.00098 1.41388e-17
4817.99781 1.40435e-17
4820.00473 1.40705e-17
4822.00156 1.42281e-17
4823.99839 1.42256e-17
4825.99522 1.40386e-17
4828.00213 1.39211e-17
4829.99896 1.40975e-17
4831.99579 1.41852e-17
4834.00271 1.41780e-17
4835.99954 1.42598e-17
4837.99637 1.43081e-17
4840.00328 1.42522e-17
4842.00011 1.41556e-17
4843.99694 1.42508e-17
4846.00386 1.44293e-17
4848.00069 1.45015e-17
4849.99752 1.44814e-17
4852.00443 1.44250e-17
4854.00126 1.44163e-17
4855.99809 1.45295e-17
4858.00501 1.46561e-17
4860.00184 1.47178e-17
4861.99867 1.47647e-17
4863.99550 1.46982e-17
4866.00241 1.45120e-17
4867.99924 1.43682e-17
4869.99608 1.45222e-17
4872.00299 1.47400e-17
4873.99982 1.45039e-17
4875.99665 1.44388e-17
4878.00356 1.47092e-17
4880.00040 1.48741e-17
4881.99723 1.47064e-17
4884.00414 1.44017e-17
4886.00097 1.44439e-17
4887.99780 1.44861e-17
4890.00472 1.45282e-17
4892.00155 1.45704e-17
4893.99838 1.46125e-17
4895.99520 1.46547e-17
4898.00212 1.46968e-17
4899.99895 1.47390e-17
4901.99578 1.47811e-17
4904.00270 1.48232e-17
4905.99952 1.48653e-17
4907.99636 1.49074e-17
4910.00327 1.49495e-17
4912.00010 1.49916e-17
4913.99693 1.50336e-17
4916.00384 1.50757e-17
4918.00068 1.51178e-17
4919.99750 1.51598e-17
4922.00442 1.52018e-17
4924.00125 1.49536e-17
4925.99808 1.49479e-17
4928.00500 1.52251e-17
4930.00182 1.52248e-17
4931.99866 1.51152e-17
4933.99548 1.50473e-17
4936.00240 1.50365e-17
4937.99923 1.52951e-17
4939.99606 1.56577e-17
4942.00298 1.57389e-17
4943.99980 1.54887e-17
4945.99664 1.52677e-17
4948.00355 1.54142e-17
4950.00038 1.55301e-17
4951.99721 1.55093e-17
4954.00412 1.54839e-17
4956.00095 1.55708e-17
4957.99778 1.55237e-17
4960.00470 1.52390e-17
4962.00153 1.52553e-17
4963.99836 1.54122e-17
4966.00527 1.54009e-17
4968.00210 1.52844e-17
4969.99893 1.53977e-17
4971.99576 1.57521e-17
4974.00268 1.57857e-17
4975.99951 1.54414e-17
4977.99634 1.50379e-17
4980.00325 1.50230e-17
4982.00008 1.52408e-17
4983.99691 1.52604e-17
4986.00383 1.52801e-17
4988.00066 1.52997e-17
4989.99749 1.53193e-17
4992.00440 1.53389e-17
4994.00123 1.53585e-17
4995.99806 1.53782e-17
4998.00498 1.53978e-17
5000.00181 1.54174e-17
5001.99864 1.54370e-17
5003.99547 1.54566e-17
5006.00238 1.54762e-17
5007.99921 1.54958e-17
5009.99604 1.55153e-17
5012.00296 1.55349e-17
5013.99979 1.55545e-17
5015.99662 1.55741e-17
5018.00353 1.55937e-17
5020.00036 1.56132e-17
5021.99719 1.55772e-17
5024.00411 1.54586e-17
5026.00094 1.53250e-17
5027.99777 1.53480e-17
5030.00468 1.56574e-17
5032.00151 1.56757e-17
5033.99834 1.56940e-17
5035.99518 1.57122e-17
5038.00209 1.57305e-17
5039.99892 1.57487e-17
5041.99575 1.57670e-17
5044.00266 1.57852e-17
5045.99950 1.58035e-17
5047.99632 1.58217e-17
5050.00324 1.58399e-17
5052.00007 1.58582e-17
5053.99690 1.58764e-17
5056.00382 1.58946e-17
5058.00065 1.59128e-17
5059.99748 1.59311e-17
5062.00439 1.59493e-17
5064.00122 1.59675e-17
5065.99805 1.59857e-17
5068.00497 1.60039e-17
5070.00180 1.58956e-17
5071.99863 1.56980e-17
5073.99545 1.56658e-17
5076.00237 1.57137e-17
5077.99920 1.57280e-17
5079.99603 1.58717e-17
5082.00295 1.60557e-17
5083.99977 1.61048e-17
5085.99661 1.59321e-17
5088.00352 1.58613e-17
5090.00035 1.60233e-17
5091.99718 1.60994e-17
5094.00409 1.61126e-17
5096.00093 1.61307e-17
5097.99775 1.61465e-17
5100.00467 1.62081e-17
5102.00150 1.62500e-17
5103.99833 1.61581e-17
5105.99516 1.62158e-17
5108.00207 1.63798e-17
5109.99891 1.63427e-17
5111.99573 1.62274e-17
5114.00265 1.61965e-17
5115.99948 1.63009e-17
5117.99631 1.63538e-17
5120.00323 1.63365e-17
5122.00005 1.63616e-17
5123.99689 1.64941e-17
5126.00380 1.66568e-17
5128.00063 1.67288e-17
5129.99746 1.66904e-17
5132.00437 1.66951e-17
5134.00120 1.68460e-17
5135.99803 1.69863e-17
5138.00495 1.72128e-17
5140.00178 1.74511e-17
5141.99861 1.72308e-17
5143.99544 1.70201e-17
5146.00235 1.72281e-17
5147.99918 1.76025e-17
5149.99601 1.77366e-17
5152.00293 1.75579e-17
5153.99976 1.74447e-17
5155.99659 1.75118e-17
5158.00350 1.76541e-17
5160.00033 1.76696e-17
5161.99716 1.76363e-17
5164.00408 1.76854e-17
5166.00091 1.78625e-17
5167.99774 1.79689e-17
5170.00465 1.78886e-17
5172.00148 1.77198e-17
5173.99831 1.78777e-17
5176.00523 1.82554e-17
5178.00206 1.84921e-17
5179.99889 1.86933e-17
5181.99572 1.88033e-17
5184.00263 1.87348e-17
5185.99946 1.86152e-17
5187.99629 1.85961e-17
5190.00321 1.87317e-17
5192.00004 1.88892e-17
5193.99687 1.90460e-17
5196.00378 1.91889e-17
5198.00061 1.92301e-17
5199.99744 1.91915e-17
5202.00436 1.91521e-17
5204.00119 1.91930e-17
5205.99802 1.93584e-17
5207.99485 1.95776e-17
5210.00176 1.96751e-17
5211.99859 1.95371e-17
5213.99543 1.93036e-17
5216.00234 1.92741e-17
5217.99917 1.92283e-17
5219.99600 1.91817e-17
5222.00291 1.94001e-17
5223.99975 1.97003e-17
5225.99657 1.99372e-17
5228.00349 2.00867e-17
5230.00032 2.01442e-17
5231.99715 2.01439e-17
5234.00407 2.01515e-17
5236.00089 2.02651e-17
5237.99773 2.03704e-17
5240.00464 2.03494e-17
5242.00147 2.04129e-17
5243.99830 2.04897e-17
5246.00522 2.04942e-17
5248.00205 2.06626e-17
5249.99887 2.08362e-17
5251.99570 2.08276e-17
5254.00262 2.07653e-17
5255.99945 2.07741e-17
5257.99628 2.09095e-17
5260.00320 2.11158e-17
5262.00002 2.11582e-17
5263.99685 2.10929e-17
5266.00377 2.13339e-17
5268.00060 2.14581e-17
5269.99743 2.12816e-17
5272.00434 2.11670e-17
5274.00118 2.12096e-17
5275.99800 2.13277e-17
5278.00492 2.13736e-17
5280.00175 2.14165e-17
5281.99858 2.15105e-17
5283.99541 2.16228e-17
5286.00232 2.16179e-17
5287.99916 2.14973e-17
5289.99598 2.14007e-17
5292.00290 2.15107e-17
5293.99973 2.17307e-17
5295.99656 2.18610e-17
5298.00348 2.19530e-17
5300.00030 2.18271e-17
5301.99714 2.14154e-17
5304.00405 2.11669e-17
5306.00088 2.12077e-17
5307.99771 2.13971e-17
5310.00462 2.14875e-17
5312.00145 2.15428e-17
5313.99828 2.16476e-17
5315.99511 2.16854e-17
5318.00203 2.15906e-17
5319.99886 2.14017e-17
5321.99569 2.12661e-17
5324.00260 2.14131e-17
5325.99943 2.16010e-17
5327.99626 2.12191e-17
5330.00318 2.09334e-17
5332.00001 2.10351e-17
5333.99684 2.11135e-17
5336.00375 2.11706e-17
5338.00058 2.12196e-17
5339.99741 2.12626e-17
5342.00433 2.15090e-17
5344.00116 2.17668e-17
5345.99799 2.17313e-17
5348.00490 2.18357e-17
5350.00173 2.20172e-17
5351.99856 2.19725e-17
5353.99539 2.18660e-17
5356.00231 2.19205e-17
5357.99914 2.21793e-17
5359.99597 2.22960e-17
5362.00288 2.22560e-17
5363.99971 2.21940e-17
5365.99654 2.21412e-17
5368.00346 2.20057e-17
5370.00029 2.18651e-17
5371.99712 2.21001e-17
5374.00403 2.21804e-17
5376.00086 2.18409e-17
5377.99770 2.16691e-17
5380.00461 2.17029e-17
5382.00144 2.18287e-17
5383.99827 2.19818e-17
5385.99510 2.21136e-17
5388.00202 2.22302e-17
5389.99884 2.23762e-17
5391.99568 2.25832e-17
5394.00259 2.26728e-17
5395.99942 2.24420e-17
5397.99625 2.23308e-17
5400.00316 2.24527e-17
5402.00000 2.25423e-17
5403.99682 2.23232e-17
5406.00374 2.21826e-17
5408.00057 2.25685e-17
5409.99740 2.27896e-17
5412.00432 2.27529e-17
5414.00114 2.27133e-17
5415.99798 2.26320e-17
5418.00489 2.25448e-17
5420.00172 2.25301e-17
5421.99855 2.26499e-17
5423.99538 2.28165e-17
5426.00230 2.29185e-17
5427.99912 2.29381e-17
5429.99595 2.28861e-17
5432.00287 2.27881e-17
5433.99970 2.26756e-17
5435.99653 2.26519e-17
5438.00344 2.27773e-17
5440.00027 2.29880e-17
5441.99710 2.29199e-17
5444.00402 2.26491e-17
5446.00085 2.27002e-17
5447.99768 2.28043e-17
5450.00459 2.28878e-17
5452.00142 2.31366e-17
5453.99825 2.31611e-17
5456.00517 2.30088e-17
5458.00200 2.30522e-17
5459.99883 2.31717e-17
5461.99566 2.32154e-17
5464.00257 2.31493e-17
5465.99941 2.31788e-17
5467.99623 2.32093e-17
5470.00315 2.30499e-17
5471.99998 2.27994e-17
5473.99681 2.26725e-17
5476.00373 2.27600e-17
5478.00055 2.28098e-17
5479.99739 2.26975e-17
5482.00430 2.24650e-17
5484.00113 2.22931e-17
5485.99796 2.23905e-17
5488.00487 2.26311e-17
5490.00170 2.24663e-17
5491.99853 2.21706e-17
5493.99536 2.20792e-17
5496.00228 2.21450e-17
5497.99911 2.21619e-17
5499.99594 2.20089e-17
5502.00285 2.17627e-17
5503.99968 2.15956e-17
5505.99651 2.15918e-17
5508.00343 2.16901e-17
5510.00026 2.17639e-17
5511.99709 2.16866e-17
5514.00400 2.14389e-17
5516.00083 2.13133e-17
5517.99766 2.12374e-17
5520.00458 2.09705e-17
5522.00141 2.07466e-17
5523.99824 2.06871e-17
5525.99507 2.07147e-17
5528.00198 2.05676e-17
5529.99881 2.03612e-17
5531.99564 2.03174e-17
5534.00256 2.03656e-17
5535.99939 2.03407e-17
5537.99622 2.01523e-17
5540.00313 1.99210e-17
5541.99996 1.97062e-17
5543.99680 1.95676e-17
5546.00371 1.95933e-17
5548.00054 1.97107e-17
5549.99737 1.97633e-17
5552.00428 1.96089e-17
5554.00111 1.93295e-17
5555.99795 1.90487e-17
5558.00486 1.88444e-17
5560.00169 1.88948e-17
5561.99852 1.90553e-17
5563.99535 1.89375e-17
5566.00227 1.86761e-17
5567.99909 1.84326e-17
5569.99593 1.82559e-17
5572.00284 1.81100e-17
5573.99967 1.80506e-17
5575.99650 1.81511e-17
5578.00341 1.82766e-17
5580.00025 1.82807e-17
5581.99707 1.81067e-17
5584.00399 1.78687e-17
5586.00082 1.77415e-17
5587.99765 1.77575e-17
5590.00457 1.76062e-17
5592.00139 1.73966e-17
5593.99823 1.72867e-17
5595.99505 1.70755e-17
5598.00197 1.69286e-17
5599.99880 1.69571e-17
5601.99563 1.69135e-17
5604.00255 1.68245e-17
5605.99937 1.67841e-17
5607.99620 1.68039e-17
5610.00312 1.67944e-17
5611.99995 1.66813e-17
5613.99678 1.64936e-17
5616.00369 1.65179e-17
5618.00052 1.66715e-17
5619.99735 1.65331e-17
5622.00427 1.63985e-17
5624.00110 1.64146e-17
5625.99793 1.64184e-17
5628.00484 1.62512e-17
5630.00167 1.59410e-17
5631.99850 1.56843e-17
5633.99533 1.56941e-17
5636.00225 1.58940e-17
5637.99908 1.60119e-17
5639.99591 1.58269e-17
5642.00282 1.56258e-17
5643.99965 1.57078e-17
5645.99648 1.56761e-17
5648.00340 1.54094e-17
5650.00023 1.51014e-17
5651.99706 1.51543e-17
5654.00398 1.52918e-17
5656.00080 1.52445e-17
5657.99763 1.53186e-17
5660.00455 1.53185e-17
5662.00138 1.51213e-17
5663.99821 1.49968e-17
5666.00512 1.49209e-17
5668.00195 1.48200e-17
5669.99878 1.47112e-17
5671.99561 1.47396e-17
5674.00253 1.48794e-17
5675.99936 1.49124e-17
5677.99619 1.48512e-17
5680.00310 1.47997e-17
5681.99993 1.48382e-17
5683.99676 1.48255e-17
5686.00368 1.47408e-17
5688.00051 1.47108e-17
5689.99734 1.48873e-17
5692.00425 1.50530e-17
5694.00108 1.49003e-17
5695.99791 1.46336e-17
5698.00483 1.46166e-17
5700.00166 1.49655e-17
5701.99849 1.51044e-17
5703.99532 1.49008e-17
5706.00223 1.45783e-17
5707.99906 1.44321e-17
5709.99590 1.44771e-17
5712.00281 1.45916e-17
5713.99964 1.46985e-17
5715.99647 1.47311e-17
5718.00338 1.46912e-17
5720.00022 1.46606e-17
5721.99705 1.45750e-17
5724.00396 1.44897e-17
5726.00079 1.46281e-17
5727.99762 1.47692e-17
5730.00454 1.47273e-17
5732.00136 1.45779e-17
5733.99820 1.46786e-17
5736.00511 1.49824e-17
5738.00194 1.50495e-17
5739.99877 1.48744e-17
5741.99560 1.46946e-17
5744.00252 1.47391e-17
5745.99934 1.47350e-17
5747.99618 1.47157e-17
5750.00309 1.48595e-17
5751.99992 1.48373e-17
5753.99675 1.47388e-17
5756.00366 1.47992e-17
5758.00050 1.47874e-17
5759.99732 1.47564e-17
5762.00424 1.48299e-17
5764.00107 1.48752e-17
5765.99790 1.48013e-17
5768.00482 1.47047e-17
5770.00164 1.49287e-17
5771.99848 1.52684e-17
5773.99530 1.54754e-17
5776.00222 1.56399e-17
5777.99905 1.56379e-17
5779.99588 1.54385e-17
5782.00280 1.52435e-17
5783.99962 1.52447e-17
5785.99645 1.54177e-17
5788.00337 1.55190e-17
5790.00020 1.54964e-17
5791.99703 1.55146e-17
5794.00394 1.57911e-17
5796.00077 1.60200e-17
5797.99760 1.60506e-17
5800.00452 1.60101e-17
5802.00135 1.60807e-17
5803.99818 1.61694e-17
5805.99501 1.60882e-17
5808.00192 1.60913e-17
5809.99875 1.62010e-17
5811.99558 1.62688e-17
5814.00250 1.62443e-17
5815.99933 1.63038e-17
5817.99616 1.65520e-17
5820.00307 1.66506e-17
5821.99990 1.66131e-17
5823.99673 1.66347e-17
5826.00365 1.68309e-17
5828.00048 1.69579e-17
5829.99731 1.68752e-17
5832.00422 1.68741e-17
5834.00105 1.68803e-17
5835.99788 1.68742e-17
5838.00480 1.70760e-17
5840.00163 1.72249e-17
5841.99846 1.71736e-17
5843.99529 1.71171e-17
5846.00220 1.71636e-17
5847.99903 1.73068e-17
5849.99586 1.74328e-17
5852.00278 1.73841e-17
5853.99961 1.73021e-17
5855.99644 1.74872e-17
5858.00335 1.77263e-17
5860.00018 1.78480e-17
5861.99701 1.78233e-17
5864.00393 1.76588e-17
5866.00076 1.74911e-17
5867.99759 1.74961e-17
5870.00450 1.77471e-17
5872.00133 1.79767e-17
5873.99816 1.79337e-17
5876.00508 1.78722e-17
5878.00191 1.79156e-17
5879.99874 1.80207e-17
5881.99557 1.80278e-17
5884.00248 1.78737e-17
5885.99932 1.76542e-17
5887.99614 1.76092e-17
5890.00306 1.76492e-17
5891.99989 1.76466e-17
5893.99672 1.76428e-17
5896.00364 1.77461e-17
5898.00047 1.79364e-17
5899.99730 1.80215e-17
5902.00421 1.79830e-17
5904.00104 1.78859e-17
5905.99787 1.78328e-17
5908.00479 1.79895e-17
5910.00161 1.82992e-17
5911.99845 1.85049e-17
5913.99527 1.84759e-17
5916.00219 1.82938e-17
5917.99902 1.81591e-17
5919.99585 1.81295e-17
5922.00277 1.81510e-17
5923.99959 1.81557e-17
5925.99643 1.82380e-17
5928.00334 1.82872e-17
5930.00017 1.81568e-17
5931.99700 1.79671e-17
5934.00391 1.78094e-17
5936.00075 1.77641e-17
5937.99757 1.79498e-17
5940.00449 1.79561e-17
5942.00132 1.76148e-17
5943.99815 1.75992e-17
5946.00507 1.78161e-17
5948.00189 1.79596e-17
5949.99873 1.79643e-17
5951.99555 1.78440e-17
5954.00247 1.76506e-17
5955.99930 1.74354e-17
5957.99613 1.72924e-17
5960.00305 1.72450e-17
5961.99987 1.72257e-17
5963.99670 1.72122e-17
5966.00362 1.71815e-17
5968.00045 1.71107e-17
5969.99728 1.69991e-17
5972.00419 1.69559e-17
5974.00102 1.70892e-17
5975.99785 1.72005e-17
5978.00477 1.71455e-17
5980.00160 1.69260e-17
5981.99843 1.66908e-17
5983.99526 1.65325e-17
5986.00217 1.64851e-17
5987.99900 1.65887e-17
5989.99583 1.67419e-17
5992.00275 1.67974e-17
5993.99958 1.66981e-17
5995.99641 1.64560e-17
5998.00332 1.61736e-17
6000.00015 1.60330e-17
6001.99698 1.60099e-17
6004.00390 1.60421e-17
6006.00073 1.61561e-17
6007.99756 1.61710e-17
6010.00447 1.60548e-17
6012.00130 1.60437e-17
6013.99813 1.59492e-17
6015.99496 1.57531e-17
6018.00188 1.57444e-17
6019.99871 1.57995e-17
6021.99554 1.57641e-17
6024.00245 1.56230e-17
6025.99928 1.55560e-17
6027.99611 1.56675e-17
6030.00303 1.58783e-17
6031.99986 1.58589e-17
6033.99669 1.57171e-17
6036.00360 1.57763e-17
6038.00043 1.57946e-17
6039.99726 1.57121e-17
6042.00418 1.56480e-17
6044.00101 1.57113e-17
6045.99784 1.56697e-17
6048.00475 1.53653e-17
6050.00158 1.52557e-17
6051.99841 1.53868e-17
6053.99525 1.55447e-17
6056.00216 1.55325e-17
6057.99899 1.54758e-17
6059.99582 1.55047e-17
6062.00273 1.54963e-17
6063.99957 1.54093e-17
6065.99639 1.52924e-17
6068.00331 1.52618e-17
6070.00014 1.53950e-17
6071.99697 1.55974e-17
6074.00389 1.56303e-17
6076.00072 1.55295e-17
6077.99755 1.54122e-17
6080.00446 1.53693e-17
6082.00129 1.54150e-17
6083.99812 1.54700e-17
6086.00504 1.54162e-17
6088.00186 1.52023e-17
6089.99870 1.50751e-17
6091.99552 1.52846e-17
6094.00244 1.53457e-17
6095.99927 1.51681e-17
6097.99610 1.50247e-17
6100.00302 1.51313e-17
6101.99984 1.53008e-17
6103.99668 1.52746e-17
6106.00359 1.52375e-17
6108.00042 1.52099e-17
6109.99725 1.51043e-17
6112.00416 1.48514e-17
6114.00100 1.46920e-17
6115.99782 1.47772e-17
6118.00474 1.48562e-17
6120.00157 1.47976e-17
6121.99840 1.46758e-17
6123.99523 1.47425e-17
6126.00214 1.48940e-17
6127.99898 1.49562e-17
6129.99580 1.48756e-17
6132.00272 1.47972e-17
6133.99955 1.47903e-17
6135.99638 1.47745e-17
6138.00330 1.47512e-17
6140.00012 1.47676e-17
6141.99695 1.48511e-17
6144.00387 1.48356e-17
6146.00070 1.46812e-17
6147.99753 1.45220e-17
6150.00444 1.45994e-17
6152.00127 1.47569e-17
6153.99810 1.46936e-17
6156.00502 1.45923e-17
6158.00185 1.45828e-17
6159.99868 1.46487e-17
6161.99551 1.46201e-17
6164.00242 1.44718e-17
6165.99925 1.43176e-17
6167.99608 1.43362e-17
6170.00300 1.45470e-17
6171.99983 1.47626e-17
6173.99666 1.46362e-17
6176.00357 1.44517e-17
6178.00040 1.44527e-17
6179.99723 1.43979e-17
6182.00415 1.43171e-17
6184.00098 1.43310e-17
6185.99781 1.45001e-17
6188.00472 1.45454e-17
6190.00155 1.44047e-17
6191.99838 1.43530e-17
6193.99521 1.43752e-17
6196.00213 1.43804e-17
6197.99896 1.43206e-17
6199.99579 1.43468e-17
6202.00270 1.44316e-17
6203.99953 1.44052e-17
6205.99636 1.43044e-17
6208.00328 1.42066e-17
6210.00011 1.41762e-17
6211.99694 1.42374e-17
6214.00385 1.42822e-17
6216.00068 1.42274e-17
6217.99752 1.42668e-17
6220.00443 1.42989e-17
6222.00126 1.42167e-17
6223.99809 1.43091e-17
6226.00500 1.43932e-17
6228.00184 1.42670e-17
6229.99866 1.41661e-17
6231.99550 1.41653e-17
6234.00241 1.42448e-17
6235.99924 1.43555e-17
6237.99607 1.42795e-17
6240.00298 1.40301e-17
6241.99982 1.39763e-17
6243.99664 1.41128e-17
6246.00356 1.43057e-17
6248.00039 1.44360e-17
6249.99722 1.44188e-17
6252.00414 1.43170e-17
6254.00096 1.42958e-17
6255.99780 1.43683e-17
6258.00471 1.44020e-17
6260.00154 1.42532e-17
6261.99837 1.40812e-17
6264.00529 1.40558e-17
6266.00211 1.41886e-17
6267.99894 1.41534e-17
6269.99577 1.39020e-17
6272.00269 1.36728e-17
6273.99952 1.38146e-17
6275.99635 1.40913e-17
6278.00327 1.41271e-17
6280.00009 1.40825e-17
6281.99692 1.40687e-17
6284.00384 1.41268e-17
6286.00067 1.42456e-17
6287.99750 1.44672e-17
6290.00441 1.47093e-17
6292.00125 1.46870e-17
6293.99807 1.46241e-17
6296.00499 1.47043e-17
6298.00182 1.47574e-17
6299.99865 1.48202e-17
6301.99548 1.48705e-17
6304.00239 1.47788e-17
6305.99923 1.47646e-17
6307.99605 1.48431e-17
6310.00297 1.47758e-17
6311.99980 1.47394e-17
6313.99663 1.48762e-17
6316.00355 1.51388e-17
6318.00037 1.52523e-17
6319.99720 1.51931e-17
6322.00412 1.51653e-17
6324.00095 1.52803e-17
6325.99778 1.54396e-17
6328.00469 1.54513e-17
6330.00152 1.52659e-17
6331.99835 1.50787e-17
6333.99518 1.51359e-17
6336.00210 1.54624e-17
6337.99893 1.57531e-17
6339.99576 1.57461e-17
6342.00267 1.56117e-17
6343.99950 1.55443e-17
6345.99633 1.56010e-17
6348.00325 1.56178e-17
6350.00008 1.56446e-17
6351.99691 1.57433e-17
6354.00382 1.58560e-17
6356.00065 1.60529e-17
6357.99748 1.62175e-17
6360.00440 1.60420e-17
6362.00123 1.59442e-17
6363.99806 1.61561e-17
6366.00497 1.64252e-17
6368.00180 1.64594e-17
6369.99863 1.63123e-17
6371.99546 1.63112e-17
6374.00238 1.64150e-17
6375.99921 1.64491e-17
6377.99604 1.62826e-17
6380.00295 1.60757e-17
6381.99978 1.60007e-17
6383.99661 1.61199e-17
6386.00353 1.62964e-17
6388.00036 1.64550e-17
6389.99719 1.65725e-17
6392.00410 1.66076e-17
6394.00093 1.64202e-17
6395.99777 1.60985e-17
6398.00468 1.62723e-17
6400.00151 1.66080e-17
6401.99834 1.66516e-17
6403.99517 1.66555e-17
6406.00209 1.65934e-17
6407.99891 1.65046e-17
6409.99575 1.66721e-17
6412.00266 1.70064e-17
6413.99949 1.72203e-17
6415.99632 1.70486e-17
6418.00323 1.67639e-17
6420.00007 1.66180e-17
6421.99689 1.65956e-17
6424.00381 1.65924e-17
6426.00064 1.66374e-17
6427.99747 1.68471e-17
6430.00439 1.69673e-17
6432.00121 1.68784e-17
6433.99805 1.66914e-17
6436.00496 1.66264e-17
6438.00179 1.66840e-17
6439.99862 1.67147e-17
6441.99545 1.67107e-17
6444.00236 1.67165e-17
6445.99919 1.67617e-17
6447.99602 1.67749e-17
6450.00294 1.67405e-17
6451.99977 1.67126e-17
6453.99660 1.68035e-17
6456.00351 1.67843e-17
6458.00034 1.65136e-17
6459.99717 1.63296e-17
6462.00409 1.63422e-17
6464.00092 1.64978e-17
6465.99775 1.66727e-17
6468.00466 1.67728e-17
6470.00149 1.67581e-17
6471.99832 1.66534e-17
6474.00524 1.65520e-17
6476.00207 1.65328e-17
6477.99890 1.65941e-17
6479.99573 1.65407e-17
6482.00264 1.63534e-17
6483.99947 1.62320e-17
6485.99630 1.62386e-17
6488.00322 1.62864e-17
6490.00005 1.62341e-17
6491.99688 1.61383e-17
6494.00380 1.60969e-17
6496.00062 1.61628e-17
6497.99745 1.62551e-17
6500.00437 1.63070e-17
6502.00120 1.63139e-17
6503.99803 1.63635e-17
6506.00494 1.63400e-17
6508.00177 1.61231e-17
6509.99860 1.58692e-17
6511.99543 1.58348e-17
6514.00235 1.60289e-17
6515.99918 1.59527e-17
6517.99601 1.56870e-17
6520.00292 1.55668e-17
6521.99975 1.58004e-17
6523.99658 1.59758e-17
6526.00350 1.58577e-17
6528.00033 1.58094e-17
6529.99716 1.57688e-17
6532.00407 1.56759e-17
6534.00090 1.56363e-17
6535.99773 1.56172e-17
6538.00465 1.55623e-17
6540.00148 1.54555e-17
6541.99831 1.54005e-17
6543.99514 1.53960e-17
6546.00205 1.53414e-17
6547.99888 1.52580e-17
6549.99572 1.52248e-17
6552.00263 1.52772e-17
6553.99946 1.52262e-17
6555.99629 1.50052e-17
6558.00320 1.47091e-17
6560.00004 1.45347e-17
6561.99686 1.44677e-17
6564.00378 1.43835e-17
6566.00061 1.42384e-17
6567.99744 1.44084e-17
6570.00436 1.49794e-17
6572.00118 1.50586e-17
6573.99802 1.48758e-17
6576.00493 1.48994e-17
6578.00176 1.49810e-17
6579.99859 1.50036e-17
6581.99542 1.49423e-17
6584.00234 1.48852e-17
6585.99916 1.48350e-17
6587.99600 1.47154e-17
6590.00291 1.46633e-17
6591.99974 1.46111e-17
6593.99657 1.45590e-17
6596.00348 1.45068e-17
6598.00032 1.44547e-17
6599.99714 1.44025e-17
6602.00406 1.43504e-17
6604.00089 1.42983e-17
6605.99772 1.42461e-17
6608.00464 1.41940e-17
6610.00146 1.41419e-17
6611.99830 1.40898e-17
6613.99512 1.40377e-17
6616.00204 1.39856e-17
6617.99887 1.39335e-17
6619.99570 1.38814e-17
6622.00261 1.38293e-17
6623.99944 1.37772e-17
6625.99627 1.37252e-17
6628.00319 1.36731e-17
6630.00002 1.36210e-17
6631.99685 1.35690e-17
6634.00376 1.35169e-17
6636.00059 1.34649e-17
6637.99742 1.34128e-17
6640.00434 1.33608e-17
6642.00117 1.33087e-17
6643.99800 1.32567e-17
6646.00491 1.32047e-17
6648.00174 1.31526e-17
6649.99857 1.31006e-17
6651.99540 1.31904e-17
6654.00232 1.31777e-17
6655.99915 1.30684e-17
6657.99598 1.31658e-17
6660.00289 1.32750e-17
6661.99972 1.32308e-17
6663.99655 1.30479e-17
6666.00347 1.29109e-17
6668.00030 1.29065e-17
6669.99713 1.29506e-17
6672.00404 1.27661e-17
6674.00087 1.25813e-17
6675.99770 1.27251e-17
6678.00462 1.28493e-17
6680.00145 1.28915e-17
6681.99828 1.29051e-17
6684.00519 1.27313e-17
6686.00202 1.25420e-17
6687.99885 1.25172e-17
6689.99568 1.25209e-17
6692.00260 1.24166e-17
6693.99943 1.22225e-17
6695.99626 1.21677e-17
6698.00317 1.22018e-17
6700.00000 1.21907e-17
6701.99683 1.20765e-17
6704.00375 1.19982e-17
6706.00058 1.20586e-17
6707.99741 1.21992e-17
6710.00432 1.21918e-17
6712.00115 1.20327e-17
6713.99798 1.19437e-17
6716.00490 1.17743e-17
6718.00173 1.15858e-17
6719.99856 1.15992e-17
6721.99539 1.15995e-17
6724.00230 1.15430e-17
6725.99914 1.15433e-17
6727.99597 1.15484e-17
6730.00288 1.15452e-17
6731.99971 1.15432e-17
6733.99654 1.15046e-17
6736.00345 1.14140e-17
6738.00029 1.13010e-17
6739.99711 1.12485e-17
6742.00403 1.12693e-17
6744.00086 1.13071e-17
6745.99769 1.12664e-17
6748.00461 1.11357e-17
6750.00143 1.09923e-17
6751.99827 1.09660e-17
6754.00518 1.10193e-17
6756.00201 1.10397e-17
6757.99884 1.09425e-17
6759.99567 1.08775e-17
6762.00259 1.09320e-17
6763.99941 1.10079e-17
6765.99625 1.10446e-17
6768.00316 1.10434e-17
6769.99999 1.10547e-17
6771.99682 1.10960e-17
6774.00373 1.10538e-17
6776.00057 1.08000e-17
6777.99739 1.06000e-17
6780.00431 1.05848e-17
6782.00114 1.06728e-17
6783.99797 1.07053e-17
6786.00489 1.06870e-17
6788.00171 1.06838e-17
6789.99855 1.05547e-17
6791.99537 1.03034e-17
6794.00229 1.00771e-17
6795.99912 1.00907e-17
6797.99595 1.02228e-17
6800.00286 1.02817e-17
6801.99969 1.03373e-17
6803.99652 1.02794e-17
6806.00344 1.00776e-17
6808.00027 9.97445e-18
6809.99710 9.99238e-18
6812.00401 1.00209e-17
6814.00084 9.93177e-18
6815.99767 9.83148e-18
6818.00459 9.82081e-18
6820.00142 9.86217e-18
6821.99825 9.88188e-18
6823.99508 9.79717e-18
6826.00199 9.58839e-18
6827.99882 9.51258e-18
6829.99565 9.67146e-18
6832.00257 9.90084e-18
6833.99940 9.86417e-18
6835.99623 9.77987e-18
6838.00314 1.00955e-17
6839.99997 1.02447e-17
6841.99680 1.01278e-17
6844.00372 1.00153e-17
6846.00055 1.00220e-17
6847.99738 1.00286e-17
6850.00429 1.00352e-17
6852.00112 1.00418e-17
6853.99795 1.00485e-17
6856.00487 1.00551e-17
6858.00170 1.00617e-17
6859.99853 1.00683e-17
6861.99536 1.00749e-17
6864.00227 1.00816e-17
6865.99910 1.00882e-17
6867.99593 1.00948e-17
6870.00285 1.01014e-17
6871.99968 1.01080e-17
6873.99651 1.01146e-17
6876.00342 1.01213e-17
6878.00025 1.01279e-17
6879.99708 1.01345e-17
6882.00400 1.01411e-17
6884.00083 1.01477e-17
6885.99766 1.01543e-17
6888.00457 1.01609e-17
6890.00140 1.01676e-17
6891.99823 1.01742e-17
6894.00515 1.01808e-17
6896.00198 1.01874e-17
6897.99881 1.01940e-17
6899.99564 1.02006e-17
6902.00256 1.02072e-17
6903.99939 1.02138e-17
6905.99621 1.02204e-17
6908.00313 1.02270e-17
6909.99996 1.02336e-17
6911.99679 1.02402e-17
6914.00370 1.02468e-17
6916.00054 1.02534e-17
6917.99736 1.02600e-17
6920.00428 1.02666e-17
6922.00111 1.02732e-17
6923.99794 1.02798e-17
6926.00486 1.02864e-17
6928.00168 1.02930e-17
6929.99852 1.02996e-17
6931.99534 1.03062e-17
6934.00226 1.03128e-17
6935.99909 1.03194e-17
6937.99592 1.03488e-17
6940.00284 1.04464e-17
6941.99966 1.06422e-17
6943.99650 1.07922e-17
6946.00341 1.07378e-17
6948.00024 1.06410e-17
6949.99707 1.07711e-17
6952.00398 1.08818e-17
6954.00082 1.08369e-17
6955.99764 1.07258e-17
6958.00456 1.06970e-17
6960.00139 1.07601e-17
6961.99822 1.08371e-17
6964.00514 1.08360e-17
6966.00196 1.07538e-17
6967.99880 1.06498e-17
6969.99562 1.06175e-17
6972.00254 1.06978e-17
6973.99937 1.08346e-17
6975.99620 1.08791e-17
6978.00311 1.07839e-17
6979.99994 1.06426e-17
6981.99677 1.06613e-17
6984.00369 1.07516e-17
6986.00052 1.08017e-17
6987.99735 1.08471e-17
6990.00426 1.07798e-17
6992.00109 1.06707e-17
6993.99792 1.07988e-17
6996.00484 1.09739e-17
6998.00167 1.10329e-17
6999.99850 1.10079e-17
7001.99533 1.09089e-17
7004.00224 1.08166e-17
7005.99907 1.08292e-17
7007.99590 1.08759e-17
7010.00282 1.08792e-17
7011.99965 1.08193e-17
7013.99648 1.07685e-17
7016.00339 1.07733e-17
7018.00022 1.08428e-17
7019.99705 1.09835e-17
7022.00397 1.11150e-17
7024.00080 1.11577e-17
7025.99763 1.11587e-17
7028.00454 1.11390e-17
7030.00137 1.11074e-17
7031.99820 1.10893e-17
7033.99503 1.10171e-17
7036.00195 1.08937e-17
7037.99878 1.09034e-17
7039.99561 1.09280e-17
7042.00252 1.09009e-17
7043.99935 1.10072e-17
7045.99618 1.12120e-17
7048.00310 1.13623e-17
7049.99993 1.13072e-17
7051.99676 1.11555e-17
7054.00367 1.10841e-17
7056.00050 1.11890e-17
7057.99734 1.13119e-17
7060.00425 1.13281e-17
7062.00108 1.12497e-17
7063.99791 1.12000e-17
7066.00482 1.11546e-17
7068.00166 1.10223e-17
7069.99848 1.10320e-17
7072.00540 1.11029e-17
7074.00223 1.10495e-17
7075.99906 1.11975e-17
7077.99589 1.14328e-17
7080.00280 1.14658e-17
7081.99964 1.14072e-17
7083.99646 1.13793e-17
7086.00338 1.14504e-17
7088.00021 1.16042e-17
7089.99704 1.16396e-17
7092.00395 1.14780e-17
7094.00078 1.13997e-17
7095.99761 1.14360e-17
7098.00453 1.14632e-17
7100.00136 1.13408e-17
7101.99819 1.13009e-17
7103.99502 1.14583e-17
7106.00193 1.15832e-17
7107.99876 1.15676e-17
7109.99559 1.14761e-17
7112.00251 1.14815e-17
7113.99934 1.14646e-17
7115.99617 1.13940e-17
7118.00309 1.13731e-17
7119.99991 1.13073e-17
7121.99674 1.11949e-17
7124.00366 1.11430e-17
7126.00049 1.12173e-17
7127.99732 1.13533e-17
7130.00423 1.14190e-17
7132.00107 1.13704e-17
7133.99789 1.13050e-17
7136.00481 1.13470e-17
7138.00164 1.14634e-17
7139.99847 1.15408e-17
7141.99530 1.14949e-17
7144.00221 1.13878e-17
7145.99905 1.12743e-17
7147.99587 1.11955e-17
7150.00279 1.11808e-17
7151.99962 1.12278e-17
7153.99645 1.12539e-17
7156.00336 1.11040e-17
7158.00019 1.09624e-17
7159.99702 1.09817e-17
7162.00394 1.10669e-17
7164.00077 1.11132e-17
7165.99760 1.10601e-17
7168.00451 1.09230e-17
7170.00134 1.07543e-17
7171.99817 1.06202e-17
7174.00509 1.05519e-17
7176.00192 1.04154e-17
7177.99875 1.02400e-17
7179.99558 1.01891e-17
7182.00249 1.02212e-17
7183.99932 1.01861e-17
7185.99615 1.00171e-17
7188.00307 1.00824e-17
7189.99990 1.03435e-17
7191.99673 1.04999e-17
7194.00364 1.04691e-17
7196.00047 1.04387e-17
7197.99730 1.05679e-17
7200.00422 1.06006e-17
7202.00105 1.05505e-17
7203.99788 1.05420e-17
7206.00479 1.05808e-17
7208.00162 1.06568e-17
7209.99845 1.07340e-17
7211.99528 1.07562e-17
7214.00220 1.07167e-17
7215.99903 1.06547e-17
7217.99586 1.06388e-17
7220.00277 1.07313e-17
7221.99960 1.09042e-17
7223.99643 1.10285e-17
7226.00335 1.09903e-17
7228.00018 1.08308e-17
7229.99701 1.07244e-17
7232.00392 1.07003e-17
7234.00075 1.06542e-17
7235.99759 1.04684e-17
7238.00450 1.03321e-17
7240.00133 1.03387e-17
7241.99816 1.04341e-17
7244.00507 1.05593e-17
7246.00191 1.05871e-17
7247.99873 1.04659e-17
7249.99557 1.04558e-17
7252.00248 1.06382e-17
7253.99931 1.08969e-17
7255.99614 1.10140e-17
7258.00305 1.10022e-17
7259.99989 1.09845e-17
7261.99671 1.10078e-17
7264.00363 1.10206e-17
7266.00046 1.09787e-17
7267.99729 1.09333e-17
7270.00420 1.08413e-17
7272.00103 1.06775e-17
7273.99786 1.05117e-17
7276.00478 1.05317e-17
7278.00161 1.07454e-17
7279.99844 1.08995e-17
7281.99527 1.09461e-17
7284.00218 1.09406e-17
7285.99901 1.09574e-17
7287.99584 1.09340e-17
7290.00276 1.08568e-17
7291.99959 1.07991e-17
7293.99642 1.08473e-17
7296.00333 1.09182e-17
7298.00016 1.08443e-17
7299.99699 1.06770e-17
7302.00391 1.05595e-17
7304.00074 1.06076e-17
7305.99757 1.07540e-17
7308.00448 1.09122e-17
7310.00132 1.09952e-17
7311.99814 1.08924e-17
7313.99497 1.08089e-17
7316.00189 1.09236e-17
7317.99872 1.09808e-17
7319.99555 1.09686e-17
7322.00246 1.09361e-17
7323.99930 1.08000e-17
7325.99612 1.07189e-17
7328.00304 1.07842e-17
7329.99987 1.08211e-17
7331.99670 1.07274e-17
7334.00361 1.05420e-17
7336.00044 1.04366e-17
7337.99727 1.04710e-17
7340.00419 1.05965e-17
7342.00102 1.06947e-17
7343.99785 1.07034e-17
7346.00476 1.06607e-17
7348.00159 1.06666e-17
7349.99842 1.07356e-17
7351.99525 1.07424e-17
7354.00217 1.05559e-17
7355.99900 1.04095e-17
7357.99583 1.03242e-17
7360.00274 1.01702e-17
7361.99957 1.00364e-17
7363.99640 1.00285e-17
7366.00332 1.01501e-17
7368.00015 1.01741e-17
7369.99698 1.01253e-17
7372.00389 1.01097e-17
7374.00072 1.00343e-17
7375.99755 9.91750e-18
7378.00447 9.85623e-18
7380.00130 9.95589e-18
7381.99813 1.00824e-17
7384.00504 1.00869e-17
7386.00187 9.99247e-18
7387.99870 9.90990e-18
7389.99554 9.87129e-18
7392.00245 9.76257e-18
7393.99928 9.60377e-18
7395.99611 9.45915e-18
7398.00302 9.37996e-18
7399.99986 9.37727e-18
7401.99668 9.41001e-18
7404.00360 9.41293e-18
7406.00043 9.39012e-18
7407.99726 9.36884e-18
7410.00418 9.36961e-18
7412.00100 9.37386e-18
7413.99784 9.35322e-18
7416.00475 9.29701e-18
7418.00158 9.24816e-18
7419.99841 9.23143e-18
7421.99524 9.23176e-18
7424.00216 9.18715e-18
7425.99898 9.07530e-18
7427.99582 8.91001e-18
7430.00273 8.71463e-18
7431.99956 8.56929e-18
7433.99639 8.54592e-18
7436.00330 8.63954e-18
7438.00014 8.75318e-18
7439.99696 8.79668e-18
7442.00388 8.76974e-18
7444.00071 8.72732e-18
7445.99754 8.69070e-18
7448.00445 8.61160e-18
7450.00128 8.61791e-18
7451.99811 8.69457e-18
7454.00503 8.60506e-18
7456.00186 8.32282e-18
7457.99869 8.01070e-18
7459.99552 7.90285e-18
7462.00243 7.92738e-18
7463.99926 7.98938e-18
7465.99609 8.04957e-18
7468.00301 8.04612e-18
7469.99984 7.99356e-18
7471.99667 7.96295e-18
7474.00358 7.99607e-18
7476.00041 8.05464e-18
7477.99724 8.06692e-18
7480.00416 8.02803e-18
7482.00099 7.94481e-18
7483.99782 7.84510e-18
7486.00473 7.79527e-18
7488.00156 7.76359e-18
7489.99839 7.67627e-18
7491.99522 7.50068e-18
7494.00214 7.31319e-18
7495.99897 7.20274e-18
7497.99580 7.17707e-18
7500.00271 7.16287e-18
7501.99954 7.11430e-18
7503.99637 7.07996e-18
7506.00329 7.12340e-18
7508.00012 7.25552e-18
7509.99695 7.42321e-18
7512.00386 7.53467e-18
7514.00069 7.56155e-18
7515.99752 7.61350e-18
7518.00444 7.56897e-18
7520.00127 7.43338e-18
7521.99810 7.37190e-18
7523.99493 7.35678e-18
7526.00184 7.36655e-18
7527.99867 7.39759e-18
7529.99550 7.39755e-18
7532.00242 7.32989e-18
7533.99925 7.20649e-18
7535.99608 7.17896e-18
7538.00299 7.29026e-18
7539.99982 7.46133e-18
7541.99665 7.48640e-18
7544.00357 7.37490e-18
7546.00040 7.32662e-18
7547.99723 7.39465e-18
7550.00414 7.52754e-18
7552.00097 7.52651e-18
7553.99780 7.52547e-18
7556.00472 7.52444e-18
7558.00155 7.52341e-18
7559.99838 7.52237e-18
7562.00529 7.52134e-18
7564.00212 7.52031e-18
7565.99895 7.51927e-18
7567.99579 7.51824e-18
7570.00270 7.51721e-18
7571.99953 7.51617e-18
7573.99636 7.51514e-18
7576.00327 7.51411e-18
7578.00011 7.51307e-18
7579.99693 7.51204e-18
7582.00385 7.51101e-18
7584.00068 7.50997e-18
7585.99751 7.50894e-18
7588.00443 7.50790e-18
7590.00125 7.50687e-18
7591.99809 7.50584e-18
7594.00500 7.50480e-18
7596.00183 7.50377e-18
7597.99866 7.50274e-18
7599.99549 7.50170e-18
7602.00241 7.50067e-18
7603.99923 7.49964e-18
7605.99607 7.49860e-18
7608.00298 7.49757e-18
7609.99981 7.49654e-18
7611.99664 7.49550e-18
7614.00355 7.49447e-18
7616.00039 7.49344e-18
7617.99721 7.49240e-18
7620.00413 7.49137e-18
7622.00096 7.49034e-18
7623.99779 7.48930e-18
7626.00470 7.48827e-18
7628.00153 7.48723e-18
7629.99836 7.48620e-18
7631.99519 7.48517e-18
7634.00211 7.48413e-18
7635.99894 7.48310e-18
7637.99577 7.48207e-18
7640.00268 7.48103e-18
7641.99951 7.48000e-18
7643.99634 7.47897e-18
7646.00326 7.47793e-18
7648.00009 7.47690e-18
7649.99692 7.47587e-18
7652.00383 7.47483e-18
7654.00066 7.47380e-18
7655.99749 7.47277e-18
7658.00441 7.47173e-18
7660.00124 7.47070e-18
7661.99807 7.46967e-18
7664.00498 7.46863e-18
7666.00181 7.46760e-18
7667.99864 7.46657e-18
7669.99547 7.46553e-18
7672.00239 7.46450e-18
7673.99922 7.46347e-18
7675.99605 7.46244e-18
7678.00296 7.46140e-18
7679.99979 7.46037e-18
7681.99662 7.36974e-18
7684.00354 7.17767e-18
7686.00037 7.02882e-18
7687.99720 7.02573e-18
7690.00411 7.11173e-18
7692.00094 7.00936e-18
7693.99777 6.70495e-18
7696.00469 6.56665e-18
7698.00152 6.71226e-18
7699.99835 6.93523e-18
7701.99518 6.93750e-18
7704.00209 6.94887e-18
7705.99892 7.10923e-18
7707.99575 7.26465e-18
7710.00267 7.27622e-18
7711.99950 7.12769e-18
7713.99633 6.88374e-18
7716.00324 6.69260e-18
7718.00007 6.59568e-18
7719.99690 6.55728e-18
7722.00382 6.52530e-18
7724.00065 6.52315e-18
7725.99748 6.56211e-18
7728.00439 6.56753e-18
7730.00122 6.50443e-18
7731.99805 6.41900e-18
7734.00497 6.42974e-18
7736.00180 6.50864e-18
7737.99863 6.53001e-18
7739.99546 6.37165e-18
7742.00238 6.28419e-18
7743.99920 6.36970e-18
7745.99604 6.42179e-18
7748.00295 6.25369e-18
7749.99978 5.96102e-18
7751.99661 5.84036e-18
7754.00352 5.84890e-18
7756.00036 5.83968e-18
7757.99718 5.72354e-18
7760.00410 5.69331e-18
7762.00093 5.79261e-18
7763.99776 5.90518e-18
7766.00468 5.91315e-18
7768.00150 5.86394e-18
7769.99834 5.83717e-18
7772.00525 5.69649e-18
7774.00208 5.61936e-18
7775.99891 5.74064e-18
7777.99574 5.71134e-18
7780.00266 5.56190e-18
7781.99948 5.48529e-18
7783.99632 5.55764e-18
7786.00323 5.56296e-18
7788.00006 5.37095e-18
7789.99689 5.18940e-18
7792.00380 5.14542e-18
7794.00064 5.20911e-18
7795.99746 5.21343e-18
7798.00438 5.24534e-18
7800.00121 5.36095e-18
7801.99804 5.46861e-18
7804.00495 5.40988e-18
7806.00178 5.25013e-18
7807.99861 5.23406e-18
7809.99544 5.26046e-18
7812.00236 5.27627e-18
7813.99919 5.32623e-18
7815.99602 5.39998e-18
7818.00293 5.38133e-18
7819.99976 5.19281e-18
7821.99659 5.09377e-18
7824.00351 5.18313e-18
7826.00034 5.35476e-18
7827.99717 5.38032e-18
7830.00408 5.27448e-18
7832.00091 5.19171e-18
7833.99774 5.22054e-18
7836.00466 5.29322e-18
7838.00149 5.31774e-18
7839.99832 5.32080e-18
7841.99515 5.23469e-18
7844.00206 5.07157e-18
7845.99889 5.01879e-18
7847.99572 4.94781e-18
7850.00264 4.79588e-18
7851.99947 4.75212e-18
7853.99630 4.78968e-18
7856.00321 4.83803e-18
7858.00004 4.87496e-18
7859.99687 4.93862e-18
7862.00379 5.02472e-18
7864.00062 5.08001e-18
7865.99745 5.14150e-18
7868.00436 5.23021e-18
7870.00119 5.31322e-18
7871.99802 5.27851e-18
7874.00494 5.17105e-18
7876.00177 5.11826e-18
7877.99860 5.05093e-18
7879.99543 4.95610e-18
7882.00234 4.87519e-18
7883.99917 4.83103e-18
7885.99600 4.78560e-18
7888.00292 4.71851e-18
7889.99975 4.73365e-18
7891.99658 4.77217e-18
7894.00349 4.74463e-18
7896.00032 4.69152e-18
7897.99716 4.72883e-18
7900.00407 4.89981e-18
7902.00090 5.07164e-18
7903.99773 5.12924e-18
7906.00464 5.04136e-18
7908.00148 4.88533e-18
7909.99830 4.71632e-18
7911.99514 4.61538e-18
7914.00205 4.66062e-18
7915.99888 4.64498e-18
7917.99571 4.47282e-18
7920.00262 4.28559e-18
7921.99945 4.28889e-18
7923.99628 4.41987e-18
7926.00320 4.41939e-18
7928.00003 4.37651e-18
7929.99686 4.39207e-18
7932.00377 4.48451e-18
7934.00061 4.57421e-18
7935.99743 4.63864e-18
7938.00435 4.69637e-18
7940.00118 4.71906e-18
7941.99801 4.66459e-18
7944.00493 4.52550e-18
7946.00175 4.38503e-18
7947.99859 4.26626e-18
7949.99541 4.15395e-18
7952.00233 4.04112e-18
7953.99916 3.98176e-18
7955.99599 4.03784e-18
7958.00291 4.21935e-18
7959.99973 4.35298e-18
7961.99657 4.33504e-18
7964.00348 4.28685e-18
7966.00031 4.28204e-18
7967.99714 4.35372e-18
7970.00405 4.48594e-18
7972.00089 4.54469e-18
7973.99771 4.46629e-18
7976.00463 4.32642e-18
7978.00146 4.27180e-18
7979.99829 4.27404e-18
7982.00520 4.17056e-18
7984.00203 4.08528e-18
7985.99886 4.06000e-18
7987.99569 4.02725e-18
7990.00261 3.98661e-18
7991.99944 3.95305e-18
7993.99627 3.95734e-18
7996.00318 4.06817e-18
7998.00001 4.18334e-18
7999.99684 4.19188e-18
8002.00376 4.25159e-18
8004.00059 4.33107e-18
8005.99742 4.32162e-18
8008.00433 4.22618e-18
8010.00116 4.12621e-18
8011.99799 4.07099e-18
8014.00491 3.98569e-18
8016.00174 3.93590e-18
8017.99857 3.94223e-18
8019.99540 3.87134e-18
8022.00231 3.78334e-18
8023.99914 3.76569e-18
8025.99597 3.82442e-18
8028.00289 3.88369e-18
8029.99972 3.91807e-18
8031.99655 3.98594e-18
8034.00346 4.06687e-18
8036.00029 4.13182e-18
8037.99712 4.15974e-18
8040.00404 4.08958e-18
8042.00087 3.97376e-18
8043.99770 3.92999e-18
8046.00461 3.92243e-18
8048.00144 3.85517e-18
8049.99827 3.69517e-18
8052.00519 3.67457e-18
8054.00202 3.75204e-18
8055.99885 3.74042e-18
8057.99568 3.64886e-18
8060.00259 3.58578e-18
8061.99942 3.63224e-18
8063.99625 3.70014e-18
8066.00317 3.77096e-18
8068.00000 3.85233e-18
8069.99683 3.91742e-18
8072.00374 3.88781e-18
8074.00057 3.75423e-18
8075.99741 3.64772e-18
8078.00432 3.60654e-18
8080.00115 3.61686e-18
8081.99798 3.64871e-18
8084.00489 3.69167e-18
8086.00173 3.69530e-18
8087.99855 3.58745e-18
8089.99539 3.51672e-18
8092.00230 3.53905e-18
8093.99913 3.55880e-18
8095.99596 3.61404e-18
8098.00287 3.63601e-18
8099.99970 3.52790e-18
8101.99653 3.59051e-18
8104.00345 3.77299e-18
8106.00028 3.77826e-18
8107.99711 3.65765e-18
8110.00402 3.54571e-18
8112.00085 3.52614e-18
8113.99768 3.48528e-18
8116.00460 3.41402e-18
8118.00143 3.37446e-18
8119.99826 3.39854e-18
8121.99509 3.41675e-18
8124.00200 3.38274e-18
8125.99883 3.40126e-18
8127.99566 3.40103e-18
8130.00258 3.34973e-18
8131.99941 3.41184e-18
8133.99624 3.46746e-18
8136.00316 3.44035e-18
8137.99998 3.47660e-18
8139.99681 3.52069e-18
8142.00373 3.49530e-18
8144.00056 3.40011e-18
8145.99739 3.29900e-18
8148.00430 3.22242e-18
8150.00114 3.14522e-18
8151.99796 3.08526e-18
8154.00488 3.06880e-18
8156.00171 3.10209e-18
8157.99854 3.11442e-18
8159.99537 3.10980e-18
8162.00228 3.15203e-18
8163.99911 3.25287e-18
8165.99594 3.30050e-18
8168.00286 3.20758e-18
8169.99969 3.19230e-18
8171.99652 3.24396e-18
8174.00343 3.24124e-18
8176.00026 3.22653e-18
8177.99709 3.21884e-18
8180.00401 3.21050e-18
8182.00084 3.17996e-18
8183.99767 3.16166e-18
8186.00458 3.17376e-18
8188.00141 3.16025e-18
8189.99824 3.10316e-18
8192.00516 3.05381e-18
8194.00199 3.11862e-18
8195.99882 3.21224e-18
8197.99565 3.25040e-18
8200.00257 3.25498e-18
8201.99939 3.25428e-18
8203.99623 3.28856e-18
8206.00314 3.37880e-18
8207.99997 3.39689e-18
8209.99680 3.33614e-18
8212.00371 3.31195e-18
8214.00055 3.23882e-18
8215.99737 3.12870e-18
8218.00429 3.08343e-18
8220.00112 3.09355e-18
8221.99795 3.10013e-18
8224.00486 3.07707e-18
8226.00169 3.16428e-18
8227.99852 3.32971e-18
8229.99535 3.44464e-18
8232.00227 3.47613e-18
8233.99910 3.46613e-18
8235.99593 3.44617e-18
8238.00284 3.34005e-18
8239.99967 3.26975e-18
8241.99650 3.34729e-18
8244.00342 3.47271e-18
8246.00025 3.46414e-18
8247.99708 3.29315e-18
8250.00399 3.20303e-18
8252.00082 3.23844e-18
8253.99765 3.32236e-18
8256.00457 3.34797e-18
8258.00140 3.37989e-18
8259.99823 3.46638e-18
8262.00515 3.56253e-18
8264.00197 3.61795e-18
8265.99880 3.66352e-18
8267.99563 3.77791e-18
8270.00255 3.85454e-18
8271.99938 3.84226e-18
8273.99621 3.78645e-18
8276.00312 3.75744e-18
8277.99995 3.68887e-18
8279.99678 3.52124e-18
8282.00370 3.58561e-18
8284.00053 3.71741e-18
8285.99736 3.57899e-18
8288.00427 3.37909e-18
8290.00110 3.34538e-18
8291.99793 3.52150e-18
8294.00485 3.61538e-18
8296.00168 3.66123e-18
8297.99851 3.77977e-18
8299.99534 3.88671e-18
8302.00225 3.91718e-18
8303.99908 3.88082e-18
8305.99591 3.88084e-18
8308.00283 3.88873e-18
8309.99966 3.92536e-18
8311.99649 4.11534e-18
8314.00340 4.18679e-18
8316.00023 4.02974e-18
8317.99706 3.88203e-18
8320.00398 3.79163e-18
8322.00081 3.74472e-18
8323.99764 3.71991e-18
8326.00455 3.71644e-18
8328.00138 3.76438e-18
8329.99821 3.90299e-18
8332.00513 4.14209e-18
8334.00196 4.32448e-18
8335.99879 4.29564e-18
8337.99562 4.32681e-18
8340.00253 4.41649e-18
8341.99936 4.41115e-18
8343.99619 4.42705e-18
8346.00311 4.43793e-18
8347.99994 4.37573e-18
8349.99677 4.32181e-18
8352.00368 4.27339e-18
8354.00051 4.21838e-18
8355.99734 4.22617e-18
8358.00426 4.28071e-18
8360.00109 4.34321e-18
8361.99792 4.41267e-18
8363.99475 4.50534e-18
8366.00166 4.61870e-18
8367.99849 4.71801e-18
8370.00541 4.87430e-18
8372.00224 5.02645e-18
8373.99907 4.96503e-18
8375.99590 4.96117e-18
8378.00281 5.07987e-18
8379.99964 5.05605e-18
8381.99647 5.01023e-18
8384.00339 4.97832e-18
8386.00022 4.86167e-18
8387.99705 4.71494e-18
8390.00396 4.65474e-18
8392.00079 4.77683e-18
8393.99762 5.04556e-18
8396.00454 5.27723e-18
8398.00137 5.30714e-18
8399.99820 5.25434e-18
8402.00511 5.33529e-18
8404.00194 5.61134e-18
8405.99878 5.70259e-18
8407.99560 5.72095e-18
8410.00252 5.89788e-18
8411.99935 6.07344e-18
8413.99618 6.09783e-18
8416.00310 5.99345e-18
8417.99992 6.03142e-18
8419.99676 6.16969e-18
8422.00367 6.24426e-18
8424.00050 6.16189e-18
8425.99733 6.09667e-18
8428.00424 6.19486e-18
8430.00108 6.40804e-18
8431.99791 6.61743e-18
8434.00482 6.78210e-18
8436.00165 6.96533e-18
8437.99848 7.11694e-18
8440.00540 7.19481e-18
8442.00223 7.21839e-18
8443.99906 7.31267e-18
8445.99588 7.47707e-18
8448.00280 7.59623e-18
8449.99963 7.62211e-18
8451.99646 7.61087e-18
8454.00338 7.63634e-18
8456.00020 7.59872e-18
8457.99703 7.58282e-18
8460.00395 7.68514e-18
8462.00078 7.68752e-18
8463.99761 7.59524e-18
8466.00452 7.55809e-18
8468.00135 7.69623e-18
8469.99819 7.85428e-18
8471.99502 7.93628e-18
8474.00193 8.19925e-18
8475.99876 8.59540e-18
8477.99559 8.89466e-18
8480.00251 8.86651e-18
8481.99934 8.83155e-18
8483.99616 8.96510e-18
8486.00308 8.97315e-18
8487.99991 8.91213e-18
8489.99674 8.86825e-18
8492.00366 8.82683e-18
8494.00048 8.78635e-18
8495.99731 8.73353e-18
8498.00423 8.66720e-18
8500.00106 8.69635e-18
8501.99789 8.85753e-18
8504.00480 9.07357e-18
8506.00163 9.17885e-18
8507.99847 9.23872e-18
8509.99530 9.46545e-18
8512.00221 9.90310e-18
8513.99904 1.04587e-17
8515.99587 1.09295e-17
8518.00278 1.10501e-17
8519.99962 1.09149e-17
8521.99644 1.08081e-17
8524.00336 1.09029e-17
8526.00019 1.10507e-17
8527.99702 1.10411e-17
8530.00394 1.08948e-17
8532.00076 1.07466e-17
8533.99759 1.07349e-17
8536.00451 1.08959e-17
8538.00134 1.10521e-17
8539.99817 1.10728e-17
8541.99500 1.10390e-17
8544.00191 1.12221e-17
8545.99874 1.15504e-17
8547.99558 1.15771e-17
8550.00249 1.17568e-17
8551.99932 1.21626e-17
8553.99615 1.22943e-17
8556.00306 1.23261e-17
8557.99990 1.23545e-17
8559.99672 1.22999e-17
8562.00364 1.22837e-17
8564.00047 1.22742e-17
8565.99730 1.21468e-17
8568.00422 1.19650e-17
8570.00105 1.18615e-17
8571.99787 1.19210e-17
8574.00479 1.20299e-17
8576.00162 1.21235e-17
8577.99845 1.22012e-17
8579.99528 1.22907e-17
8582.00219 1.24523e-17
8583.99902 1.26571e-17
8585.99585 1.26884e-17
8588.00277 1.28094e-17
8589.99960 1.32276e-17
8591.99643 1.36533e-17
8594.00334 1.38397e-17
8596.00017 1.37402e-17
8597.99701 1.35599e-17
8600.00392 1.34301e-17
8602.00075 1.33425e-17
8603.99758 1.31701e-17
8606.00449 1.29412e-17
8608.00133 1.27265e-17
8609.99815 1.25746e-17
8612.00507 1.24479e-17
8614.00190 1.24053e-17
8615.99873 1.25592e-17
8617.99556 1.27513e-17
8620.00247 1.29694e-17
8621.99930 1.32891e-17
8623.99613 1.34976e-17
8626.00305 1.34849e-17
8627.99988 1.33477e-17
8629.99671 1.34303e-17
8632.00362 1.36866e-17
8634.00045 1.38709e-17
8635.99728 1.39610e-17
8638.00420 1.38640e-17
8640.00103 1.35233e-17
8641.99786 1.30449e-17
8644.00477 1.27374e-17
8646.00160 1.27687e-17
8647.99843 1.28993e-17
8649.99526 1.29427e-17
8652.00218 1.28489e-17
8653.99901 1.27334e-17
8655.99584 1.28295e-17
8658.00275 1.30580e-17
8659.99958 1.29828e-17
8661.99641 1.29901e-17
8664.00333 1.33254e-17
8666.00016 1.37436e-17
8667.99699 1.39697e-17
8670.00390 1.39961e-17
8672.00073 1.40301e-17
8673.99756 1.39169e-17
8676.00448 1.35837e-17
8678.00131 1.31446e-17
8679.99814 1.28759e-17
8682.00505 1.27214e-17
8684.00188 1.24662e-17
8685.99871 1.22873e-17
8687.99554 1.21440e-17
8690.00246 1.19722e-17
8691.99929 1.21005e-17
8693.99612 1.23892e-17
8696.00303 1.25451e-17
8697.99986 1.26100e-17
8699.99669 1.25047e-17
8702.00361 1.22962e-17
8704.00044 1.23983e-17
8705.99727 1.27048e-17
8708.00418 1.29094e-17
8710.00101 1.28342e-17
8711.99784 1.26800e-17
8714.00476 1.26101e-17
8716.00159 1.25118e-17
8717.99842 1.22590e-17
8719.99525 1.18532e-17
8722.00216 1.14673e-17
8723.99899 1.13262e-17
8725.99582 1.14316e-17
8728.00274 1.15498e-17
8729.99957 1.15429e-17
8731.99640 1.13427e-17
8734.00331 1.10082e-17
8736.00014 1.08572e-17
8737.99698 1.10799e-17
8740.00389 1.15840e-17
8742.00072 1.19050e-17
8743.99755 1.19187e-17
8746.00446 1.18351e-17
8748.00130 1.19537e-17
8749.99813 1.21532e-17
8752.00504 1.21388e-17
8754.00187 1.18574e-17
8755.99870 1.15161e-17
8757.99553 1.13284e-17
8760.00245 1.12508e-17
8761.99928 1.12324e-17
8763.99610 1.11491e-17
8766.00302 1.08079e-17
8767.99985 1.06028e-17
8769.99668 1.07497e-17
8772.00360 1.08888e-17
8774.00042 1.09611e-17
8775.99726 1.09930e-17
8778.00417 1.09917e-17
8780.00100 1.09520e-17
8781.99783 1.09189e-17
8784.00474 1.09702e-17
8786.00158 1.10550e-17
8787.99841 1.11553e-17
8790.00532 1.12674e-17
8792.00215 1.12116e-17
8793.99898 1.08662e-17
8795.99581 1.03295e-17
8798.00273 1.01527e-17
8799.99956 1.02327e-17
8801.99638 1.01084e-17
8804.00330 9.81949e-18
8806.00013 9.50454e-18
8807.99696 9.32145e-18
8810.00388 9.38991e-18
8812.00070 9.52849e-18
8813.99753 9.54840e-18
8816.00445 9.57433e-18
8818.00128 9.72172e-18
8819.99811 9.92442e-18
8822.00502 9.86937e-18
8824.00185 9.71546e-18
8825.99869 9.68742e-18
8827.99552 9.77683e-18
8830.00243 9.89339e-18
8831.99926 9.89650e-18
8833.99609 9.67140e-18
8836.00301 9.31234e-18
8837.99984 9.00631e-18
8839.99666 8.89269e-18
8842.00358 8.77234e-18
8844.00041 8.55981e-18
8845.99724 8.37993e-18
8848.00416 8.37164e-18
8850.00098 8.49132e-18
8851.99781 8.56902e-18
8854.00473 8.56522e-18
8856.00156 8.54182e-18
8857.99839 8.55921e-18
8860.00530 8.50017e-18
8862.00213 8.36938e-18
8863.99897 8.31089e-18
8865.99580 8.56420e-18
8868.00271 8.86399e-18
8869.99954 8.84371e-18
8871.99637 8.55688e-18
8874.00328 8.33955e-18
8876.00012 8.37870e-18
8877.99694 8.37458e-18
8880.00386 8.14303e-18
8882.00069 7.72650e-18
8883.99752 7.40689e-18
8886.00444 7.40897e-18
8888.00126 7.71731e-18
8889.99809 8.03915e-18
8892.00501 8.08281e-18
8894.00184 7.85732e-18
8895.99867 7.68139e-18
8897.99550 7.67173e-18
8900.00241 7.72037e-18
8901.99924 7.64591e-18
8903.99608 7.72116e-18
8906.00299 7.96894e-18
8907.99982 8.11114e-18
8909.99665 7.90314e-18
8912.00356 7.54070e-18
8914.00040 7.39386e-18
8915.99722 7.33393e-18
8918.00414 7.23092e-18
8920.00097 7.05651e-18
8921.99780 6.91770e-18
8924.00472 6.82145e-18
8926.00154 6.72946e-18
8927.99837 6.66050e-18
8930.00529 6.59282e-18
8932.00212 6.50421e-18
8933.99895 6.41385e-18
8935.99578 6.30820e-18
8938.00269 6.25053e-18
8939.99952 6.41522e-18
8941.99635 6.63108e-18
8944.00327 6.75377e-18
8946.00010 6.85486e-18
8947.99693 6.77953e-18
8950.00384 6.59848e-18
8952.00067 6.63796e-18
8953.99750 6.64247e-18
8956.00442 6.40511e-18
8958.00125 6.01450e-18
8959.99808 5.85294e-18
8961.99491 5.93449e-18
8964.00183 5.94102e-18
8965.99865 5.87115e-18
8968.00557 5.80313e-18
8970.00240 5.79973e-18
8971.99923 5.81724e-18
8973.99606 5.76682e-18
8976.00297 5.61364e-18
8977.99980 5.49642e-18
8979.99663 5.55018e-18
8982.00355 5.76951e-18
8984.00038 5.89604e-18
8985.99721 5.87611e-18
8988.00412 5.78200e-18
8990.00095 5.67412e-18
8991.99778 5.58076e-18
8994.00470 5.48376e-18
8996.00153 5.33139e-18
8997.99836 5.15205e-18
8998.21100 5.15205e-18
8999.07246 5.05352e-18
8999.93392 4.98764e-18
9000.79538 4.92186e-18
9001.65685 4.91815e-18
9002.51831 4.91462e-18
9003.38979 4.97127e-18
9004.25125 5.02806e-18
9005.11271 5.12530e-18
9005.97417 5.22264e-18
9006.83563 5.32176e-18
9007.69710 5.42088e-18
9008.55856 5.49170e-18
9009.42002 5.56243e-18
9010.28148 5.59095e-18
9011.14295 5.61934e-18
9012.00441 5.60618e-18
9012.87589 5.59290e-18
9013.73735 5.57132e-18
9014.59881 5.54973e-18
9015.46027 5.54441e-18
9016.32173 5.53914e-18
9017.18320 5.53502e-18
9018.04466 5.53091e-18
9018.90612 5.51676e-18
9019.76758 5.50259e-18
9020.62904 5.49139e-18
9021.49051 5.48018e-18
9022.35197 5.48539e-18
9023.22345 5.49063e-18
9024.08491 5.52919e-18
9024.94637 5.56784e-18
9025.80783 5.65329e-18
9026.66930 5.73887e-18
9027.53076 5.85066e-18
9028.39222 5.96254e-18
9029.25368 6.06962e-18
9030.11514 6.17665e-18
9030.97660 6.25744e-18
9031.83807 6.33811e-18
9032.70955 6.37656e-18
9033.57101 6.41490e-18
9034.43247 6.40959e-18
9035.29393 6.40417e-18
9036.15539 6.36327e-18
9037.01686 6.32225e-18
9037.87832 6.26674e-18
9038.73978 6.21117e-18
9039.60124 6.17331e-18
9040.46270 6.13556e-18
9041.32417 6.12400e-18
9042.18563 6.11249e-18
9043.05711 6.10361e-18
9043.91857 6.09466e-18
9044.78003 6.07600e-18
9045.64149 6.05728e-18
9046.50295 6.03629e-18
9047.36442 6.01530e-18
9048.22588 5.99849e-18
9049.08734 5.98168e-18
9049.94880 5.97941e-18
9050.81027 5.97709e-18
9051.67173 5.99211e-18
9052.54321 6.00720e-18
9053.40467 6.00881e-18
9054.26613 6.01030e-18
9055.12759 5.97154e-18
9055.98905 5.93270e-18
9056.85052 5.86795e-18
9057.71198 5.80313e-18
9058.57344 5.73190e-18
9059.43490 5.66066e-18
9060.29636 5.58536e-18
9061.16784 5.51005e-18
9062.02931 5.43165e-18
9062.89077 5.35324e-18
9063.75223 5.26888e-18
9064.61369 5.18451e-18
9065.47515 5.08791e-18
9066.33662 4.99128e-18
9067.19808 4.90704e-18
9068.05954 4.82284e-18
9068.92100 4.79181e-18
9069.78246 4.76092e-18
9070.64393 4.77405e-18
9071.51540 4.78731e-18
9072.37687 4.79889e-18
9073.23833 4.81047e-18
9074.09979 4.80363e-18
9074.96125 4.79674e-18
9075.82271 4.78423e-18
9076.68418 4.77170e-18
9077.54564 4.76152e-18
9078.40710 4.75135e-18
9079.26856 4.74811e-18
9080.13002 4.74489e-18
9080.99149 4.74842e-18
9081.86297 4.75195e-18
9082.72443 4.74638e-18
9083.58589 4.74078e-18
9084.44735 4.71726e-18
9085.30881 4.69370e-18
9086.17028 4.66970e-18
9087.03174 4.64570e-18
9087.89320 4.63467e-18
9088.75466 4.62367e-18
9089.61612 4.60844e-18
9090.48760 4.59319e-18
9091.34906 4.55730e-18
9092.21053 4.52157e-18
9093.07199 4.48201e-18
9093.93345 4.44244e-18
9094.79491 4.41998e-18
9095.65637 4.39757e-18
9096.51784 4.38633e-18
9097.37930 4.37512e-18
9098.24076 4.36270e-18
9099.10222 4.35027e-18
9099.97370 4.33988e-18
9100.83516 4.32949e-18
9101.69663 4.32776e-18
9102.55809 4.32605e-18
9103.41955 4.34569e-18
9104.28101 4.36539e-18
9105.14247 4.42459e-18
9106.00393 4.48391e-18
9106.86540 4.56110e-18
9107.72686 4.63833e-18
9108.58832 4.67818e-18
9109.45980 4.71792e-18
9110.32126 4.69684e-18
9111.18272 4.67559e-18
9112.04419 4.60731e-18
9112.90565 4.53889e-18
9113.76711 4.45162e-18
9114.62857 4.36431e-18
9115.49003 4.31597e-18
9116.35150 4.26773e-18
9117.21296 4.28849e-18
9118.07442 4.30943e-18
9118.93588 4.35461e-18
9119.80736 4.39986e-18
9120.66882 4.42583e-18
9121.53028 4.45176e-18
9122.39175 4.43060e-18
9123.25321 4.40931e-18
9124.11467 4.32423e-18
9124.97613 4.23898e-18
9125.83760 4.12933e-18
9126.69906 4.01963e-18
9127.56052 3.93331e-18
9128.43200 3.84706e-18
9129.29346 3.80881e-18
9130.15492 3.77070e-18
9131.01638 3.79646e-18
9131.87785 3.82240e-18
9132.73931 3.90143e-18
9133.60077 3.98061e-18
9134.46223 4.08862e-18
9135.32369 4.19669e-18
9136.18516 4.30836e-18
9137.04662 4.42005e-18
9137.90808 4.50930e-18
9138.76954 4.59849e-18
9139.64102 4.64852e-18
9140.50248 4.69843e-18
9141.36395 4.70357e-18
9142.22541 4.70858e-18
9143.08687 4.66032e-18
9143.94833 4.61191e-18
9144.80979 4.49801e-18
9145.67125 4.38394e-18
9146.53272 4.21917e-18
9147.39418 4.05426e-18
9148.26566 3.88839e-18
9149.12712 3.72251e-18
9149.98858 3.60070e-18
9150.85004 3.47900e-18
9151.71151 3.43777e-18
9152.57297 3.39677e-18
9153.43443 3.45038e-18
9154.29589 3.50425e-18
9155.15735 3.60585e-18
9156.01882 3.70757e-18
9156.88028 3.80765e-18
9157.75176 3.90771e-18
9158.61322 3.98311e-18
9159.47468 4.05844e-18
9160.33614 4.09129e-18
9161.19760 4.12401e-18
9162.05907 4.11549e-18
9162.92053 4.10685e-18
9163.78199 4.06668e-18
9164.64345 4.02643e-18
9165.50492 3.95327e-18
9166.36638 3.88002e-18
9167.22784 3.77213e-18
9168.09932 3.66416e-18
9168.96078 3.54832e-18
9169.82224 3.43247e-18
9170.68370 3.34491e-18
9171.54517 3.25744e-18
9172.40663 3.21627e-18
9173.26809 3.17522e-18
9174.12955 3.18832e-18
9174.99101 3.20157e-18
9175.85248 3.24667e-18
9176.71394 3.29185e-18
9177.58542 3.31834e-18
9178.44688 3.34477e-18
9179.30834 3.33791e-18
9180.16980 3.33097e-18
9181.03127 3.32398e-18
9181.89273 3.31701e-18
9182.75419 3.32818e-18
9183.61565 3.33941e-18
9184.47711 3.36222e-18
9185.33857 3.38506e-18
9186.20004 3.41164e-18
9187.07152 3.43823e-18
9187.93298 3.44952e-18
9188.79444 3.46076e-18
9189.65590 3.44617e-18
9190.51736 3.43150e-18
9191.37883 3.42050e-18
9192.24029 3.40951e-18
9193.10175 3.42833e-18
9193.96321 3.44722e-18
9194.82467 3.48419e-18
9195.68614 3.52121e-18
9196.55762 3.55969e-18
9197.41908 3.59818e-18
9198.28054 3.62314e-18
9199.14200 3.64806e-18
9200.00346 3.64504e-18
9200.86492 3.64195e-18
9201.72639 3.62160e-18
9202.58785 3.60119e-18
9203.44931 3.58446e-18
9204.31077 3.56774e-18
9205.17224 3.55524e-18
9206.04371 3.54274e-18
9206.90518 3.52527e-18
9207.76664 3.50777e-18
9208.62810 3.48825e-18
9209.48956 3.46872e-18
9210.35102 3.45698e-18
9211.21249 3.44527e-18
9212.07395 3.45120e-18
9212.93541 3.45720e-18
9213.79687 3.49214e-18
9214.65833 3.52715e-18
9215.52981 3.58883e-18
9216.39127 3.65058e-18
9217.25274 3.71556e-18
9218.11420 3.78054e-18
9218.97566 3.83361e-18
9219.83712 3.88663e-18
9220.69859 3.93263e-18
9221.56005 3.97861e-18
9222.42151 4.02028e-18
9223.28297 4.06194e-18
9224.14443 4.09464e-18
9225.00590 4.12732e-18
9225.87737 4.14781e-18
9226.73884 4.16827e-18
9227.60030 4.17314e-18
9228.46176 4.17797e-18
9229.32322 4.16591e-18
9230.18468 4.15382e-18
9231.04615 4.13858e-18
9231.90761 4.12333e-18
9232.76907 4.12078e-18
9233.63053 4.11826e-18
9234.49199 4.12491e-18
9235.35346 4.13157e-18
9236.22494 4.13848e-18
9237.08640 4.14540e-18
9237.94786 4.15664e-18
9238.80932 4.16790e-18
9239.67078 4.19187e-18
9240.53225 4.21588e-18
9241.39371 4.25660e-18
9242.25517 4.29737e-18
9243.11663 4.35648e-18
9243.97809 4.41565e-18
9244.84957 4.48800e-18
9245.71103 4.56038e-18
9246.57250 4.63423e-18
9247.43396 4.70808e-18
9248.29542 4.77671e-18
9249.15688 4.84533e-18
9250.01834 4.91013e-18
9250.87981 4.97492e-18
9251.74127 5.03262e-18
9252.60273 5.09029e-18
9253.46419 5.12706e-18
9254.32565 5.16376e-18
9255.19713 5.17733e-18
9256.05860 5.19083e-18
9256.92006 5.20808e-18
9257.78152 5.22535e-18
9258.64298 5.26652e-18
9259.50444 5.30775e-18
9260.36591 5.36672e-18
9261.22737 5.42573e-18
9262.08883 5.49163e-18
9262.95029 5.55754e-18
9263.81175 5.60657e-18
9264.68323 5.65555e-18
9265.54469 5.66496e-18
9266.40616 5.67425e-18
9267.26762 5.64467e-18
9268.12908 5.61497e-18
9268.99054 5.55577e-18
9269.85200 5.49650e-18
9270.71347 5.42972e-18
9271.57493 5.36293e-18
9272.43639 5.31486e-18
9273.29785 5.26684e-18
9274.16933 5.25820e-18
9275.03079 5.24967e-18
9275.89226 5.29564e-18
9276.75372 5.34176e-18
9277.61518 5.43461e-18
9278.47664 5.52758e-18
9279.33810 5.64174e-18
9280.19957 5.75595e-18
9281.06103 5.86381e-18
9281.92249 5.97166e-18
9282.79397 6.04661e-18
9283.65543 6.12149e-18
9284.51689 6.14236e-18
9285.37835 6.16305e-18
9286.23982 6.11726e-18
9287.10128 6.07129e-18
9287.96274 5.96439e-18
9288.82420 5.85725e-18
9289.68566 5.72310e-18
9290.54713 5.58888e-18
9291.40859 5.46692e-18
9292.27005 5.34500e-18
9293.14153 5.28712e-18
9294.00299 5.22942e-18
9294.86445 5.26950e-18
9295.72592 5.30986e-18
9296.58738 5.41300e-18
9297.44884 5.51633e-18
9298.31030 5.63621e-18
9299.17176 5.75612e-18
9300.03323 5.82959e-18
9300.89469 5.90292e-18
9301.75615 5.86942e-18
9302.62763 5.83560e-18
9303.48909 5.75329e-18
9304.35055 5.67084e-18
9305.21201 5.63484e-18
9306.07348 5.59897e-18
9306.93494 5.58712e-18
9307.79640 5.57532e-18
9308.65786 5.51860e-18
9309.51932 5.46175e-18
9310.38079 5.36336e-18
9311.24225 5.26486e-18
9312.11373 5.16553e-18
9312.97519 5.06620e-18
9313.83665 5.00586e-18
9314.69811 4.94563e-18
9315.55958 4.96968e-18
9316.42104 4.99397e-18
9317.28250 5.09357e-18
9318.14396 5.19339e-18
9319.00542 5.28124e-18
9319.86688 5.36904e-18
9320.72835 5.41087e-18
9321.58981 5.45257e-18
9322.46129 5.52884e-18
9323.32275 5.60520e-18
9324.18421 5.73351e-18
9325.04567 5.86196e-18
9325.90714 5.87779e-18
9326.76860 5.89329e-18
9327.63006 5.69519e-18
9328.49152 5.49648e-18
9329.35298 5.24372e-18
9330.21445 4.99079e-18
9331.07591 4.83754e-18
9331.94739 4.68458e-18
9332.80885 4.60112e-18
9333.67031 4.51786e-18
9334.53177 4.45964e-18
9335.39323 4.40150e-18
9336.25470 4.36953e-18
9337.11616 4.33765e-18
9337.97762 4.32430e-18
9338.83908 4.31101e-18
9339.70055 4.45205e-18
9340.56201 4.59352e-18
9341.43349 5.07283e-18
9342.29495 5.55310e-18
9343.15641 6.13515e-18
9344.01787 6.71743e-18
9344.87933 6.96886e-18
9345.74080 7.21928e-18
9346.60226 7.01084e-18
9347.46372 6.80102e-18
9348.32518 6.20646e-18
9349.18664 5.61082e-18
9350.04811 4.90358e-18
9350.90957 4.19603e-18
9351.78105 3.88037e-18
9352.64251 3.56584e-18
9353.50397 3.80720e-18
9354.36543 4.05014e-18
9355.22689 4.48374e-18
9356.08836 4.91787e-18
9356.94982 5.23700e-18
9357.81128 5.55579e-18
9358.67274 5.57750e-18
9359.53420 5.59836e-18
9360.39567 5.24355e-18
9361.26715 4.88768e-18
9362.12861 4.44373e-18
9362.99007 3.99955e-18
9363.85153 3.73771e-18
9364.71299 3.47639e-18
9365.57446 3.41228e-18
9366.43592 3.34873e-18
9367.29738 3.45620e-18
9368.15884 3.56415e-18
9369.02030 3.70847e-18
9369.89178 3.85288e-18
9370.75324 3.87970e-18
9371.61471 3.90619e-18
9372.47617 3.82498e-18
9373.33763 3.74348e-18
9374.19909 3.61192e-18
9375.06056 3.48022e-18
9375.92202 3.38647e-18
9376.78348 3.29283e-18
9377.64494 3.34461e-18
9378.50640 3.39680e-18
9379.37788 3.55325e-18
9380.23934 3.71000e-18
9381.10081 3.83245e-18
9381.96227 3.95479e-18
9382.82373 3.99905e-18
9383.68519 4.04308e-18
9384.54665 4.04903e-18
9385.40812 4.05486e-18
9386.26958 4.03352e-18
9387.13104 4.01211e-18
9387.99250 3.94482e-18
9388.85396 3.87739e-18
9389.72544 3.76308e-18
9390.58691 3.64864e-18
9391.44837 3.50457e-18
9392.30983 3.36042e-18
9393.17129 3.21022e-18
9394.03275 3.06000e-18
9394.89422 2.94561e-18
9395.75568 2.83133e-18
9396.61714 2.78115e-18
9397.47860 2.73116e-18
9398.34006 2.72414e-18
9399.21154 2.71725e-18
9400.07300 2.72694e-18
9400.93447 2.73669e-18
9401.79593 2.73767e-18
9402.65739 2.73862e-18
9403.51885 2.70865e-18
9404.38031 2.67858e-18
9405.24178 2.64264e-18
9406.10324 2.60668e-18
9406.96470 2.59990e-18
9407.82616 2.59319e-18
9408.69764 2.61594e-18
9409.55910 2.63877e-18
9410.42057 2.67885e-18
9411.28203 2.71897e-18
9412.14349 2.75741e-18
9413.00495 2.79584e-18
9413.86641 2.81015e-18
9414.72788 2.82439e-18
9415.58934 2.79960e-18
9416.45080 2.77468e-18
9417.31226 2.70614e-18
9418.17372 2.63746e-18
9419.04520 2.52997e-18
9419.90666 2.42236e-18
9420.76813 2.28309e-18
9421.62959 2.14373e-18
9422.49105 2.02253e-18
9423.35251 1.90139e-18
9424.21397 1.91722e-18
9425.07544 1.93345e-18
9425.93690 2.12450e-18
9426.79836 2.31605e-18
9427.65982 2.55761e-18
9428.53130 2.79930e-18
9429.39276 2.97113e-18
9430.25423 3.14274e-18
9431.11569 3.13352e-18
9431.97715 3.12377e-18
9432.83861 2.87712e-18
9433.70007 2.62979e-18
9434.56153 2.34129e-18
9435.42300 2.05267e-18
9436.28446 1.92689e-18
9437.14592 1.80158e-18
9438.01740 1.87074e-18
9438.87886 1.94047e-18
9439.74032 2.19134e-18
9440.60179 2.44272e-18
9441.46325 2.74788e-18
9442.32471 3.05319e-18
9443.18617 3.24866e-18
9444.04763 3.44380e-18
9444.90910 3.48266e-18
9445.77056 3.52106e-18
9446.63202 3.41356e-18
9447.49348 3.30564e-18
9448.36496 3.10981e-18
9449.22642 2.91373e-18
9450.08788 2.72293e-18
9450.94935 2.53215e-18
9451.81081 2.40723e-18
9452.67227 2.28250e-18
9453.53373 2.24717e-18
9454.39520 2.21209e-18
9455.25666 2.27225e-18
9456.11812 2.33270e-18
9456.98960 2.47378e-18
9457.85106 2.61508e-18
9458.71252 2.79483e-18
9459.57398 2.97467e-18
9460.43545 3.10786e-18
9461.29691 3.24089e-18
9462.15837 3.27615e-18
9463.01983 3.31112e-18
9463.88129 3.28858e-18
9464.74276 3.26588e-18
9465.60422 3.22748e-18
9466.47570 3.18905e-18
9467.33716 3.16058e-18
9468.19862 3.13214e-18
9469.06008 3.13429e-18
9469.92155 3.13653e-18
9470.78301 3.13757e-18
9471.64447 3.13859e-18
9472.50593 3.10468e-18
9473.36739 3.07068e-18
9474.22885 3.02301e-18
9475.09032 2.97529e-18
9475.96180 2.94265e-18
9476.82326 2.91005e-18
9477.68472 2.95214e-18
9478.54618 2.99444e-18
9479.40764 3.17857e-18
9480.26911 3.36310e-18
9481.13057 3.61618e-18
9481.99203 3.86945e-18
9482.85349 4.05006e-18
9483.71495 4.23045e-18
9484.57642 4.26407e-18
9485.43788 4.29726e-18
9486.30936 4.15779e-18
9487.17082 4.01782e-18
9488.03228 3.76205e-18
9488.89374 3.50596e-18
9489.75520 3.28346e-18
9490.61667 3.06107e-18
9491.47813 2.96750e-18
9492.33959 2.87430e-18
9493.20105 2.90788e-18
9494.06252 2.94183e-18
9494.92398 3.10210e-18
9495.79546 3.26273e-18
9496.65692 3.57010e-18
9497.51838 3.87789e-18
9498.37984 4.29995e-18
9499.24130 4.72234e-18
9500.10277 5.09395e-18
9500.96423 5.46540e-18
9501.82569 5.64369e-18
9502.68715 5.82141e-18
9503.54861 5.78381e-18
9504.41008 5.74557e-18
9505.28155 5.50666e-18
9506.14302 5.26715e-18
9507.00448 4.95102e-18
9507.86594 4.63468e-18
9508.72740 4.38895e-18
9509.58887 4.14343e-18
9510.45033 3.98256e-18
9511.31179 3.82195e-18
9512.17325 3.71678e-18
9513.03471 3.61177e-18
9513.89617 3.59102e-18
9514.75764 3.57050e-18
9515.62912 3.67527e-18
9516.49058 3.78040e-18
9517.35204 3.99869e-18
9518.21350 4.21731e-18
9519.07496 4.50883e-18
9519.93643 4.80056e-18
9520.79789 5.09434e-18
9521.65935 5.38812e-18
9522.52081 5.58642e-18
9523.38227 5.78444e-18
9524.24374 5.85433e-18
9525.11522 5.92384e-18
9525.97668 5.91669e-18
9526.83814 5.90931e-18
9527.69960 5.87247e-18
9528.56106 5.83554e-18
9529.42252 5.80643e-18
9530.28399 5.77735e-18
9531.14545 5.77694e-18
9532.00691 5.77662e-18
9532.86837 5.77170e-18
9533.72984 5.76676e-18
9534.60131 5.72926e-18
9535.46278 5.69166e-18
9536.32424 5.61307e-18
9537.18570 5.53437e-18
9538.04716 5.41922e-18
9538.90862 5.30396e-18
9539.77009 5.25733e-18
9540.63155 5.21090e-18
9541.49301 5.33198e-18
9542.35447 5.45354e-18
9543.21593 5.67127e-18
9544.08741 5.88927e-18
9544.94888 6.09788e-18
9545.81034 6.30645e-18
9546.67180 6.40274e-18
9547.53326 6.49867e-18
9548.39472 6.37680e-18
9549.25619 6.25434e-18
9550.11765 6.03707e-18
9550.97911 5.81953e-18
9551.84057 5.75399e-18
9552.70203 5.68889e-18
9553.57351 5.79186e-18
9554.43497 5.89532e-18
9555.29644 6.02073e-18
9556.15790 6.14618e-18
9557.01936 6.19561e-18
9557.88082 6.24480e-18
9558.74228 6.15268e-18
9559.60375 6.06020e-18
9560.46521 5.86721e-18
9561.32667 5.67395e-18
9562.18813 5.60320e-18
9563.05961 5.53281e-18
9563.92107 5.69939e-18
9564.78254 5.86666e-18
9565.64400 6.15208e-18
9566.50546 6.43786e-18
9567.36692 6.71463e-18
9568.22838 6.99134e-18
9569.08985 7.10731e-18
9569.95131 7.22286e-18
9570.81277 7.07332e-18
9571.67423 6.92301e-18
9572.53569 6.63974e-18
9573.40717 6.35611e-18
9574.26863 6.09568e-18
9575.13010 5.83536e-18
9575.99156 5.70245e-18
9576.85302 5.56992e-18
9577.71448 5.64719e-18
9578.57594 5.72509e-18
9579.43741 5.88262e-18
9580.29887 6.04035e-18
9581.16033 6.08834e-18
9582.02179 6.13604e-18
9582.89327 6.04941e-18
9583.75473 5.96242e-18
9584.61620 5.77840e-18
9585.47766 5.59406e-18
9586.33912 5.44535e-18
9587.20058 5.29674e-18
9588.06204 5.38540e-18
9588.92351 5.47476e-18
9589.78497 5.77551e-18
9590.64643 6.07690e-18
9591.51791 6.35790e-18
9592.37937 6.63891e-18
9593.24083 6.77521e-18
9594.10229 6.91115e-18
9594.96376 6.91473e-18
9595.82522 6.91795e-18
9596.68668 6.81396e-18
9597.54814 6.70968e-18
9598.40960 6.55675e-18
9599.27107 6.40375e-18
9600.13253 6.26662e-18
9600.99399 6.12948e-18
9601.86547 6.05931e-18
9602.72693 5.98931e-18
9603.58839 6.01948e-18
9604.44986 6.05001e-18
9605.31132 6.17498e-18
9606.17278 6.30025e-18
9607.03424 6.49188e-18
9607.89570 6.68362e-18
9608.75717 6.82004e-18
9609.61863 6.95628e-18
9610.48009 6.92003e-18
9611.35157 6.88324e-18
9612.21303 6.72411e-18
9613.07449 6.56468e-18
9613.93595 6.37662e-18
9614.79742 6.18845e-18
9615.65888 6.03677e-18
9616.52034 5.88516e-18
9617.38180 5.82429e-18
9618.24326 5.76369e-18
9619.10473 5.80763e-18
9619.96619 5.85188e-18
9620.82765 5.98549e-18
9621.69913 6.11941e-18
9622.56059 6.29452e-18
9623.42205 6.46976e-18
9624.28352 6.61929e-18
9625.14498 6.76877e-18
9626.00644 6.82881e-18
9626.86790 6.88855e-18
9627.72936 6.79918e-18
9628.59083 6.70938e-18
9629.45229 6.48818e-18
9630.31375 6.26662e-18
9631.17521 6.04452e-18
9632.04669 5.82239e-18
9632.90815 5.70098e-18
9633.76961 5.57987e-18
9634.63108 5.59871e-18
9635.49254 5.61798e-18
9636.35400 5.77289e-18
9637.21546 5.92821e-18
9638.07692 6.07224e-18
9638.93839 6.21624e-18
9639.79985 6.22792e-18
9640.67133 6.23919e-18
9641.53279 6.19435e-18
9642.39425 6.14934e-18
9643.25571 6.13658e-18
9644.11718 6.12394e-18
9644.97864 6.16466e-18
9645.84010 6.20562e-18
9646.70156 6.30853e-18
9647.56302 6.41162e-18
9648.42448 6.50797e-18
9649.28595 6.60427e-18
9650.15743 6.60450e-18
9651.01889 6.60439e-18
9651.88035 6.50815e-18
9652.74181 6.41162e-18
9653.60327 6.25910e-18
9654.46474 6.10635e-18
9655.32620 5.95268e-18
9656.18766 5.79898e-18
9657.04912 5.70782e-18
9657.91058 5.61685e-18
9658.77205 5.62377e-18
9659.64352 5.63100e-18
9660.50499 5.74472e-18
9661.36645 5.85876e-18
9662.22791 6.04327e-18
9663.08937 6.22798e-18
9663.95083 6.38926e-18
9664.81230 6.55049e-18
9665.67376 6.63414e-18
9666.53522 6.71761e-18
9667.39668 6.75243e-18
9668.25815 6.78713e-18
9669.11961 6.78964e-18
9669.99109 6.79202e-18
9670.85255 6.73436e-18
9671.71401 6.67647e-18
9672.57547 6.55102e-18
9673.43693 6.42534e-18
9674.29840 6.28337e-18
9675.15986 6.14129e-18
9676.02132 6.03397e-18
9676.88278 5.92677e-18
9677.74424 5.88983e-18
9678.61572 5.85309e-18
9679.47718 5.91019e-18
9680.33865 5.96755e-18
9681.20011 6.07165e-18
9682.06157 6.17581e-18
9682.92303 6.26137e-18
9683.78449 6.34687e-18
9684.64596 6.39451e-18
9685.50742 6.44197e-18
9686.36888 6.44901e-18
9687.23034 6.45592e-18
9688.10182 6.42915e-18
9688.96328 6.40232e-18
9689.82475 6.35832e-18
9690.68621 6.31426e-18
9691.54767 6.25600e-18
9692.40913 6.19769e-18
9693.27059 6.11643e-18
9694.13206 6.03504e-18
9694.99352 5.94272e-18
9695.85498 5.85037e-18
9696.71644 5.77981e-18
9697.57790 5.70932e-18
9698.44938 5.67682e-18
9699.31084 5.64443e-18
9700.17231 5.64379e-18
9701.03377 5.64325e-18
9701.89523 5.66107e-18
9702.75669 5.67894e-18
9703.61816 5.68539e-18
9704.47962 5.69180e-18
9705.34108 5.66761e-18
9706.20254 5.64333e-18
9707.06400 5.60709e-18
9707.93548 5.57080e-18
9708.79694 5.54176e-18
9709.65841 5.51275e-18
9710.51987 5.50141e-18
9711.38133 5.49013e-18
9712.24279 5.50336e-18
9713.10425 5.51665e-18
9713.96572 5.53615e-18
9714.82718 5.55566e-18
9715.68864 5.55942e-18
9716.55010 5.56313e-18
9717.41156 5.54484e-18
9718.28304 5.52650e-18
9719.14451 5.48364e-18
9720.00597 5.44071e-18
9720.86743 5.39620e-18
9721.72889 5.35169e-18
9722.59035 5.34080e-18
9723.45182 5.33001e-18
9724.31328 5.33725e-18
9725.17474 5.34454e-18
9726.03620 5.32391e-18
9726.89766 5.30318e-18
9727.76914 5.23838e-18
9728.63060 5.17344e-18
9729.49207 5.07302e-18
9730.35353 4.97250e-18
9731.21499 4.85789e-18
9732.07645 4.74324e-18
9732.93791 4.65384e-18
9733.79938 4.56453e-18
9734.66084 4.52489e-18
9735.52230 4.48540e-18
9736.38376 4.49075e-18
9737.25524 4.49623e-18
9738.11670 4.53551e-18
9738.97817 4.57490e-18
9739.83963 4.62638e-18
9740.70109 4.67790e-18
9741.56255 4.72008e-18
9742.42401 4.76223e-18
9743.28548 4.78371e-18
9744.14694 4.80514e-18
9745.00840 4.79917e-18
9745.86986 4.79312e-18
9746.74134 4.76887e-18
9747.60280 4.74456e-18
9748.46426 4.71460e-18
9749.32573 4.68461e-18
9750.18719 4.65192e-18
9751.04865 4.61922e-18
9751.91011 4.58538e-18
9752.77157 4.55153e-18
9753.63304 4.51542e-18
9754.49450 4.47931e-18
9755.35596 4.43859e-18
9756.22744 4.39787e-18
9757.08890 4.36102e-18
9757.95036 4.32419e-18
9758.81183 4.30373e-18
9759.67329 4.28332e-18
9760.53475 4.28893e-18
9761.39621 4.29462e-18
9762.25767 4.33460e-18
9763.11913 4.37470e-18
9763.98060 4.43647e-18
9764.84206 4.49830e-18
9765.71354 4.54640e-18
9766.57500 4.59446e-18
9767.43646 4.61151e-18
9768.29792 4.62847e-18
9769.15939 4.62587e-18
9770.02085 4.62321e-18
9770.88231 4.61066e-18
9771.74377 4.59809e-18
9772.60523 4.58045e-18
9773.46670 4.56280e-18
9774.32816 4.54623e-18
9775.19964 4.52966e-18
9776.06110 4.51902e-18
9776.92256 4.50840e-18
9777.78402 4.50693e-18
9778.64548 4.50550e-18
9779.50695 4.51737e-18
9780.36841 4.52928e-18
9781.22987 4.55561e-18
9782.09133 4.58199e-18
9782.95280 4.60001e-18
9783.81426 4.61799e-18
9784.68574 4.60289e-18
9785.54720 4.58769e-18
9786.40866 4.55149e-18
9787.27012 4.51523e-18
9788.13158 4.48052e-18
9788.99305 4.44580e-18
9789.85451 4.42052e-18
9790.71597 4.39525e-18
9791.57743 4.38271e-18
9792.43889 4.37019e-18
9793.30036 4.36192e-18
9794.16182 4.35365e-18
9795.03330 4.33185e-18
9795.89476 4.31000e-18
9796.75622 4.27986e-18
9797.61768 4.24971e-18
9798.47915 4.23724e-18
9799.34061 4.22483e-18
9800.20207 4.23872e-18
9801.06353 4.25269e-18
9801.92499 4.28062e-18
9802.78645 4.30859e-18
9803.64792 4.33811e-18
9804.51940 4.36763e-18
9805.38086 4.38415e-18
9806.24232 4.40062e-18
9807.10378 4.39705e-18
9807.96524 4.39342e-18
9808.82671 4.38377e-18
9809.68817 4.37410e-18
9810.54963 4.37170e-18
9811.41109 4.36932e-18
9812.27255 4.38260e-18
9813.13402 4.39593e-18
9813.99548 4.42879e-18
9814.86696 4.46172e-18
9815.72842 4.49079e-18
9816.58988 4.51984e-18
9817.45134 4.52027e-18
9818.31280 4.52061e-18
9819.17427 4.49569e-18
9820.03573 4.47070e-18
9820.89719 4.43090e-18
9821.75865 4.39106e-18
9822.62012 4.35171e-18
9823.48158 4.31237e-18
9824.35306 4.29135e-18
9825.21452 4.27040e-18
9826.07598 4.26510e-18
9826.93744 4.25986e-18
9827.79890 4.25582e-18
9828.66037 4.25179e-18
9829.52183 4.24544e-18
9830.38329 4.23908e-18
9831.24475 4.23469e-18
9832.10621 4.23031e-18
9832.97769 4.22689e-18
9833.83915 4.22348e-18
9834.70062 4.21543e-18
9835.56208 4.20736e-18
9836.42354 4.19207e-18
9837.28500 4.17676e-18
9838.14647 4.15576e-18
9839.00793 4.13473e-18
9839.86939 4.10972e-18
9840.73085 4.08470e-18
9841.59231 4.05657e-18
9842.45377 4.02843e-18
9843.32525 4.00038e-18
9844.18672 3.97234e-18
9845.04818 3.95433e-18
9845.90964 3.93634e-18
9846.77110 3.93618e-18
9847.63256 3.93606e-18
9848.49403 3.95133e-18
9849.35549 3.96664e-18
9850.21695 3.99290e-18
9851.07841 4.01918e-18
9851.93987 4.05217e-18
9852.81135 4.08518e-18
9853.67282 4.11988e-18
9854.53428 4.15458e-18
9855.39574 4.18782e-18
9856.25720 4.22106e-18
9857.11866 4.25051e-18
9857.98013 4.27994e-18
9858.84159 4.29930e-18
9859.70305 4.31861e-18
9860.56451 4.32065e-18
9861.42597 4.32264e-18
9862.29745 4.30640e-18
9863.15891 4.29010e-18
9864.02038 4.25866e-18
9864.88184 4.22717e-18
9865.74330 4.18627e-18
9866.60476 4.14534e-18
9867.46622 4.10319e-18
9868.32769 4.06105e-18
9869.18915 4.02235e-18
9870.05061 3.98367e-18
9870.92209 3.94788e-18
9871.78355 3.91211e-18
9872.64501 3.87984e-18
9873.50648 3.84759e-18
9874.36794 3.82162e-18
9875.22940 3.79567e-18
9876.09086 3.77817e-18
9876.95232 3.76070e-18
9877.81379 3.75369e-18
9878.67525 3.74671e-18
9879.53671 3.75110e-18
9880.39817 3.75553e-18
9881.26965 3.76994e-18
9882.13111 3.78437e-18
9882.99257 3.80620e-18
9883.85404 3.82805e-18
9884.71550 3.85258e-18
9885.57696 3.87711e-18
9886.43842 3.89923e-18
9887.29988 3.92135e-18
9888.16135 3.93627e-18
9889.02281 3.95118e-18
9889.88427 3.95490e-18
9890.74573 3.95859e-18
9891.61721 3.95101e-18
9892.47867 3.94340e-18
9893.34014 3.92655e-18
9894.20160 3.90966e-18
9895.06306 3.88570e-18
9895.92452 3.86171e-18
9896.78598 3.83291e-18
9897.64745 3.80411e-18
9898.50891 3.77423e-18
9899.37037 3.74435e-18
9900.23183 3.71834e-18
9901.09329 3.69233e-18
9901.96477 3.67100e-18
9902.82623 3.64968e-18
9903.68770 3.62882e-18
9904.54916 3.60797e-18
9905.41062 3.58856e-18
9906.27208 3.56915e-18
9907.13354 3.56034e-18
9907.99501 3.55155e-18
9908.85647 3.55768e-18
9909.71793 3.56386e-18
9910.57939 3.58077e-18
9911.45087 3.59770e-18
9912.31233 3.61859e-18
9913.17380 3.63949e-18
9914.03526 3.64999e-18
9914.89672 3.66046e-18
9915.75818 3.64916e-18
9916.61964 3.63780e-18
9917.48111 3.60870e-18
9918.34257 3.57954e-18
9919.20403 3.53961e-18
9920.07551 3.49964e-18
9920.93697 3.45680e-18
9921.79843 3.41395e-18
9922.65989 3.37625e-18
9923.52136 3.33857e-18
9924.38282 3.30956e-18
9925.24428 3.28057e-18
9926.10574 3.26162e-18
9926.96720 3.24271e-18
9927.82867 3.22859e-18
9928.69013 3.21447e-18
9929.56161 3.19683e-18
9930.42307 3.17918e-18
9931.28453 3.15530e-18
9932.14599 3.13140e-18
9933.00746 3.10248e-18
9933.86892 3.07354e-18
9934.73038 3.04202e-18
9935.59184 3.01050e-18
9936.45330 2.97993e-18
9937.31477 2.94937e-18
9938.17623 2.92445e-18
9939.03769 2.89954e-18
9939.90917 2.88615e-18
9940.77063 2.87278e-18
9941.63209 2.87253e-18
9942.49355 2.87231e-18
9943.35502 2.87910e-18
9944.21648 2.88591e-18
9945.07794 2.89449e-18
9945.93940 2.90307e-18
9946.80086 2.91211e-18
9947.66233 2.92114e-18
9948.52379 2.92910e-18
9949.39527 2.93706e-18
9950.25673 2.94103e-18
9951.11819 2.94499e-18
9951.97965 2.94309e-18
9952.84112 2.94118e-18
9953.70258 2.93718e-18
9954.56404 2.93318e-18
9955.42550 2.93124e-18
9956.28696 2.92931e-18
9957.14843 2.92666e-18
9958.00989 2.92400e-18
9958.88137 2.91680e-18
9959.74283 2.90957e-18
9960.60429 2.89586e-18
9961.46575 2.88213e-18
9962.32721 2.86065e-18
9963.18868 2.83914e-18
9964.05014 2.81632e-18
9964.91160 2.79350e-18
9965.77306 2.78007e-18
9966.63452 2.76668e-18
9967.49599 2.76518e-18
9968.36747 2.76371e-18
9969.22893 2.76999e-18
9970.09039 2.77629e-18
9970.95185 2.78970e-18
9971.81331 2.80313e-18
9972.67477 2.82675e-18
9973.53624 2.85041e-18
9974.39770 2.88296e-18
9975.25916 2.91554e-18
9976.12062 2.95006e-18
9976.98208 2.98457e-18
9977.85356 3.01550e-18
9978.71503 3.04643e-18
9979.57649 3.07112e-18
9980.43795 3.09580e-18
9981.29941 3.11333e-18
9982.16087 3.13084e-18
9983.02234 3.14493e-18
9983.88380 3.15901e-18
9984.74526 3.17342e-18
9985.60672 3.18784e-18
9986.46818 3.20445e-18
9987.32965 3.22105e-18
9988.20112 3.24082e-18
9989.06259 3.26059e-18
9989.92405 3.27655e-18
9990.78551 3.29250e-18
9991.64697 3.29676e-18
9992.50843 3.30099e-18
9993.36990 3.29948e-18
9994.23136 3.29795e-18
9995.09282 3.30080e-18
9995.95428 3.30366e-18
9996.81574 3.30913e-18
9997.67721 3.31462e-18
9998.54869 3.31627e-18
9999.41015 3.31790e-18
