# wavelength flux
3719.99603 5.54188e-18
3721.49933 5.08259e-18
3723.00263 4.75180e-18
3724.49590 5.06727e-18
3725.99920 5.36872e-18
3727.50250 4.87804e-18
3728.99578 4.72362e-18
3730.49908 5.17628e-18
3732.00238 4.94853e-18
3733.49566 5.13522e-18
3734.99896 5.00985e-18
3736.50226 4.67085e-18
3737.99554 5.14861e-18
3739.49884 5.06846e-18
3741.00214 4.87213e-18
3742.49542 5.17184e-18
3743.99872 4.89523e-18
3745.50202 4.63025e-18
3746.99529 4.98120e-18
3748.49859 4.75009e-18
3750.00189 4.45064e-18
3751.49517 4.56423e-18
3752.99847 4.36410e-18
3754.50177 4.70224e-18
3755.99505 5.23347e-18
3757.49835 4.55394e-18
3759.00165 4.28994e-18
3760.50495 4.81463e-18
3761.99823 4.88252e-18
3763.50153 4.19729e-18
3765.00483 4.15896e-18
3766.49811 4.45672e-18
3768.00141 4.39422e-18
3769.50471 4.34177e-18
3770.99798 4.41483e-18
3772.50128 4.90449e-18
3774.00458 4.72938e-18
3775.49786 4.37476e-18
3777.00116 4.70313e-18
3778.50446 4.49109e-18
3779.99774 4.07743e-18
3781.50104 4.20052e-18
3783.00434 4.08670e-18
3784.49762 4.07799e-18
3786.00092 4.24043e-18
3787.50422 4.02229e-18
3788.99750 4.02794e-18
3790.50080 4.38183e-18
3792.00410 4.14564e-18
3793.49737 4.09006e-18
3795.00067 4.35047e-18
3796.50397 4.55888e-18
3797.99725 4.49594e-18
3799.50055 4.24964e-18
3801.00385 4.31727e-18
3802.49713 4.36282e-18
3804.00043 4.24981e-18
3805.50373 4.23061e-18
3806.99701 4.30368e-18
3808.50031 4.26687e-18
3810.00361 4.38136e-18
3811.49689 4.42021e-18
3813.00019 4.45063e-18
3814.50349 4.59700e-18
3815.99676 4.78769e-18
3817.50006 4.53621e-18
3819.00336 4.26830e-18
3820.49664 4.44929e-18
3821.99994 4.80336e-18
3823.50324 4.85547e-18
3824.99652 4.52685e-18
3826.49982 4.92256e-18
3828.00312 5.11286e-18
3829.49640 4.71103e-18
3830.99970 4.76397e-18
3832.50300 4.97383e-18
3833.99628 5.07148e-18
3835.49958 4.83673e-18
3837.00288 4.97823e-18
3838.49615 5.41650e-18
3839.99945 5.41021e-18
3841.50275 5.40710e-18
3842.99603 4.98308e-18
3844.49933 5.06604e-18
3846.00263 5.35637e-18
3847.49591 5.43109e-18
3848.99921 5.75634e-18
3850.50251 5.88959e-18
3851.99579 5.32178e-18
3853.49909 5.22108e-18
3855.00239 5.75425e-18
3856.49567 5.84026e-18
3857.99897 5.94917e-18
3859.50227 6.24629e-18
3860.99554 6.22413e-18
3862.49884 6.18809e-18
3864.00214 6.17862e-18
3865.49542 6.40041e-18
3866.99872 6.41359e-18
3868.50202 6.72570e-18
3869.99530 6.67994e-18
3871.49860 6.37134e-18
3873.00190 6.30212e-18
3874.49518 6.13330e-18
3875.99848 6.29392e-18
3877.50178 6.66065e-18
3878.99506 6.82266e-18
3880.49836 6.72575e-18
3882.00166 6.59849e-18
3883.50496 6.69030e-18
3884.99823 6.69342e-18
3886.50153 6.63407e-18
3888.00483 6.85853e-18
3889.49811 7.13475e-18
3891.00141 7.20432e-18
3892.50471 7.01621e-18
3893.99799 6.84523e-18
3895.50129 6.82423e-18
3897.00459 6.89024e-18
3898.49787 7.22550e-18
3900.00117 7.11556e-18
3901.50447 7.08500e-18
3902.99775 7.36847e-18
3904.50105 7.61260e-18
3906.00435 7.12994e-18
3907.49762 7.22776e-18
3909.00092 7.94423e-18
3910.50422 7.78924e-18
3911.99750 7.13270e-18
3913.50080 6.88408e-18
3915.00410 7.42193e-18
3916.49738 7.58770e-18
3918.00068 7.48238e-18
3919.50398 7.41531e-18
3920.99726 7.47730e-18
3922.50056 7.69516e-18
3924.00386 7.79338e-18
3925.49714 7.47288e-18
3927.00044 7.66553e-18
3928.50374 7.66198e-18
3929.99701 7.49410e-18
3931.50031 7.20343e-18
3933.00361 7.31856e-18
3934.49689 7.46279e-18
3936.00019 7.37680e-18
3937.50349 7.16318e-18
3938.99677 7.31089e-18
3940.50007 7.42739e-18
3942.00337 7.41719e-18
3943.49665 7.83038e-18
3944.99995 8.32204e-18
3946.50325 8.27114e-18
3947.99653 8.09626e-18
3949.49983 8.03374e-18
3951.00313 7.96934e-18
3952.49640 8.18585e-18
3953.99970 8.11297e-18
3955.50300 7.81210e-18
3956.99628 7.78634e-18
3958.49958 8.21057e-18
3960.00288 8.45326e-18
3961.49616 8.51841e-18
3962.99946 8.16481e-18
3964.50276 8.05127e-18
3965.99604 7.98350e-18
3967.49934 7.54946e-18
3969.00264 7.84664e-18
3970.49592 8.54630e-18
3971.99922 8.53519e-18
3973.50252 8.23329e-18
3974.99579 8.13475e-18
3976.49909 8.28416e-18
3978.00239 8.35400e-18
3979.49567 8.04736e-18
3980.99897 8.05797e-18
3982.50227 8.40326e-18
3983.99555 8.67189e-18
3985.49885 8.38246e-18
3987.00215 8.24777e-18
3988.49543 8.47576e-18
3989.99873 8.55432e-18
3991.50203 8.02883e-18
3992.99531 8.05075e-18
3994.49861 8.03337e-18
3996.00191 8.04695e-18
3997.49518 8.29480e-18
3998.99848 8.50437e-18
4000.50178 8.66184e-18
4001.99506 8.29942e-18
4003.49836 8.18392e-18
4005.00166 8.48533e-18
4006.50496 8.33632e-18
4007.99824 8.34761e-18
4009.50154 8.44271e-18
4011.00484 8.40834e-18
4012.49812 8.60962e-18
4014.00142 8.31631e-18
4015.50472 8.15564e-18
4016.99800 8.43377e-18
4018.50130 8.38980e-18
4020.00460 8.12661e-18
4021.49787 8.02828e-18
4023.00117 8.07398e-18
4024.50447 8.23561e-18
4025.99775 8.28909e-18
4027.50105 8.05892e-18
4029.00435 8.32314e-18
4030.49763 8.14595e-18
4032.00093 8.36924e-18
4033.50423 8.18118e-18
4034.99751 7.69685e-18
4036.50081 7.97815e-18
4038.00411 7.89268e-18
4039.49739 7.91372e-18
4041.00069 7.93554e-18
4042.50399 7.88045e-18
4043.99726 7.98328e-18
4045.50056 7.81729e-18
4047.00386 8.11383e-18
4048.49714 8.14716e-18
4050.00044 8.10793e-18
4051.50374 7.73805e-18
4052.99702 7.42171e-18
4054.50032 7.68925e-18
4056.00362 7.67448e-18
4057.49690 7.82930e-18
4059.00020 7.94964e-18
4060.50350 7.89364e-18
4061.99678 7.92909e-18
4063.50008 7.68856e-18
4065.00338 7.62686e-18
4066.49665 7.99091e-18
4067.99995 8.05100e-18
4069.50325 7.91752e-18
4070.99653 8.04653e-18
4072.49983 7.97331e-18
4074.00313 7.80885e-18
4075.49641 7.82929e-18
4076.99971 7.88241e-18
4078.50301 7.87375e-18
4079.99629 7.86060e-18
4081.49959 7.78505e-18
4083.00289 8.00655e-18
4084.49617 8.18442e-18
4085.99947 8.06822e-18
4087.50277 7.93608e-18
4088.99604 7.86898e-18
4090.49934 7.84297e-18
4092.00264 7.73923e-18
4093.49592 7.81520e-18
4094.99922 7.63017e-18
4096.50252 7.56472e-18
4097.99580 7.78980e-18
4099.49910 7.89197e-18
4101.00240 7.93525e-18
4102.49568 7.94704e-18
4103.99898 7.81464e-18
4105.50228 7.81435e-18
4106.99556 7.94635e-18
4108.49886 7.91445e-18
4110.00216 7.95739e-18
4111.49543 8.04316e-18
4112.99873 7.92385e-18
4114.50203 8.05193e-18
4115.99531 8.29057e-18
4117.49861 7.81832e-18
4119.00191 7.77887e-18
4120.49519 8.04784e-18
4121.99849 8.38796e-18
4123.50179 7.98683e-18
4124.99507 8.10110e-18
4126.49837 7.73388e-18
4128.00167 8.04055e-18
4129.50497 8.36706e-18
4130.99825 8.31650e-18
4132.50155 7.99088e-18
4134.00485 8.01208e-18
4135.49812 8.28191e-18
4137.00142 8.28018e-18
4138.50472 8.14920e-18
4139.99800 8.42551e-18
4141.50130 8.32391e-18
4143.00460 8.45703e-18
4144.49788 8.36635e-18
4146.00118 7.94831e-18
4147.50448 8.15759e-18
4148.99776 8.30273e-18
4150.50106 8.26305e-18
4152.00436 8.26388e-18
4153.49764 8.37411e-18
4155.00094 8.39185e-18
4156.50424 8.16545e-18
4157.99751 8.17237e-18
4159.50081 8.33665e-18
4161.00411 8.23260e-18
4162.49739 8.34118e-18
4164.00069 8.45148e-18
4165.50399 8.68012e-18
4166.99727 8.75136e-18
4168.50057 8.55420e-18
4170.00387 8.37341e-18
4171.49715 8.45766e-18
4173.00045 8.29629e-18
4174.50375 8.27401e-18
4175.99703 8.49351e-18
4177.50033 8.52050e-18
4179.00363 8.57078e-18
4180.49690 8.57689e-18
4182.00020 8.29131e-18
4183.50350 8.28484e-18
4184.99678 8.44070e-18
4186.50008 8.70357e-18
4188.00338 8.58472e-18
4189.49666 8.81082e-18
4190.99996 9.23595e-18
4192.50326 8.72789e-18
4193.99654 8.52651e-18
4195.49984 8.78599e-18
4197.00314 8.93378e-18
4198.49642 9.04209e-18
4199.99972 8.92630e-18
4201.50302 8.79537e-18
4202.99629 8.68588e-18
4204.49959 8.67382e-18
4206.00289 8.79105e-18
4207.49617 8.83810e-18
4208.99947 8.91811e-18
4210.50277 8.84360e-18
4211.99605 8.92724e-18
4213.49935 9.32565e-18
4215.00265 9.26090e-18
4216.49593 9.02829e-18
4217.99923 8.93515e-18
4219.50253 9.19202e-18
4220.99581 9.39521e-18
4222.49911 9.35391e-18
4224.00241 9.12924e-18
4225.49568 8.95784e-18
4226.99898 9.04887e-18
4228.50228 9.22441e-18
4229.99556 9.25329e-18
4231.49886 9.06497e-18
4233.00216 9.05824e-18
4234.49544 9.19824e-18
4235.99874 9.20682e-18
4237.50204 9.34525e-18
4238.99532 9.55786e-18
4240.49862 9.37636e-18
4242.00192 9.21976e-18
4243.49520 9.36765e-18
4244.99850 9.24794e-18
4246.50180 9.11008e-18
4247.99507 9.06190e-18
4249.49837 9.34073e-18
4251.00167 9.65267e-18
4252.50497 9.62276e-18
4253.99825 9.57130e-18
4255.50155 9.41409e-18
4257.00485 9.16742e-18
4258.49813 9.50142e-18
4260.00143 9.43094e-18
4261.50473 9.39882e-18
4262.99801 9.35116e-18
4264.50131 9.60623e-18
4266.00461 9.49739e-18
4267.49789 9.50574e-18
4269.00119 9.55038e-18
4270.50449 9.71598e-18
4271.99776 9.68551e-18
4273.50106 9.67422e-18
4275.00436 9.62338e-18
4276.49764 9.60203e-18
4278.00094 9.77895e-18
4279.50424 9.86627e-18
4280.99752 9.93695e-18
4282.50082 9.88706e-18
4284.00412 9.74827e-18
4285.49740 9.98664e-18
4287.00070 9.96769e-18
4288.50400 9.84604e-18
4289.99728 9.74209e-18
4291.50058 9.96416e-18
4293.00388 1.01600e-17
4294.49715 1.02583e-17
4296.00045 1.04150e-17
4297.50375 1.05778e-17
4298.99703 1.05445e-17
4300.50033 1.03045e-17
4302.00363 1.02065e-17
4303.49691 1.01484e-17
4305.00021 1.01328e-17
4306.50351 1.01980e-17
4307.99679 1.04711e-17
4309.50009 1.02570e-17
4311.00339 1.02385e-17
4312.49667 1.03177e-17
4313.99997 1.04326e-17
4315.50327 1.04259e-17
4316.99654 1.03631e-17
4318.49984 1.02724e-17
4320.00314 1.03768e-17
4321.49642 1.07094e-17
4322.99972 1.06678e-17
4324.50302 1.05788e-17
4325.99630 1.06366e-17
4327.49960 1.02571e-17
4329.00290 1.06396e-17
4330.49618 1.05184e-17
4331.99948 1.03380e-17
4333.50278 1.04149e-17
4334.99606 1.01721e-17
4336.49936 1.03059e-17
4338.00266 1.04287e-17
4339.49593 1.03772e-17
4340.99923 1.03882e-17
4342.50253 1.02561e-17
4343.99581 1.04429e-17
4345.49911 1.05484e-17
4347.00241 1.06113e-17
4348.49569 1.05460e-17
4349.99899 1.06632e-17
4351.50229 1.06259e-17
4352.99557 1.04803e-17
4354.49887 1.04041e-17
4356.00217 1.04751e-17
4357.49545 1.05666e-17
4358.99875 1.05186e-17
4360.50205 1.07018e-17
4361.99532 1.06813e-17
4363.49862 1.05333e-17
4365.00192 1.04950e-17
4366.49520 1.05275e-17
4367.99850 1.07811e-17
4369.50180 1.08860e-17
4370.99508 1.09632e-17
4372.49838 1.08715e-17
4374.00168 1.05605e-17
4375.50498 1.05324e-17
4376.99826 1.08031e-17
4378.50156 1.09621e-17
4380.00486 1.10951e-17
4381.49814 1.10394e-17
4383.00144 1.08540e-17
4384.50474 1.09458e-17
4385.99801 1.08800e-17
4387.50131 1.07216e-17
4389.00461 1.11718e-17
4390.49789 1.12946e-17
4392.00119 1.13854e-17
4393.50449 1.15354e-17
4394.99777 1.14579e-17
4396.50107 1.13784e-17
4398.00437 1.14648e-17
4399.49765 1.16046e-17
4401.00095 1.15186e-17
4402.50425 1.14924e-17
4403.99753 1.14477e-17
4405.50083 1.15514e-17
4407.00413 1.19022e-17
4408.49740 1.17673e-17
4410.00070 1.19029e-17
4411.50400 1.18061e-17
4412.99728 1.16799e-17
4414.50058 1.15335e-17
4416.00388 1.17819e-17
4417.49716 1.19906e-17
4419.00046 1.20927e-17
4420.50376 1.17017e-17
4421.99704 1.17566e-17
4423.50034 1.20138e-17
4425.00364 1.21328e-17
4426.49692 1.22072e-17
4428.00022 1.21974e-17
4429.50352 1.22445e-17
4430.99679 1.23385e-17
4432.50009 1.23141e-17
4434.00339 1.25266e-17
4435.49667 1.27805e-17
4436.99997 1.28158e-17
4438.50327 1.28800e-17
4439.99655 1.30629e-17
4441.49985 1.30523e-17
4443.00315 1.28122e-17
4444.49643 1.28629e-17
4445.99973 1.30265e-17
4447.50303 1.31083e-17
4448.99631 1.33710e-17
4450.49961 1.33870e-17
4452.00291 1.32565e-17
4453.49618 1.33837e-17
4454.99948 1.36040e-17
4456.50278 1.33290e-17
4457.99606 1.32519e-17
4459.49936 1.36067e-17
4461.00266 1.36502e-17
4462.49594 1.38382e-17
4463.99924 1.38751e-17
4465.50254 1.39199e-17
4466.99582 1.42457e-17
4468.49912 1.41587e-17
4470.00242 1.41034e-17
4471.49570 1.41131e-17
4472.99900 1.41587e-17
4474.50230 1.42533e-17
4475.99557 1.41654e-17
4477.49887 1.44210e-17
4479.00217 1.46738e-17
4480.49545 1.47995e-17
4481.99875 1.52712e-17
4483.50205 1.45603e-17
4484.99533 1.47917e-17
4486.49863 1.47240e-17
4488.00193 1.45698e-17
4489.49521 1.47870e-17
4490.99851 1.47414e-17
4492.50181 1.49138e-17
4493.99509 1.49297e-17
4495.49839 1.49478e-17
4497.00169 1.52718e-17
4498.49496 1.54730e-17
4499.99826 1.54600e-17
4501.50156 1.53994e-17
4503.00486 1.53506e-17
4504.49814 1.55302e-17
4506.00144 1.57368e-17
4507.50474 1.58575e-17
4508.99802 1.57061e-17
4510.50132 1.56818e-17
4512.00462 1.57448e-17
4513.49790 1.57463e-17
4515.00120 1.59215e-17
4516.50450 1.58014e-17
4517.99778 1.57157e-17
4519.50108 1.58089e-17
4521.00438 1.58295e-17
4522.49765 1.60191e-17
4524.00095 1.60708e-17
4525.50425 1.61286e-17
4526.99753 1.62220e-17
4528.50083 1.62063e-17
4530.00413 1.61092e-17
4531.49741 1.59755e-17
4533.00071 1.61962e-17
4534.50401 1.66066e-17
4535.99729 1.66109e-17
4537.50059 1.67540e-17
4539.00389 1.66020e-17
4540.49717 1.63973e-17
4542.00047 1.66771e-17
4543.50377 1.64878e-17
4544.99704 1.64847e-17
4546.50034 1.65609e-17
4548.00364 1.64841e-17
4549.49692 1.64502e-17
4551.00022 1.66609e-17
4552.50352 1.68399e-17
4553.99680 1.69253e-17
4555.50010 1.65922e-17
4557.00340 1.65677e-17
4558.49668 1.69346e-17
4559.99998 1.69797e-17
4561.50328 1.70982e-17
4562.99656 1.71914e-17
4564.49986 1.70751e-17
4566.00316 1.70734e-17
4567.49643 1.68508e-17
4568.99973 1.65351e-17
4570.50303 1.66524e-17
4571.99631 1.67727e-17
4573.49961 1.68752e-17
4575.00291 1.69702e-17
4576.49619 1.69502e-17
4577.99949 1.70434e-17
4579.50279 1.70424e-17
4580.99607 1.70161e-17
4582.49937 1.69566e-17
4584.00267 1.70337e-17
4585.49595 1.71288e-17
4586.99925 1.71666e-17
4588.50255 1.70629e-17
4589.99582 1.70080e-17
4591.49912 1.69402e-17
4593.00242 1.68286e-17
4594.49570 1.69400e-17
4595.99900 1.70906e-17
4597.50230 1.69959e-17
4598.99558 1.69260e-17
4600.49888 1.67158e-17
4602.00218 1.65095e-17
4603.49546 1.66695e-17
4604.99876 1.67617e-17
4606.50206 1.68730e-17
4607.99534 1.68268e-17
4609.49864 1.67425e-17
4611.00194 1.68948e-17
4612.49521 1.68521e-17
4613.99851 1.69307e-17
4615.50181 1.67339e-17
4616.99509 1.67306e-17
4618.49839 1.69857e-17
4620.00169 1.64459e-17
4621.49497 1.64747e-17
4622.99827 1.68772e-17
4624.50157 1.66962e-17
4626.00487 1.64740e-17
4627.49815 1.63141e-17
4629.00145 1.62772e-17
4630.50475 1.63277e-17
4631.99803 1.65533e-17
4633.50133 1.63863e-17
4635.00463 1.63393e-17
4636.49790 1.63699e-17
4638.00120 1.60173e-17
4639.50450 1.58707e-17
4640.99778 1.58330e-17
4642.50108 1.60553e-17
4644.00438 1.60602e-17
4645.49766 1.58764e-17
4647.00096 1.57590e-17
4648.50426 1.56738e-17
4649.99754 1.55880e-17
4651.50084 1.56314e-17
4653.00414 1.54674e-17
4654.49742 1.51184e-17
4656.00072 1.52698e-17
4657.50402 1.54524e-17
4658.99729 1.54490e-17
4660.50059 1.52638e-17
4662.00389 1.51383e-17
4663.49717 1.52468e-17
4665.00047 1.52299e-17
4666.50377 1.50797e-17
4667.99705 1.48784e-17
4669.50035 1.46891e-17
4671.00365 1.46385e-17
4672.49693 1.45533e-17
4674.00023 1.45641e-17
4675.50353 1.47178e-17
4676.99681 1.46578e-17
4678.50011 1.45455e-17
4680.00341 1.46393e-17
4681.49668 1.45029e-17
4682.99998 1.43624e-17
4684.50328 1.43680e-17
4685.99656 1.40753e-17
4687.49986 1.41868e-17
4689.00316 1.43436e-17
4690.49644 1.42149e-17
4691.99974 1.39747e-17
4693.50304 1.39877e-17
4694.99632 1.38881e-17
4696.49962 1.37973e-17
4698.00292 1.38525e-17
4699.49620 1.37284e-17
4700.99950 1.37944e-17
4702.50280 1.37338e-17
4703.99607 1.38572e-17
4705.49937 1.37841e-17
4707.00267 1.35114e-17
4708.49595 1.32475e-17
4709.99925 1.31554e-17
4711.50255 1.32002e-17
4712.99583 1.30934e-17
4714.49913 1.30317e-17
4716.00243 1.32432e-17
4717.49571 1.32030e-17
4718.99901 1.30304e-17
4720.50231 1.31659e-17
4721.99559 1.31044e-17
4723.49889 1.29474e-17
4725.00219 1.29557e-17
4726.49546 1.28613e-17
4727.99876 1.28607e-17
4729.50206 1.28256e-17
4730.99534 1.27446e-17
4732.49864 1.30121e-17
4734.00194 1.30265e-17
4735.49522 1.28548e-17
4736.99852 1.29100e-17
4738.50182 1.29852e-17
4739.99510 1.29080e-17
4741.49840 1.29018e-17
4743.00170 1.30508e-17
4744.49498 1.29782e-17
4745.99828 1.29187e-17
4747.50158 1.29251e-17
4749.00488 1.27635e-17
4750.49815 1.26189e-17
4752.00145 1.28577e-17
4753.50475 1.28188e-17
4754.99803 1.27728e-17
4756.50133 1.26272e-17
4758.00463 1.24055e-17
4759.49791 1.24868e-17
4761.00121 1.25649e-17
4762.50451 1.25018e-17
4763.99779 1.24861e-17
4765.50109 1.25064e-17
4767.00439 1.23065e-17
4768.49767 1.21706e-17
4770.00097 1.23759e-17
4771.50427 1.25686e-17
4772.99754 1.24035e-17
4774.50084 1.23666e-17
4776.00414 1.24327e-17
4777.49742 1.24469e-17
4779.00072 1.23262e-17
4780.50402 1.23941e-17
4781.99730 1.26318e-17
4783.50060 1.25516e-17
4785.00390 1.24652e-17
4786.49718 1.26163e-17
4788.00048 1.26069e-17
4789.50378 1.23661e-17
4790.99706 1.25331e-17
4792.50036 1.27649e-17
4794.00366 1.27198e-17
4795.49693 1.26537e-17
4797.00023 1.26141e-17
4798.50353 1.25351e-17
4799.99681 1.26566e-17
4801.50011 1.29092e-17
4803.00341 1.30158e-17
4804.49669 1.29580e-17
4805.99999 1.28149e-17
4807.50329 1.27842e-17
4808.99657 1.29888e-17
4810.49987 1.29750e-17
4812.00317 1.28207e-17
4813.49645 1.28292e-17
4814.99975 1.30062e-17
4816.50305 1.31358e-17
4817.99632 1.31303e-17
4819.49962 1.29673e-17
4821.00292 1.29634e-17
4822.49620 1.29922e-17
4823.99950 1.30378e-17
4825.50280 1.30460e-17
4826.99608 1.30549e-17
4828.49938 1.30475e-17
4830.00268 1.29348e-17
4831.49596 1.29085e-17
4832.99926 1.31067e-17
4834.50256 1.30863e-17
4835.99584 1.29945e-17
4837.49914 1.31406e-17
4839.00244 1.30585e-17
4840.49571 1.28509e-17
4841.99901 1.30229e-17
4843.50231 1.29426e-17
4844.99559 1.30179e-17
4846.49889 1.30872e-17
4848.00219 1.27581e-17
4849.49547 1.27114e-17
4850.99877 1.27185e-17
4852.50207 1.27795e-17
4853.99535 1.27326e-17
4855.49865 1.28713e-17
4857.00195 1.27662e-17
4858.49523 1.26687e-17
4859.99853 1.29183e-17
4861.50183 1.28508e-17
4862.99510 1.27711e-17
4864.49840 1.28203e-17
4866.00170 1.28906e-17
4867.49498 1.28983e-17
4868.99828 1.28929e-17
4870.50158 1.30754e-17
4872.00488 1.31720e-17
4873.49816 1.32423e-17
4875.00146 1.32916e-17
4876.50476 1.31455e-17
4877.99804 1.30613e-17
4879.50134 1.33166e-17
4881.00464 1.34300e-17
4882.49792 1.34646e-17
4884.00122 1.34409e-17
4885.50452 1.34637e-17
4886.99779 1.33106e-17
4888.50109 1.35229e-17
4890.00439 1.34043e-17
4891.49767 1.32564e-17
4893.00097 1.34204e-17
4894.50427 1.34104e-17
4895.99755 1.34429e-17
4897.50085 1.36237e-17
4899.00415 1.36976e-17
4900.49743 1.36137e-17
4902.00073 1.36345e-17
4903.50403 1.38001e-17
4904.99731 1.36258e-17
4906.50061 1.36173e-17
4908.00391 1.35981e-17
4909.49718 1.37402e-17
4911.00048 1.35637e-17
4912.50378 1.35061e-17
4913.99706 1.36472e-17
4915.50036 1.37345e-17
4917.00366 1.35923e-17
4918.49694 1.35487e-17
4920.00024 1.35984e-17
4921.50354 1.35969e-17
4922.99682 1.36054e-17
4924.50012 1.36770e-17
4926.00342 1.35795e-17
4927.49670 1.34733e-17
4929.00000 1.36239e-17
4930.50330 1.37287e-17
4931.99657 1.37664e-17
4933.49987 1.35749e-17
4935.00317 1.35746e-17
4936.49645 1.36492e-17
4937.99975 1.35823e-17
4939.50305 1.37111e-17
4940.99633 1.39403e-17
4942.49963 1.39307e-17
4944.00293 1.38070e-17
4945.49621 1.35496e-17
4946.99951 1.34673e-17
4948.50281 1.35736e-17
4949.99609 1.35645e-17
4951.49939 1.35625e-17
4953.00269 1.37228e-17
4954.49596 1.38214e-17
4955.99926 1.37104e-17
4957.50256 1.37208e-17
4958.99584 1.36212e-17
4960.49914 1.36654e-17
4962.00244 1.37886e-17
4963.49572 1.37884e-17
4964.99902 1.36591e-17
4966.50232 1.34889e-17
4967.99560 1.36325e-17
4969.49890 1.35647e-17
4971.00220 1.34428e-17
4972.49548 1.34930e-17
4973.99878 1.34546e-17
4975.50208 1.34805e-17
4976.99535 1.35445e-17
4978.49865 1.36410e-17
4980.00195 1.32685e-17
4981.49523 1.36914e-17
4982.99853 1.36885e-17
4984.50183 1.34717e-17
4985.99511 1.36057e-17
4987.49841 1.37418e-17
4989.00171 1.38071e-17
4990.49499 1.34678e-17
4991.99829 1.32945e-17
4993.50159 1.33910e-17
4995.00489 1.32800e-17
4996.49817 1.32282e-17
4998.00147 1.32847e-17
4999.50477 1.33811e-17
5000.99804 1.35297e-17
5002.50134 1.32983e-17
5004.00464 1.33400e-17
5005.49792 1.33313e-17
5007.00122 1.33382e-17
5008.50452 1.33489e-17
5009.99780 1.34500e-17
5011.50110 1.34312e-17
5013.00440 1.34014e-17
5014.49768 1.34742e-17
5016.00098 1.35057e-17
5017.50428 1.35441e-17
5018.99756 1.34984e-17
5020.50086 1.34503e-17
5022.00416 1.35503e-17
5023.49743 1.36114e-17
5025.00073 1.35551e-17
5026.50403 1.35204e-17
5027.99731 1.35672e-17
5029.50061 1.36339e-17
5031.00391 1.35173e-17
5032.49719 1.35755e-17
5034.00049 1.36012e-17
5035.50379 1.36724e-17
5036.99707 1.36872e-17
5038.50037 1.37605e-17
5040.00367 1.38195e-17
5041.49695 1.37565e-17
5043.00025 1.36302e-17
5044.50355 1.39187e-17
5045.99682 1.38153e-17
5047.50012 1.39955e-17
5049.00342 1.41519e-17
5050.49670 1.38075e-17
5052.00000 1.38506e-17
5053.50330 1.41410e-17
5054.99658 1.39018e-17
5056.49988 1.40224e-17
5058.00318 1.42368e-17
5059.49646 1.38805e-17
5060.99976 1.38118e-17
5062.50306 1.37893e-17
5063.99634 1.41761e-17
5065.49964 1.42841e-17
5067.00294 1.42380e-17
5068.49621 1.42279e-17
5069.99951 1.41525e-17
5071.50281 1.39935e-17
5072.99609 1.42264e-17
5074.49939 1.41930e-17
5076.00269 1.41895e-17
5077.49597 1.42995e-17
5078.99927 1.43288e-17
5080.50257 1.42886e-17
5081.99585 1.42724e-17
5083.49915 1.44940e-17
5085.00245 1.45689e-17
5086.49573 1.43996e-17
5087.99903 1.43507e-17
5089.50233 1.44964e-17
5090.99560 1.44150e-17
5092.49890 1.44097e-17
5094.00220 1.45181e-17
5095.49548 1.46205e-17
5096.99878 1.48487e-17
5098.50208 1.48456e-17
5099.99536 1.47672e-17
5101.49866 1.49341e-17
5103.00196 1.48088e-17
5104.49524 1.47215e-17
5105.99854 1.47076e-17
5107.50184 1.48373e-17
5108.99512 1.48567e-17
5110.49842 1.50064e-17
5112.00172 1.51303e-17
5113.49499 1.50074e-17
5114.99829 1.51323e-17
5116.50159 1.50496e-17
5118.00489 1.49337e-17
5119.49817 1.51282e-17
5121.00147 1.49495e-17
5122.50477 1.51062e-17
5123.99805 1.49819e-17
5125.50135 1.47787e-17
5127.00465 1.49210e-17
5128.49793 1.52728e-17
5130.00123 1.53419e-17
5131.50453 1.50132e-17
5132.99781 1.53188e-17
5134.50111 1.53942e-17
5136.00441 1.53590e-17
5137.49768 1.53786e-17
5139.00098 1.51585e-17
5140.50428 1.52349e-17
5141.99756 1.53093e-17
5143.50086 1.52795e-17
5145.00416 1.53636e-17
5146.49744 1.54208e-17
5148.00074 1.55795e-17
5149.50404 1.56543e-17
5150.99732 1.54581e-17
5152.50062 1.52889e-17
5154.00392 1.54206e-17
5155.49720 1.56401e-17
5157.00050 1.56279e-17
5158.50380 1.55781e-17
5159.99707 1.57818e-17
5161.50037 1.59373e-17
5163.00367 1.58320e-17
5164.49695 1.57455e-17
5166.00025 1.58280e-17
5167.50355 1.59193e-17
5168.99683 1.59173e-17
5170.50013 1.60561e-17
5172.00343 1.62201e-17
5173.49671 1.62857e-17
5175.00001 1.62727e-17
5176.50331 1.63845e-17
5177.99659 1.63695e-17
5179.49989 1.65917e-17
5181.00319 1.66333e-17
5182.49646 1.65879e-17
5183.99976 1.65767e-17
5185.50306 1.65202e-17
5186.99634 1.66247e-17
5188.49964 1.67904e-17
5190.00294 1.67081e-17
5191.49622 1.67194e-17
5192.99952 1.67120e-17
5194.50282 1.64968e-17
5195.99610 1.66460e-17
5197.49940 1.69456e-17
5199.00270 1.70436e-17
5200.49598 1.67748e-17
5201.99928 1.69857e-17
5203.50258 1.71066e-17
5204.99585 1.70128e-17
5206.49915 1.70909e-17
5208.00245 1.70729e-17
5209.49573 1.71756e-17
5210.99903 1.73416e-17
5212.50233 1.72431e-17
5213.99561 1.72063e-17
5215.49891 1.74570e-17
5217.00221 1.75903e-17
5218.49549 1.74716e-17
5219.99879 1.73886e-17
5221.50209 1.76353e-17
5222.99537 1.78049e-17
5224.49867 1.77601e-17
5226.00197 1.78351e-17
5227.49524 1.79684e-17
5228.99854 1.79835e-17
5230.50184 1.79015e-17
5231.99512 1.78707e-17
5233.49842 1.79457e-17
5235.00172 1.79324e-17
5236.49500 1.80754e-17
5237.99830 1.81848e-17
5239.50160 1.81242e-17
5241.00490 1.80534e-17
5242.49818 1.79754e-17
5244.00148 1.79830e-17
5245.50478 1.81025e-17
5246.99806 1.79918e-17
5248.50136 1.79487e-17
5250.00466 1.80986e-17
5251.49793 1.82253e-17
5253.00123 1.82313e-17
5254.50453 1.81275e-17
5255.99781 1.81911e-17
5257.50111 1.83515e-17
5259.00441 1.85001e-17
5260.49769 1.84642e-17
5262.00099 1.82866e-17
5263.50429 1.82813e-17
5264.99757 1.82648e-17
5266.50087 1.80726e-17
5268.00417 1.81592e-17
5269.49745 1.83838e-17
5271.00075 1.83926e-17
5272.50405 1.84833e-17
5273.99732 1.85165e-17
5275.50062 1.85957e-17
5277.00392 1.86042e-17
5278.49720 1.86229e-17
5280.00050 1.86558e-17
5281.50380 1.85602e-17
5282.99708 1.85384e-17
5284.50038 1.86486e-17
5286.00368 1.87127e-17
5287.49696 1.86102e-17
5289.00026 1.87334e-17
5290.50356 1.88621e-17
5291.99684 1.89132e-17
5293.50014 1.88881e-17
5295.00344 1.88016e-17
5296.49671 1.88273e-17
5298.00001 1.88532e-17
5299.50331 1.88794e-17
5300.99659 1.88326e-17
5302.49989 1.87956e-17
5304.00319 1.87574e-17
5305.49647 1.87619e-17
5306.99977 1.86484e-17
5308.50307 1.87024e-17
5309.99635 1.89841e-17
5311.49965 1.89885e-17
5313.00295 1.88452e-17
5314.49623 1.88665e-17
5315.99953 1.88148e-17
5317.50283 1.87404e-17
5318.99610 1.88895e-17
5320.49940 1.89256e-17
5322.00270 1.87618e-17
5323.49598 1.87772e-17
5324.99928 1.87297e-17
5326.50258 1.86375e-17
5327.99586 1.87196e-17
5329.49916 1.86463e-17
5331.00246 1.87938e-17
5332.49574 1.89342e-17
5333.99904 1.87568e-17
5335.50234 1.87458e-17
5336.99562 1.89700e-17
5338.49892 1.87560e-17
5340.00222 1.87433e-17
5341.49549 1.88613e-17
5342.99879 1.88240e-17
5344.50209 1.89715e-17
5345.99537 1.89926e-17
5347.49867 1.90981e-17
5349.00197 1.92925e-17
5350.49525 1.91482e-17
5351.99855 1.91879e-17
5353.50185 1.91660e-17
5354.99513 1.90945e-17
5356.49843 1.91319e-17
5358.00173 1.90592e-17
5359.49501 1.90622e-17
5360.99831 1.90448e-17
5362.50161 1.90569e-17
5364.00491 1.91450e-17
5365.49818 1.92029e-17
5367.00148 1.91385e-17
5368.50478 1.91515e-17
5369.99806 1.92484e-17
5371.50136 1.93651e-17
5373.00466 1.92974e-17
5374.49794 1.93340e-17
5376.00124 1.94829e-17
5377.50454 1.95151e-17
5378.99782 1.96457e-17
5380.50112 1.95989e-17
5382.00442 1.94945e-17
5383.49770 1.93963e-17
5385.00100 1.92806e-17
5386.50430 1.94858e-17
5387.99757 1.96355e-17
5389.50087 1.96319e-17
5391.00417 1.95887e-17
5392.49745 1.97309e-17
5394.00075 1.96854e-17
5395.50405 1.95613e-17
5396.99733 1.96858e-17
5398.50063 1.94523e-17
5400.00393 1.96204e-17
5401.49721 1.98015e-17
5403.00051 1.98416e-17
5404.50381 1.96176e-17
5405.99709 1.94860e-17
5407.50039 1.97066e-17
5409.00369 1.96549e-17
5410.49696 1.95115e-17
5412.00026 1.97194e-17
5413.50356 1.95160e-17
5414.99684 1.96982e-17
5416.50014 1.97439e-17
5418.00344 1.96448e-17
5419.49672 1.97443e-17
5421.00002 1.96586e-17
5422.50332 1.97122e-17
5423.99660 1.97963e-17
5425.49990 1.96601e-17
5427.00320 1.96287e-17
5428.49648 1.97651e-17
5429.99978 1.96193e-17
5431.50308 1.96880e-17
5432.99635 1.96644e-17
5434.49965 1.98000e-17
5436.00295 1.98514e-17
5437.49623 1.97559e-17
5438.99953 1.95819e-17
5440.50283 1.97300e-17
5441.99611 1.99354e-17
5443.49941 1.98137e-17
5445.00271 1.97445e-17
5446.49599 1.97535e-17
5447.99929 1.97924e-17
5449.50259 1.97401e-17
5450.99587 1.95593e-17
5452.49917 1.95701e-17
5454.00247 1.97463e-17
5455.49574 1.97862e-17
5456.99904 1.97555e-17
5458.50234 1.95198e-17
5459.99562 1.94897e-17
5461.49892 1.96879e-17
5463.00222 1.95262e-17
5464.49550 1.96135e-17
5465.99880 1.93863e-17
5467.50210 1.91813e-17
5468.99538 1.92431e-17
5470.49868 1.93903e-17
5472.00198 1.92893e-17
5473.49526 1.92432e-17
5474.99856 1.93227e-17
5476.50186 1.92104e-17
5477.99513 1.90356e-17
5479.49843 1.88558e-17
5481.00173 1.90227e-17
5482.49501 1.87895e-17
5483.99831 1.87853e-17
5485.50161 1.90602e-17
5487.00491 1.87562e-17
5488.49819 1.85268e-17
5490.00149 1.88431e-17
5491.50479 1.90057e-17
5492.99807 1.88662e-17
5494.50137 1.87960e-17
5496.00467 1.88425e-17
5497.49795 1.87077e-17
5499.00125 1.85573e-17
5500.50455 1.86062e-17
5501.99782 1.84536e-17
5503.50112 1.84434e-17
5505.00442 1.84780e-17
5506.49770 1.84441e-17
5508.00100 1.84106e-17
5509.50430 1.84700e-17
5510.99758 1.86146e-17
5512.50088 1.85242e-17
5514.00418 1.82390e-17
5515.49746 1.81750e-17
5517.00076 1.82539e-17
5518.50406 1.82149e-17
5519.99734 1.83138e-17
5521.50064 1.83961e-17
5523.00394 1.81509e-17
5524.49721 1.80645e-17
5526.00051 1.79979e-17
5527.50381 1.79759e-17
5528.99709 1.79920e-17
5530.50039 1.80500e-17
5532.00369 1.80496e-17
5533.49697 1.79996e-17
5535.00027 1.79399e-17
5536.50357 1.80518e-17
5537.99685 1.79148e-17
5539.50015 1.77815e-17
5541.00345 1.78971e-17
5542.49673 1.79036e-17
5544.00003 1.79745e-17
5545.50333 1.78102e-17
5546.99660 1.77227e-17
5548.49990 1.76460e-17
5550.00320 1.76652e-17
5551.49648 1.77869e-17
5552.99978 1.75491e-17
5554.50308 1.74308e-17
5555.99636 1.73459e-17
5557.49966 1.72752e-17
5559.00296 1.73489e-17
5560.49624 1.72324e-17
5561.99954 1.75548e-17
5563.50284 1.76401e-17
5564.99612 1.74788e-17
5566.49942 1.75240e-17
5568.00272 1.73954e-17
5569.49599 1.72775e-17
5570.99929 1.71367e-17
5572.50259 1.72699e-17
5573.99587 1.73529e-17
5575.49917 1.72119e-17
5577.00247 1.69766e-17
5578.49575 1.68475e-17
5579.99905 1.69368e-17
5581.50235 1.69209e-17
5582.99563 1.67231e-17
5584.49893 1.67273e-17
5586.00223 1.67454e-17
5587.49551 1.68436e-17
5588.99881 1.68254e-17
5590.50211 1.67367e-17
5591.99538 1.67242e-17
5593.49868 1.65938e-17
5595.00198 1.64763e-17
5596.49526 1.66256e-17
5597.99856 1.67084e-17
5599.50186 1.66510e-17
5600.99514 1.64561e-17
5602.49844 1.63367e-17
5604.00174 1.63800e-17
5605.49502 1.63532e-17
5606.99832 1.63116e-17
5608.50162 1.62580e-17
5610.00492 1.61776e-17
5611.49820 1.60562e-17
5613.00150 1.61427e-17
5614.50480 1.61298e-17
5615.99807 1.58816e-17
5617.50137 1.57943e-17
5619.00467 1.59085e-17
5620.49795 1.58197e-17
5622.00125 1.57536e-17
5623.50455 1.55676e-17
5624.99783 1.55379e-17
5626.50113 1.57072e-17
5628.00443 1.53337e-17
5629.49771 1.53378e-17
5631.00101 1.55135e-17
5632.50431 1.54097e-17
5633.99759 1.54373e-17
5635.50089 1.53719e-17
5637.00419 1.50125e-17
5638.49746 1.50561e-17
5640.00076 1.51958e-17
5641.50406 1.50467e-17
5642.99734 1.49372e-17
5644.50064 1.48322e-17
5646.00394 1.48076e-17
5647.49722 1.46800e-17
5649.00052 1.47657e-17
5650.50382 1.48895e-17
5651.99710 1.46812e-17
5653.50040 1.45745e-17
5655.00370 1.46091e-17
5656.49698 1.45104e-17
5658.00028 1.43670e-17
5659.50358 1.44096e-17
5660.99685 1.44567e-17
5662.50015 1.42730e-17
5664.00345 1.41952e-17
5665.49673 1.43921e-17
5667.00003 1.43630e-17
5668.50333 1.41544e-17
5669.99661 1.40732e-17
5671.49991 1.39844e-17
5673.00321 1.40352e-17
5674.49649 1.41479e-17
5675.99979 1.39671e-17
5677.50309 1.39078e-17
5678.99637 1.39590e-17
5680.49967 1.39986e-17
5682.00297 1.39203e-17
5683.49624 1.39002e-17
5684.99954 1.38679e-17
5686.50284 1.38008e-17
5687.99612 1.38578e-17
5689.49942 1.37458e-17
5691.00272 1.36491e-17
5692.49600 1.35042e-17
5693.99930 1.35472e-17
5695.50260 1.36363e-17
5696.99588 1.36410e-17
5698.49918 1.36225e-17
5700.00248 1.37417e-17
5701.49576 1.36465e-17
5702.99906 1.35086e-17
5704.50236 1.34921e-17
5705.99563 1.35699e-17
5707.49893 1.35580e-17
5709.00223 1.35182e-17
5710.49551 1.36266e-17
5711.99881 1.38909e-17
5713.50211 1.37250e-17
5714.99539 1.37385e-17
5716.49869 1.38396e-17
5718.00199 1.37351e-17
5719.49527 1.36829e-17
5720.99857 1.37839e-17
5722.50187 1.38145e-17
5723.99515 1.38120e-17
5725.49845 1.37496e-17
5727.00175 1.38418e-17
5728.49502 1.39207e-17
5729.99832 1.38382e-17
5731.50162 1.38647e-17
5733.00492 1.39106e-17
5734.49820 1.38782e-17
5736.00150 1.38316e-17
5737.50480 1.37686e-17
5738.99808 1.37624e-17
5740.50138 1.38501e-17
5742.00468 1.39069e-17
5743.49796 1.39232e-17
5745.00126 1.37895e-17
5746.50456 1.36763e-17
5747.99784 1.38102e-17
5749.50114 1.36260e-17
5751.00444 1.36006e-17
5752.49771 1.39408e-17
5754.00101 1.40050e-17
5755.50431 1.38338e-17
5756.99759 1.38063e-17
5758.50089 1.38450e-17
5760.00419 1.40224e-17
5761.49747 1.41854e-17
5763.00077 1.42009e-17
5764.50407 1.36547e-17
5765.99735 1.37818e-17
5767.50065 1.40292e-17
5769.00395 1.41143e-17
5770.49723 1.41186e-17
5772.00053 1.39647e-17
5773.50383 1.40210e-17
5774.99710 1.39658e-17
5776.50040 1.41485e-17
5778.00370 1.40956e-17
5779.49698 1.38806e-17
5781.00028 1.37840e-17
5782.50358 1.40844e-17
5783.99686 1.41179e-17
5785.50016 1.40459e-17
5787.00346 1.41741e-17
5788.49674 1.42095e-17
5790.00004 1.41152e-17
5791.50334 1.41418e-17
5792.99662 1.41937e-17
5794.49992 1.42312e-17
5796.00322 1.42638e-17
5797.49649 1.42584e-17
5798.99979 1.42391e-17
5800.50309 1.41625e-17
5801.99637 1.42297e-17
5803.49967 1.42076e-17
5805.00297 1.40970e-17
5806.49625 1.42234e-17
5807.99955 1.42802e-17
5809.50285 1.41082e-17
5810.99613 1.41875e-17
5812.49943 1.41548e-17
5814.00273 1.40775e-17
5815.49601 1.41366e-17
5816.99931 1.41352e-17
5818.50261 1.40931e-17
5819.99588 1.41847e-17
5821.49918 1.41617e-17
5823.00248 1.39970e-17
5824.49576 1.40735e-17
5825.99906 1.43383e-17
5827.50236 1.42310e-17
5828.99564 1.41380e-17
5830.49894 1.42707e-17
5832.00224 1.41485e-17
5833.49552 1.41183e-17
5834.99882 1.41732e-17
5836.50212 1.41857e-17
5837.99540 1.41627e-17
5839.49870 1.41344e-17
5841.00200 1.40690e-17
5842.49527 1.41103e-17
5843.99857 1.40361e-17
5845.50187 1.40760e-17
5846.99515 1.40340e-17
5848.49845 1.40245e-17
5850.00175 1.40934e-17
5851.49503 1.40851e-17
5852.99833 1.41870e-17
5854.50163 1.41276e-17
5856.00493 1.39409e-17
5857.49821 1.39414e-17
5859.00151 1.39288e-17
5860.50481 1.39848e-17
5861.99809 1.41679e-17
5863.50139 1.43915e-17
5865.00469 1.43057e-17
5866.49796 1.40594e-17
5868.00126 1.40157e-17
5869.50456 1.40109e-17
5870.99784 1.40016e-17
5872.50114 1.39908e-17
5874.00444 1.39726e-17
5875.49772 1.39518e-17
5877.00102 1.39556e-17
5878.50432 1.41763e-17
5879.99760 1.42926e-17
5881.50090 1.40806e-17
5883.00420 1.38560e-17
5884.49748 1.37707e-17
5886.00078 1.35448e-17
5887.50408 1.33473e-17
5888.99735 1.33034e-17
5890.50065 1.33109e-17
5892.00395 1.33413e-17
5893.49723 1.33162e-17
5895.00053 1.32909e-17
5896.50383 1.31818e-17
5897.99711 1.31353e-17
5899.50041 1.33693e-17
5901.00371 1.34460e-17
5902.49699 1.35140e-17
5904.00029 1.36739e-17
5905.50359 1.37763e-17
5906.99687 1.38313e-17
5908.50017 1.35724e-17
5910.00347 1.34911e-17
5911.49674 1.36191e-17
5913.00004 1.35699e-17
5914.50334 1.34586e-17
5915.99662 1.37398e-17
5917.49992 1.35927e-17
5919.00322 1.33492e-17
5920.49650 1.33027e-17
5921.99980 1.33522e-17
5923.50310 1.34408e-17
5924.99638 1.34944e-17
5926.49968 1.34967e-17
5928.00298 1.35683e-17
5929.49626 1.34987e-17
5930.99956 1.33169e-17
5932.50286 1.33882e-17
5933.99613 1.34079e-17
5935.49943 1.33119e-17
5937.00273 1.33118e-17
5938.49601 1.33297e-17
5939.99931 1.33125e-17
5941.50261 1.32386e-17
5942.99589 1.32560e-17
5944.49919 1.33113e-17
5946.00249 1.32497e-17
5947.49577 1.32164e-17
5948.99907 1.32476e-17
5950.50237 1.31911e-17
5951.99565 1.31549e-17
5953.49895 1.31236e-17
5955.00225 1.31363e-17
5956.49552 1.32002e-17
5957.99882 1.30464e-17
5959.50212 1.29463e-17
5960.99540 1.29607e-17
5962.49870 1.30900e-17
5964.00200 1.31483e-17
5965.49528 1.31168e-17
5966.99858 1.31175e-17
5968.50188 1.29699e-17
5970.00518 1.29617e-17
5971.49846 1.29746e-17
5973.00176 1.28988e-17
5974.49504 1.29044e-17
5975.99834 1.29770e-17
5977.50164 1.29527e-17
5979.00494 1.28098e-17
5980.49821 1.27961e-17
5982.00151 1.29464e-17
5983.50481 1.28279e-17
5984.99809 1.29412e-17
5986.50139 1.30139e-17
5988.00469 1.29283e-17
5989.49797 1.30414e-17
5991.00127 1.30987e-17
5992.50457 1.29051e-17
5993.99785 1.30847e-17
5995.50115 1.29653e-17
5997.00445 1.28203e-17
5998.49773 1.28906e-17
6000.00103 1.28617e-17
6001.50433 1.27785e-17
6002.99760 1.29619e-17
6004.50090 1.29313e-17
6006.00420 1.30594e-17
6007.49748 1.29677e-17
6009.00078 1.28488e-17
6010.50408 1.27561e-17
6011.99736 1.27086e-17
6013.50066 1.26601e-17
6015.00396 1.26602e-17
6016.49724 1.27608e-17
6018.00054 1.27550e-17
6019.50384 1.27745e-17
6020.99712 1.27768e-17
6022.50042 1.27546e-17
6024.00372 1.27530e-17
6025.49699 1.27141e-17
6027.00029 1.27206e-17
6028.50359 1.26578e-17
6029.99687 1.25774e-17
6031.50017 1.25863e-17
6033.00347 1.26004e-17
6034.49675 1.25715e-17
6036.00005 1.25386e-17
6037.50335 1.25206e-17
6038.99663 1.23863e-17
6040.49993 1.22987e-17
6042.00323 1.22111e-17
6043.49651 1.21235e-17
6044.99981 1.21028e-17
6046.50311 1.21101e-17
6047.99638 1.21953e-17
6049.49968 1.21905e-17
6051.00298 1.20469e-17
6052.49626 1.19412e-17
6053.99956 1.20994e-17
6055.50286 1.21674e-17
6056.99614 1.22078e-17
6058.49944 1.20355e-17
6060.00274 1.18378e-17
6061.49602 1.19312e-17
6062.99932 1.19807e-17
6064.50262 1.19615e-17
6065.99590 1.18872e-17
6067.49920 1.18105e-17
6069.00250 1.18125e-17
6070.49577 1.18511e-17
6071.99907 1.19126e-17
6073.50237 1.20040e-17
6074.99565 1.19310e-17
6076.49895 1.16997e-17
6078.00225 1.17282e-17
6079.49553 1.18747e-17
6080.99883 1.19022e-17
6082.50213 1.18036e-17
6083.99541 1.17418e-17
6085.49871 1.17053e-17
6087.00201 1.16058e-17
6088.49529 1.16159e-17
6089.99859 1.16816e-17
6091.50189 1.17666e-17
6092.99516 1.18175e-17
6094.49846 1.17909e-17
6096.00176 1.17400e-17
6097.49504 1.17102e-17
6098.99834 1.16165e-17
6100.50164 1.15947e-17
6101.99492 1.17591e-17
6103.49822 1.17251e-17
6105.00152 1.16626e-17
6106.50482 1.18121e-17
6107.99810 1.18701e-17
6109.50140 1.17642e-17
6111.00470 1.17400e-17
6112.49798 1.18065e-17
6114.00128 1.18557e-17
6115.50458 1.17888e-17
6116.99785 1.17556e-17
6118.50115 1.18236e-17
6120.00445 1.18249e-17
6121.49773 1.16805e-17
6123.00103 1.17532e-17
6124.50433 1.17643e-17
6125.99761 1.17016e-17
6127.50091 1.17786e-17
6129.00421 1.16746e-17
6130.49749 1.17729e-17
6132.00079 1.17996e-17
6133.50409 1.17368e-17
6134.99737 1.15978e-17
6136.50067 1.17066e-17
6138.00397 1.16770e-17
6139.49724 1.16289e-17
6141.00054 1.17571e-17
6142.50384 1.16522e-17
6143.99712 1.16680e-17
6145.50042 1.16046e-17
6147.00372 1.15769e-17
6148.49700 1.15600e-17
6150.00030 1.15627e-17
6151.50360 1.14625e-17
6152.99688 1.14279e-17
6154.50018 1.13868e-17
6156.00348 1.12443e-17
6157.49676 1.12990e-17
6159.00006 1.13407e-17
6160.50336 1.12916e-17
6161.99663 1.12164e-17
6163.49993 1.11055e-17
6165.00323 1.11260e-17
6166.49651 1.11525e-17
6167.99981 1.11341e-17
6169.50311 1.11264e-17
6170.99639 1.11860e-17
6172.49969 1.12354e-17
6174.00299 1.11979e-17
6175.49627 1.12016e-17
6176.99957 1.12161e-17
6178.50287 1.11787e-17
6179.99615 1.12192e-17
6181.49945 1.13243e-17
6183.00275 1.12320e-17
6184.49602 1.10379e-17
6185.99932 1.11360e-17
6187.50262 1.11917e-17
6188.99590 1.13160e-17
6190.49920 1.13976e-17
6192.00250 1.11668e-17
6193.49578 1.11810e-17
6194.99908 1.13306e-17
6196.50238 1.14170e-17
6197.99566 1.12067e-17
6199.49896 1.12122e-17
6201.00226 1.11789e-17
6202.49554 1.13084e-17
6203.99884 1.13625e-17
6205.50214 1.12495e-17
6206.99541 1.12943e-17
6208.49871 1.13757e-17
6210.00201 1.16288e-17
6211.49529 1.14977e-17
6212.99859 1.14255e-17
6214.50189 1.13172e-17
6215.99517 1.13629e-17
6217.49847 1.13197e-17
6219.00177 1.14019e-17
6220.49505 1.14551e-17
6221.99835 1.14497e-17
6223.50165 1.14244e-17
6224.99493 1.14872e-17
6226.49823 1.15173e-17
6228.00153 1.15401e-17
6229.50483 1.15465e-17
6230.99810 1.15688e-17
6232.50140 1.16530e-17
6234.00470 1.16236e-17
6235.49798 1.15326e-17
6237.00128 1.16006e-17
6238.50458 1.17735e-17
6239.99786 1.18087e-17
6241.50116 1.17811e-17
6243.00446 1.16666e-17
6244.49774 1.16886e-17
6246.00104 1.18416e-17
6247.50434 1.20319e-17
6248.99762 1.19066e-17
6250.50092 1.18042e-17
6252.00422 1.18209e-17
6253.49749 1.18255e-17
6255.00079 1.19371e-17
6256.50409 1.21899e-17
6257.99737 1.20672e-17
6259.50067 1.19154e-17
6261.00397 1.20552e-17
6262.49725 1.20226e-17
6264.00055 1.21288e-17
6265.50385 1.21652e-17
6266.99713 1.21977e-17
6268.50043 1.23443e-17
6270.00373 1.24742e-17
6271.49701 1.21818e-17
6273.00031 1.19259e-17
6274.50361 1.20581e-17
6275.99688 1.22036e-17
6277.50018 1.22443e-17
6279.00348 1.20881e-17
6280.49676 1.21092e-17
6282.00006 1.22725e-17
6283.50336 1.22322e-17
6284.99664 1.24453e-17
6286.49994 1.25517e-17
6288.00324 1.26385e-17
6289.49652 1.26483e-17
6290.99982 1.24909e-17
6292.50312 1.23997e-17
6293.99640 1.26108e-17
6295.49970 1.26845e-17
6297.00300 1.25712e-17
6298.49627 1.25998e-17
6299.99957 1.25969e-17
6301.50287 1.27143e-17
6302.99615 1.27645e-17
6304.49945 1.26716e-17
6306.00275 1.26892e-17
6307.49603 1.25791e-17
6308.99933 1.25084e-17
6310.50263 1.27107e-17
6311.99591 1.28918e-17
6313.49921 1.29369e-17
6315.00251 1.28934e-17
6316.49579 1.28981e-17
6317.99909 1.30023e-17
6319.50239 1.29009e-17
6320.99566 1.28210e-17
6322.49896 1.28462e-17
6324.00226 1.28657e-17
6325.49554 1.30155e-17
6326.99884 1.30805e-17
6328.50214 1.30818e-17
6329.99542 1.30874e-17
6331.49872 1.28711e-17
6333.00202 1.28996e-17
6334.49530 1.30576e-17
6335.99860 1.30788e-17
6337.50190 1.31565e-17
6338.99518 1.31880e-17
6340.49848 1.30021e-17
6342.00178 1.30605e-17
6343.49505 1.30696e-17
6344.99835 1.31898e-17
6346.50165 1.32495e-17
6347.99493 1.30885e-17
6349.49823 1.32508e-17
6351.00153 1.36021e-17
6352.50483 1.32843e-17
6353.99811 1.31292e-17
6355.50141 1.30538e-17
6357.00471 1.31058e-17
6358.49799 1.31188e-17
6360.00129 1.32681e-17
6361.50459 1.33172e-17
6362.99787 1.32740e-17
6364.50117 1.31262e-17
6366.00447 1.31126e-17
6367.49774 1.30327e-17
6369.00104 1.30444e-17
6370.50434 1.29754e-17
6371.99762 1.30440e-17
6373.50092 1.31191e-17
6375.00422 1.31383e-17
6376.49750 1.31509e-17
6378.00080 1.30645e-17
6379.50410 1.30378e-17
6380.99738 1.30338e-17
6382.50068 1.30222e-17
6384.00398 1.31456e-17
6385.49726 1.32070e-17
6387.00056 1.30937e-17
6388.50386 1.29961e-17
6389.99713 1.30379e-17
6391.50043 1.30393e-17
6393.00373 1.29211e-17
6394.49701 1.29188e-17
6396.00031 1.29968e-17
6397.50361 1.29007e-17
6398.99689 1.29516e-17
6400.50019 1.29244e-17
6402.00349 1.30050e-17
6403.49677 1.28941e-17
6405.00007 1.28712e-17
6406.50337 1.28858e-17
6407.99665 1.28434e-17
6409.49995 1.28980e-17
6411.00325 1.30834e-17
6412.49652 1.29576e-17
6413.99982 1.29833e-17
6415.50312 1.29862e-17
6416.99640 1.29010e-17
6418.49970 1.28195e-17
6420.00300 1.29558e-17
6421.49628 1.30076e-17
6422.99958 1.29852e-17
6424.50288 1.29922e-17
6425.99616 1.30355e-17
6427.49946 1.29063e-17
6429.00276 1.29662e-17
6430.49604 1.29546e-17
6431.99934 1.29255e-17
6433.50264 1.29427e-17
6434.99591 1.30066e-17
6436.49921 1.30142e-17
6438.00251 1.30670e-17
6439.49579 1.30850e-17
6440.99909 1.29500e-17
6442.50239 1.27667e-17
6443.99567 1.26909e-17
6445.49897 1.28288e-17
6447.00227 1.28225e-17
6448.49555 1.27644e-17
6449.99885 1.28498e-17
6451.50215 1.28094e-17
6452.99543 1.27620e-17
6454.49873 1.27659e-17
6456.00203 1.27308e-17
6457.49530 1.28035e-17
6458.99860 1.28170e-17
6460.50190 1.27750e-17
6461.99518 1.28293e-17
6463.49848 1.27823e-17
6465.00178 1.27941e-17
6466.49506 1.27693e-17
6467.99836 1.27170e-17
6469.50166 1.27561e-17
6470.99494 1.27327e-17
6472.49824 1.26779e-17
6474.00154 1.26349e-17
6475.50484 1.24809e-17
6476.99812 1.24112e-17
6478.50142 1.25158e-17
6480.00472 1.26082e-17
6481.49799 1.26595e-17
6483.00129 1.26229e-17
6484.50459 1.24663e-17
6485.99787 1.25372e-17
6487.50117 1.27227e-17
6489.00447 1.26322e-17
6490.49775 1.26118e-17
6492.00105 1.26578e-17
6493.50435 1.25825e-17
6494.99763 1.26926e-17
6496.50093 1.28065e-17
6498.00423 1.27895e-17
6499.49751 1.27283e-17
6501.00081 1.26417e-17
6502.50411 1.27018e-17
6503.99738 1.27569e-17
6505.50068 1.27635e-17
6507.00398 1.28066e-17
6508.49726 1.27123e-17
6510.00056 1.27055e-17
6511.50386 1.27422e-17
6512.99714 1.26074e-17
6514.50044 1.26582e-17
6516.00374 1.27351e-17
6517.49702 1.26854e-17
6519.00032 1.27241e-17
6520.50362 1.27214e-17
6521.99690 1.28059e-17
6523.50020 1.28291e-17
6525.00350 1.27805e-17
6526.49677 1.28669e-17
6528.00007 1.28174e-17
6529.50337 1.26844e-17
6530.99665 1.26365e-17
6532.49995 1.26730e-17
6534.00325 1.26768e-17
6535.49653 1.26949e-17
6536.99983 1.25578e-17
6538.50313 1.24941e-17
6539.99641 1.24875e-17
6541.49971 1.25692e-17
6543.00301 1.25934e-17
6544.49629 1.25525e-17
6545.99959 1.25490e-17
6547.50289 1.25676e-17
6548.99616 1.25499e-17
6550.49946 1.25351e-17
6552.00276 1.26063e-17
6553.49604 1.25818e-17
6554.99934 1.22918e-17
6556.50264 1.23988e-17
6557.99592 1.24601e-17
6559.49922 1.23628e-17
6561.00252 1.24579e-17
6562.49580 1.23708e-17
6563.99910 1.24164e-17
6565.50240 1.24962e-17
6566.99568 1.23519e-17
6568.49898 1.23262e-17
6570.00228 1.24391e-17
6571.49555 1.24719e-17
6572.99885 1.24767e-17
6574.50215 1.24263e-17
6575.99543 1.23894e-17
6577.49873 1.24080e-17
6579.00203 1.23081e-17
6580.49531 1.21766e-17
6581.99861 1.19962e-17
6583.50191 1.21004e-17
6584.99519 1.22382e-17
6586.49849 1.21226e-17
6588.00179 1.20155e-17
6589.49507 1.20245e-17
6590.99837 1.20539e-17
6592.50167 1.20904e-17
6593.99494 1.21033e-17
6595.49824 1.19961e-17
6597.00154 1.19383e-17
6598.50484 1.19564e-17
6599.99812 1.19976e-17
6601.50142 1.20261e-17
6603.00472 1.19733e-17
6604.49800 1.19054e-17
6606.00130 1.19421e-17
6607.50460 1.19238e-17
6608.99788 1.19281e-17
6610.50118 1.19219e-17
6612.00448 1.18473e-17
6613.49776 1.19321e-17
6615.00106 1.18948e-17
6616.50436 1.17525e-17
6617.99763 1.17522e-17
6619.50093 1.17413e-17
6621.00423 1.17966e-17
6622.49751 1.19093e-17
6624.00081 1.16868e-17
6625.50411 1.17701e-17
6626.99739 1.17721e-17
6628.50069 1.18061e-17
6630.00399 1.17405e-17
6631.49727 1.16772e-17
6633.00057 1.17109e-17
6634.50387 1.16257e-17
6635.99715 1.17065e-17
6637.50045 1.15420e-17
6639.00375 1.15495e-17
6640.49702 1.16153e-17
6642.00032 1.16998e-17
6643.50362 1.16529e-17
6644.99690 1.16146e-17
6646.50020 1.16325e-17
6648.00350 1.14908e-17
6649.49678 1.14688e-17
6651.00008 1.15686e-17
6652.50338 1.14607e-17
6653.99666 1.14251e-17
6655.49996 1.14910e-17
6657.00326 1.14274e-17
6658.49654 1.13372e-17
6659.99984 1.13727e-17
6661.50314 1.13458e-17
6662.99641 1.13081e-17
6664.49971 1.13797e-17
6666.00301 1.13953e-17
6667.49629 1.13129e-17
6668.99959 1.12421e-17
6670.50289 1.12297e-17
6671.99617 1.11471e-17
6673.49947 1.11242e-17
6675.00277 1.11938e-17
6676.49605 1.12542e-17
6677.99935 1.11679e-17
6679.50265 1.10931e-17
6680.99593 1.11103e-17
6682.49923 1.12761e-17
6684.00253 1.12705e-17
6685.49580 1.10637e-17
6686.99910 1.11260e-17
6688.50240 1.11267e-17
6689.99568 1.10666e-17
6691.49898 1.11731e-17
6693.00228 1.11271e-17
6694.49556 1.09549e-17
6695.99886 1.09610e-17
6697.50216 1.09664e-17
6698.99544 1.09839e-17
6700.49874 1.09560e-17
6702.00204 1.11006e-17
6703.49532 1.10739e-17
6704.99862 1.09654e-17
6706.50192 1.08702e-17
6707.99519 1.10163e-17
6709.49849 1.11009e-17
6711.00179 1.09939e-17
6712.49507 1.08729e-17
6713.99837 1.08952e-17
6715.50167 1.09377e-17
6716.99495 1.08762e-17
6718.49825 1.09382e-17
6720.00155 1.09314e-17
6721.50485 1.09020e-17
6722.99813 1.08552e-17
6724.50143 1.07754e-17
6726.00473 1.07892e-17
6727.49801 1.08783e-17
6729.00131 1.08471e-17
6730.50461 1.07867e-17
6731.99788 1.08073e-17
6733.50118 1.08183e-17
6735.00448 1.08302e-17
6736.49776 1.07724e-17
6738.00106 1.06423e-17
6739.50436 1.05624e-17
6740.99764 1.05777e-17
6742.50094 1.06890e-17
6744.00424 1.07671e-17
6745.49752 1.06666e-17
6747.00082 1.05844e-17
6748.50412 1.06178e-17
6749.99740 1.07487e-17
6751.50070 1.07604e-17
6753.00400 1.05890e-17
6754.49727 1.05089e-17
6756.00057 1.06167e-17
6757.50387 1.05464e-17
6758.99715 1.04618e-17
6760.50045 1.04804e-17
6762.00375 1.05142e-17
6763.49703 1.03517e-17
6765.00033 1.03297e-17
6766.50363 1.02879e-17
6767.99691 1.04058e-17
6769.50021 1.05546e-17
6771.00351 1.03701e-17
6772.49679 1.02265e-17
6774.00009 1.03722e-17
6775.50339 1.02493e-17
6776.99666 1.03105e-17
6778.49996 1.03578e-17
6780.00326 1.01763e-17
6781.49654 1.00603e-17
6782.99984 1.01377e-17
6784.50314 1.02942e-17
6785.99642 1.02279e-17
6787.49972 9.95643e-18
6789.00302 1.00959e-17
6790.49630 1.02649e-17
6791.99960 1.00902e-17
6793.50290 1.00582e-17
6794.99618 9.94080e-18
6796.49948 9.95227e-18
6798.00278 1.00386e-17
6799.49605 9.90953e-18
6800.99935 9.86443e-18
6802.50265 9.99294e-18
6803.99593 9.99146e-18
6805.49923 9.85852e-18
6807.00253 9.81885e-18
6808.49581 9.94740e-18
6809.99911 1.00054e-17
6811.50241 9.95710e-18
6812.99569 9.85795e-18
6814.49899 9.85777e-18
6816.00229 9.86608e-18
6817.49557 9.89468e-18
6818.99887 9.88782e-18
6820.50217 9.79955e-18
6821.99544 9.81922e-18
6823.49874 9.73921e-18
6825.00204 9.73191e-18
6826.49532 9.79957e-18
6827.99862 9.86977e-18
6829.50192 9.73540e-18
6830.99520 9.71883e-18
6832.49850 9.63218e-18
6834.00180 9.55774e-18
6835.49508 9.62065e-18
6836.99838 9.63347e-18
6838.50168 9.81991e-18
6839.99496 9.77079e-18
6841.49826 9.90386e-18
6843.00156 9.90141e-18
6844.50486 9.94530e-18
6845.99813 9.93751e-18
6847.50143 9.92972e-18
6849.00473 9.92193e-18
6850.49801 9.91414e-18
6852.00131 9.90635e-18
6853.50461 9.89856e-18
6854.99789 9.89077e-18
6856.50119 9.88299e-18
6858.00449 9.87520e-18
6859.49777 9.86741e-18
6861.00107 9.85963e-18
6862.50437 9.85184e-18
6863.99765 9.84405e-18
6865.50095 9.83627e-18
6867.00425 9.82849e-18
6868.49752 9.82071e-18
6870.00082 9.81292e-18
6871.50412 9.80514e-18
6872.99740 9.79736e-18
6874.50070 9.78958e-18
6876.00400 9.78180e-18
6877.49728 9.77402e-18
6879.00058 9.76624e-18
6880.50388 9.75846e-18
6881.99716 9.75068e-18
6883.50046 9.74291e-18
6885.00376 9.73513e-18
6886.49704 9.72736e-18
6888.00034 9.71958e-18
6889.50364 9.71180e-18
6890.99691 9.70403e-18
6892.50021 9.69626e-18
6894.00351 9.68848e-18
6895.49679 9.68071e-18
6897.00009 9.67294e-18
6898.50339 9.66517e-18
6899.99667 9.65739e-18
6901.49997 9.64963e-18
6903.00327 9.64186e-18
6904.49655 9.63409e-18
6905.99985 9.62632e-18
6907.50315 9.61855e-18
6908.99643 9.61078e-18
6910.49973 9.60302e-18
6912.00303 9.59525e-18
6913.49630 9.58748e-18
6914.99960 9.57972e-18
6916.50290 9.57195e-18
6917.99618 9.56419e-18
6919.49948 9.55643e-18
6921.00278 9.54866e-18
6922.49606 9.54090e-18
6923.99936 9.53314e-18
6925.50266 9.52538e-18
6926.99594 9.51762e-18
6928.49924 9.50986e-18
6930.00254 9.50210e-18
6931.49582 9.49434e-18
6932.99912 9.48658e-18
6934.50242 9.47883e-18
6935.99569 9.47107e-18
6937.49899 9.67351e-18
6939.00229 9.53092e-18
6940.49557 9.35470e-18
6941.99887 9.43438e-18
6943.50217 9.41726e-18
6944.99545 9.51446e-18
6946.49875 9.64033e-18
6948.00205 9.61727e-18
6949.49533 9.54437e-18
6950.99863 9.48076e-18
6952.50193 9.54165e-18
6953.99521 9.47873e-18
6955.49851 9.33390e-18
6957.00181 9.27871e-18
6958.50511 9.30187e-18
6959.99838 9.45045e-18
6961.50168 9.56180e-18
6962.99496 9.51302e-18
6964.49826 9.35764e-18
6966.00156 9.29446e-18
6967.50486 9.37223e-18
6968.99814 9.43153e-18
6970.50144 9.43074e-18
6972.00474 9.40907e-18
6973.49802 9.34066e-18
6975.00132 9.31240e-18
6976.50462 9.42016e-18
6977.99790 9.44791e-18
6979.50120 9.38306e-18
6981.00450 9.21296e-18
6982.49777 9.23357e-18
6984.00107 9.40091e-18
6985.50437 9.33281e-18
6986.99765 9.29730e-18
6988.50095 9.46878e-18
6990.00425 9.24238e-18
6991.49753 9.16625e-18
6993.00083 9.31656e-18
6994.50413 9.17871e-18
6995.99741 9.08425e-18
6997.50071 9.02214e-18
6999.00401 9.01046e-18
7000.49729 9.02589e-18
7002.00059 9.01989e-18
7003.50389 8.92061e-18
7004.99716 9.03156e-18
7006.50046 9.12613e-18
7008.00376 9.22744e-18
7009.49704 9.15163e-18
7011.00034 8.97307e-18
7012.50364 9.04592e-18
7013.99692 9.14024e-18
7015.50022 9.06040e-18
7017.00352 9.03381e-18
7018.49680 9.06639e-18
7020.00010 9.05043e-18
7021.50340 9.06545e-18
7022.99668 9.09094e-18
7024.49998 9.14661e-18
7026.00328 9.01180e-18
7027.49655 8.97286e-18
7028.99985 9.08896e-18
7030.50315 8.97863e-18
7031.99643 8.93856e-18
7033.49973 8.90233e-18
7035.00303 8.95748e-18
7036.49631 9.07777e-18
7037.99961 9.00394e-18
7039.50291 8.99513e-18
7040.99619 9.05684e-18
7042.49949 9.05685e-18
7044.00279 8.95471e-18
7045.49607 8.91832e-18
7046.99937 8.86928e-18
7048.50267 8.74795e-18
7049.99594 8.81578e-18
7051.49924 8.85799e-18
7053.00254 8.70122e-18
7054.49582 8.77293e-18
7055.99912 8.65656e-18
7057.50242 8.83184e-18
7058.99570 8.80428e-18
7060.49900 8.71287e-18
7062.00230 8.69250e-18
7063.49558 8.79665e-18
7064.99888 8.55306e-18
7066.50218 8.58847e-18
7067.99546 8.67480e-18
7069.49876 8.66753e-18
7071.00206 8.54504e-18
7072.49533 8.54872e-18
7073.99863 8.56807e-18
7075.50193 8.45430e-18
7076.99521 8.47000e-18
7078.49851 8.49787e-18
7080.00181 8.48219e-18
7081.50511 8.52084e-18
7082.99839 8.56729e-18
7084.50169 8.40068e-18
7085.99497 8.51330e-18
7087.49827 8.66644e-18
7089.00157 8.50820e-18
7090.50487 8.48641e-18
7091.99815 8.57538e-18
7093.50145 8.68516e-18
7095.00475 8.53622e-18
7096.49802 8.45837e-18
7098.00132 8.59799e-18
7099.50462 8.58523e-18
7100.99790 8.36153e-18
7102.50120 8.27069e-18
7104.00450 8.35627e-18
7105.49778 8.46277e-18
7107.00108 8.27827e-18
7108.50438 8.27881e-18
7109.99766 8.35104e-18
7111.50096 8.28417e-18
7113.00426 8.31819e-18
7114.49754 8.37476e-18
7116.00084 8.32780e-18
7117.50414 8.21546e-18
7118.99741 8.17805e-18
7120.50071 8.20759e-18
7122.00401 8.25938e-18
7123.49729 8.36801e-18
7125.00059 8.49795e-18
7126.50389 8.50493e-18
7127.99717 8.31459e-18
7129.50047 8.34652e-18
7131.00377 8.28887e-18
7132.49705 8.44271e-18
7134.00035 8.56118e-18
7135.50365 8.41537e-18
7136.99693 8.35129e-18
7138.50023 8.35082e-18
7140.00353 8.18902e-18
7141.49680 8.32427e-18
7143.00010 8.41083e-18
7144.50340 8.32793e-18
7145.99668 8.39229e-18
7147.49998 8.38565e-18
7149.00328 8.17442e-18
7150.49656 8.16981e-18
7151.99986 8.32934e-18
7153.50316 8.38018e-18
7154.99644 8.33988e-18
7156.49974 8.19731e-18
7158.00304 8.17629e-18
7159.49632 8.19308e-18
7160.99962 8.21048e-18
7162.50292 8.28131e-18
7163.99619 8.34283e-18
7165.49949 8.23261e-18
7167.00279 8.06192e-18
7168.49607 7.99063e-18
7169.99937 7.98877e-18
7171.50267 7.98692e-18
7172.99595 7.98512e-18
7174.49925 7.98326e-18
7176.00255 7.98141e-18
7177.49583 7.97961e-18
7178.99913 7.97775e-18
7180.50243 7.97741e-18
7181.99571 8.05890e-18
7183.49901 7.95484e-18
7185.00231 7.86758e-18
7186.49558 7.80249e-18
7187.99888 7.90339e-18
7189.50218 8.00053e-18
7190.99546 8.10353e-18
7192.49876 8.06508e-18
7194.00206 8.04241e-18
7195.49534 8.15301e-18
7196.99864 8.12988e-18
7198.50194 7.82850e-18
7199.99522 7.74531e-18
7201.49852 7.83867e-18
7203.00182 7.69883e-18
7204.50512 7.81937e-18
7205.99840 7.76461e-18
7207.50170 7.74783e-18
7208.99497 7.90940e-18
7210.49827 7.77484e-18
7212.00157 7.82556e-18
7213.50487 7.77221e-18
7214.99815 7.68844e-18
7216.50145 7.60994e-18
7218.00475 7.55806e-18
7219.49803 7.49657e-18
7221.00133 7.52095e-18
7222.50463 7.56088e-18
7223.99791 7.44925e-18
7225.50121 7.31074e-18
7227.00451 7.35564e-18
7228.49779 7.54503e-18
7230.00109 7.53615e-18
7231.50439 7.38861e-18
7232.99766 7.32865e-18
7234.50096 7.34991e-18
7236.00426 7.42352e-18
7237.49754 7.47858e-18
7239.00084 7.43919e-18
7240.50414 7.31549e-18
7241.99742 7.18504e-18
7243.50072 7.19004e-18
7245.00402 7.28029e-18
7246.49730 7.21489e-18
7248.00060 7.07737e-18
7249.50390 7.02327e-18
7250.99718 7.09569e-18
7252.50048 7.24893e-18
7254.00378 7.34926e-18
7255.49705 7.37855e-18
7257.00035 7.34762e-18
7258.50365 7.27939e-18
7259.99693 7.38707e-18
7261.50023 7.36626e-18
7263.00353 7.17250e-18
7264.49681 7.08469e-18
7266.00011 7.01493e-18
7267.50341 6.94628e-18
7268.99669 6.88691e-18
7270.49999 6.85886e-18
7272.00329 6.89741e-18
7273.49657 6.95321e-18
7274.99987 6.94258e-18
7276.50317 6.76908e-18
7277.99644 6.60178e-18
7279.49974 6.64246e-18
7281.00304 6.73163e-18
7282.49632 6.85043e-18
7283.99962 7.08295e-18
7285.50292 6.97578e-18
7286.99620 6.60735e-18
7288.49950 6.65103e-18
7290.00280 6.77277e-18
7291.49608 6.78709e-18
7292.99938 6.86679e-18
7294.50268 6.81115e-18
7295.99596 6.61783e-18
7297.49926 6.58909e-18
7299.00256 6.61201e-18
7300.49583 6.70442e-18
7301.99913 6.79069e-18
7303.50243 6.67237e-18
7304.99571 6.63906e-18
7306.49901 6.60838e-18
7308.00231 6.46454e-18
7309.49559 6.36912e-18
7310.99889 6.32206e-18
7312.50219 6.32518e-18
7313.99547 6.45487e-18
7315.49877 6.53917e-18
7317.00207 6.43708e-18
7318.49535 6.35540e-18
7319.99865 6.29151e-18
7321.50195 6.18649e-18
7322.99522 6.12613e-18
7324.49852 6.31866e-18
7326.00182 6.50672e-18
7327.50512 6.39095e-18
7328.99840 6.23512e-18
7330.50170 6.17716e-18
7331.99498 6.05869e-18
7333.49828 6.09308e-18
7335.00158 6.11973e-18
7336.50488 6.20058e-18
7337.99816 6.23307e-18
7339.50146 6.15808e-18
7341.00476 6.05981e-18
7342.49804 5.96807e-18
7344.00134 6.06590e-18
7345.50464 6.00586e-18
7346.99791 5.86790e-18
7348.50121 5.91231e-18
7350.00451 5.80784e-18
7351.49779 5.83209e-18
7353.00109 5.89348e-18
7354.50439 5.91639e-18
7355.99767 5.91161e-18
7357.50097 5.75649e-18
7359.00427 5.70941e-18
7360.49755 5.80704e-18
7362.00085 5.71725e-18
7363.50415 5.58956e-18
7364.99743 5.62216e-18
7366.50073 5.50596e-18
7368.00403 5.39900e-18
7369.49730 5.49800e-18
7371.00060 5.57412e-18
7372.50390 5.40055e-18
7373.99718 5.31709e-18
7375.50048 5.38945e-18
7377.00378 5.37571e-18
7378.49706 5.28207e-18
7380.00036 5.22706e-18
7381.50366 5.15944e-18
7382.99694 5.10946e-18
7384.50024 5.11218e-18
7386.00354 5.12279e-18
7387.49682 5.07781e-18
7389.00012 5.05620e-18
7390.50342 5.04654e-18
7391.99669 5.06362e-18
7393.49999 5.03222e-18
7395.00329 4.99412e-18
7396.49657 4.98284e-18
7397.99987 5.02577e-18
7399.50317 4.96289e-18
7400.99645 4.86259e-18
7402.49975 4.86875e-18
7404.00305 4.95948e-18
7405.49633 4.84940e-18
7406.99963 4.63240e-18
7408.50293 4.65457e-18
7409.99621 4.77352e-18
7411.49951 4.60402e-18
7413.00281 4.54927e-18
7414.49608 4.55006e-18
7415.99938 4.46761e-18
7417.50268 4.34051e-18
7418.99596 4.43594e-18
7420.49926 4.47818e-18
7422.00256 4.41294e-18
7423.49584 4.35112e-18
7424.99914 4.30171e-18
7426.50244 4.25860e-18
7427.99572 4.25333e-18
7429.49902 4.26626e-18
7431.00232 4.29553e-18
7432.49560 4.17678e-18
7433.99890 4.18894e-18
7435.50220 4.22043e-18
7436.99547 4.18128e-18
7438.49877 4.16517e-18
7440.00207 4.13287e-18
7441.49535 4.07956e-18
7442.99865 4.09671e-18
7444.50195 4.05499e-18
7445.99523 4.01014e-18
7447.49853 3.99460e-18
7449.00183 3.90977e-18
7450.50513 3.92072e-18
7451.99841 3.94284e-18
7453.50171 3.87405e-18
7454.99499 3.83061e-18
7456.49829 3.83878e-18
7458.00159 3.83146e-18
7459.49486 3.82521e-18
7460.99816 3.87698e-18
7462.50146 3.87982e-18
7464.00476 3.84326e-18
7465.49804 3.80152e-18
7467.00134 3.78031e-18
7468.50464 3.69792e-18
7469.99792 3.67468e-18
7471.50122 3.73069e-18
7473.00452 3.64689e-18
7474.49780 3.66116e-18
7476.00110 3.64456e-18
7477.50440 3.61761e-18
7478.99768 3.61237e-18
7480.50098 3.60893e-18
7482.00428 3.59473e-18
7483.49755 3.55097e-18
7485.00085 3.49244e-18
7486.50415 3.44743e-18
7487.99743 3.37338e-18
7489.50073 3.44129e-18
7491.00403 3.52341e-18
7492.49731 3.33717e-18
7494.00061 3.40812e-18
7495.50391 3.40031e-18
7496.99719 3.35753e-18
7498.50049 3.31741e-18
7500.00379 3.18969e-18
7501.49707 3.29266e-18
7503.00037 3.34213e-18
7504.50367 3.26928e-18
7505.99694 3.19269e-18
7507.50024 3.13038e-18
7509.00354 3.12597e-18
7510.49682 3.17103e-18
7512.00012 3.16478e-18
7513.50342 3.14912e-18
7514.99670 3.12410e-18
7516.50000 3.09524e-18
7518.00330 3.10864e-18
7519.49658 3.10647e-18
7520.99988 3.10817e-18
7522.50318 3.11741e-18
7523.99646 3.09797e-18
7525.49976 3.07352e-18
7527.00306 3.05310e-18
7528.49633 3.02552e-18
7529.99963 3.06196e-18
7531.50293 3.03866e-18
7532.99621 2.93591e-18
7534.49951 2.94123e-18
7536.00281 2.98118e-18
7537.49609 3.04226e-18
7538.99939 2.98682e-18
7540.50269 3.09625e-18
7542.00320 3.09625e-18
7544.00005 3.10350e-18
7545.99690 3.13685e-18
7548.00394 3.10546e-18
7550.00078 2.99165e-18
7551.99763 2.92134e-18
7554.00467 2.88632e-18
7556.00152 2.89248e-18
7557.99836 2.97315e-18
7559.99521 3.17247e-18
7562.00225 3.18915e-18
7563.99910 3.03140e-18
7565.99594 2.94545e-18
7568.00298 2.94470e-18
7569.99983 2.95725e-18
7571.99668 2.89990e-18
7574.00371 2.80047e-18
7576.00056 2.80584e-18
7577.99741 2.96474e-18
7580.00444 2.98137e-18
7582.00129 2.82292e-18
7583.99814 2.69016e-18
7585.99499 2.70553e-18
7588.00202 2.81891e-18
7589.99887 2.87973e-18
7591.99572 2.93222e-18
7594.00276 2.97766e-18
7595.99960 2.97096e-18
7597.99645 3.00343e-18
7600.00349 3.15601e-18
7602.00034 3.35189e-18
7603.99718 3.32855e-18
7606.00422 3.07378e-18
7608.00107 2.97664e-18
7609.99792 2.93846e-18
7612.00495 2.93933e-18
7614.00180 2.98897e-18
7615.99865 3.05742e-18
7617.99550 3.09734e-18
7620.00253 3.04724e-18
7621.99938 3.18943e-18
7623.99623 3.65731e-18
7626.00326 3.82244e-18
7628.00011 3.57705e-18
7629.99696 3.22086e-18
7632.00400 3.05410e-18
7634.00084 2.95119e-18
7635.99769 2.85432e-18
7638.00473 2.74359e-18
7640.00158 2.74251e-18
7641.99842 2.90178e-18
7643.99527 3.06576e-18
7646.00231 3.08838e-18
7647.99916 3.04104e-18
7649.99600 3.00072e-18
7652.00304 2.87331e-18
7653.99989 2.83565e-18
7655.99674 2.87494e-18
7658.00377 2.93680e-18
7660.00062 3.01297e-18
7661.99747 3.11002e-18
7664.00450 3.11866e-18
7666.00135 3.06165e-18
7667.99820 2.99064e-18
7669.99505 2.88082e-18
7672.00208 2.77796e-18
7673.99893 2.68308e-18
7675.99578 2.60904e-18
7678.00282 2.59678e-18
7679.99966 2.65285e-18
7681.99651 2.75105e-18
7684.00355 2.93179e-18
7686.00040 3.07392e-18
7687.99724 3.18265e-18
7690.00428 3.25610e-18
7692.00113 3.24853e-18
7693.99798 3.14737e-18
7695.99482 3.11442e-18
7698.00186 3.12013e-18
7699.99871 3.11295e-18
7701.99556 3.11087e-18
7704.00259 3.08836e-18
7705.99944 2.99850e-18
7707.99629 2.84176e-18
7710.00332 2.88454e-18
7712.00017 3.18174e-18
7713.99702 3.25986e-18
7716.00406 3.13169e-18
7718.00090 3.00307e-18
7719.99775 2.94987e-18
7722.00479 2.91945e-18
7724.00164 2.96463e-18
7725.99848 3.14547e-18
7727.99533 3.19202e-18
7730.00237 3.13928e-18
7731.99922 3.08356e-18
7733.99606 3.01444e-18
7736.00310 2.96044e-18
7737.99995 2.99859e-18
7739.99680 3.14317e-18
7742.00383 3.24171e-18
7744.00068 3.40251e-18
7745.99753 3.43767e-18
7748.00456 3.28343e-18
7750.00141 3.05344e-18
7751.99826 2.93257e-18
7753.99511 2.82486e-18
7756.00214 2.86429e-18
7757.99899 3.14732e-18
7759.99584 3.29053e-18
7762.00288 3.29862e-18
7763.99972 3.22744e-18
7765.99657 3.05379e-18
7768.00361 2.73471e-18
7770.00046 2.66939e-18
7771.99730 2.78977e-18
7774.00434 2.88493e-18
7776.00119 3.02657e-18
7777.99804 3.12917e-18
7780.00507 3.14278e-18
7782.00192 3.08399e-18
7783.99877 3.03961e-18
7785.99562 2.93673e-18
7788.00265 2.90218e-18
7789.99950 2.92978e-18
7791.99635 2.98366e-18
7794.00338 3.07988e-18
7796.00023 3.20163e-18
7797.99708 3.20450e-18
7800.00412 3.02897e-18
7802.00096 3.01310e-18
7803.99781 3.11211e-18
7806.00485 3.17206e-18
7808.00170 3.16594e-18
7809.99854 3.11020e-18
7811.99539 3.07640e-18
7814.00243 2.99793e-18
7815.99928 3.07535e-18
7817.99612 3.35316e-18
7820.00316 3.50652e-18
7822.00001 3.52455e-18
7823.99686 3.46318e-18
7826.00389 3.29494e-18
7828.00074 2.96547e-18
7829.99759 2.85777e-18
7832.00462 2.88072e-18
7834.00147 2.95121e-18
7835.99832 3.15144e-18
7837.99517 3.31439e-18
7840.00220 3.26721e-18
7841.99905 3.07031e-18
7843.99590 2.93958e-18
7846.00294 2.75163e-18
7847.99978 2.68159e-18
7849.99663 2.67370e-18
7852.00367 2.76509e-18
7854.00052 3.00949e-18
7855.99736 3.33099e-18
7858.00440 3.44138e-18
7860.00125 3.43452e-18
7861.99810 3.34215e-18
7863.99494 3.08065e-18
7866.00198 2.86518e-18
7867.99883 2.76076e-18
7869.99568 2.71770e-18
7872.00271 2.70821e-18
7873.99956 2.79599e-18
7875.99641 2.81788e-18
7878.00344 2.80429e-18
7880.00029 2.81833e-18
7881.99714 2.85693e-18
7884.00418 2.89219e-18
7886.00102 2.92221e-18
7887.99787 2.92169e-18
7889.99472 2.95628e-18
7892.00176 3.04735e-18
7893.99860 3.09174e-18
7895.99545 3.12870e-18
7898.00249 3.12868e-18
7899.99934 3.02780e-18
7901.99618 2.82417e-18
7904.00322 2.72054e-18
7906.00007 2.65463e-18
7907.99692 2.67307e-18
7910.00395 2.79958e-18
7912.00080 2.92758e-18
7913.99765 3.01434e-18
7916.00468 3.08384e-18
7918.00153 3.05132e-18
7919.99838 2.87101e-18
7921.99523 2.82218e-18
7924.00226 2.82002e-18
7925.99911 2.89964e-18
7927.99596 3.12070e-18
7930.00300 3.40994e-18
7931.99984 3.43641e-18
7933.99669 3.21643e-18
7936.00373 3.09050e-18
7938.00058 2.87936e-18
7939.99742 2.78313e-18
7942.00446 2.88515e-18
7944.00131 3.06404e-18
7945.99816 3.11626e-18
7947.99500 3.12486e-18
7950.00204 3.10693e-18
7951.99889 3.01461e-18
7953.99574 2.99123e-18
7956.00277 3.11459e-18
7957.99962 3.22383e-18
7959.99647 3.12154e-18
7962.00350 2.85178e-18
7964.00035 2.79308e-18
7965.99720 2.86534e-18
7968.00424 2.89828e-18
7970.00108 2.91693e-18
7971.99793 2.94429e-18
7973.99478 2.96795e-18
7976.00182 2.99488e-18
7977.99866 2.97633e-18
7979.99551 2.88185e-18
7982.00255 2.84170e-18
7983.99940 2.81227e-18
7985.99624 2.83424e-18
7988.00328 2.99044e-18
7990.00013 3.22241e-18
7991.99698 3.22230e-18
7994.00401 3.01825e-18
7996.00086 2.89012e-18
7997.99771 2.69969e-18
8000.00474 2.60136e-18
8002.00159 2.68496e-18
8003.99844 2.84655e-18
8005.99529 2.94332e-18
8008.00232 3.08208e-18
8009.99917 3.11356e-18
8011.99602 3.06075e-18
8014.00306 2.96862e-18
8015.99990 2.83330e-18
8017.99675 2.67668e-18
8020.00379 2.54896e-18
8022.00064 2.37132e-18
8023.99748 2.42855e-18
8026.00452 2.81528e-18
8028.00137 2.99006e-18
8029.99822 2.87072e-18
8031.99506 2.72329e-18
8034.00210 2.77725e-18
8035.99895 2.93544e-18
8037.99580 2.95463e-18
8040.00283 2.85822e-18
8041.99968 2.82430e-18
8043.99653 2.84742e-18
8046.00356 2.88152e-18
8048.00041 2.89494e-18
8049.99726 2.90832e-18
8052.00430 2.95471e-18
8054.00114 3.09134e-18
8055.99799 3.10750e-18
8057.99484 3.00401e-18
8060.00188 2.91986e-18
8061.99872 2.89184e-18
8063.99557 2.88181e-18
8066.00261 2.87739e-18
8067.99946 2.90851e-18
8069.99630 2.92043e-18
8072.00334 2.90505e-18
8074.00019 2.92735e-18
8075.99704 3.06568e-18
8078.00407 3.21254e-18
8080.00092 3.13472e-18
8081.99777 2.83873e-18
8084.00480 2.75002e-18
8086.00165 2.79358e-18
8087.99850 2.81106e-18
8089.99535 2.80359e-18
8092.00238 2.79107e-18
8093.99923 2.74511e-18
8095.99608 2.66299e-18
8098.00312 2.65810e-18
8099.99996 2.71750e-18
8101.99681 2.77171e-18
8104.00385 2.84221e-18
8106.00070 2.90891e-18
8107.99754 2.94300e-18
8110.00458 2.96005e-18
8112.00143 2.99694e-18
8113.99828 3.10352e-18
8115.99512 3.09318e-18
8118.00216 2.94986e-18
8119.99901 2.81981e-18
8121.99586 2.79288e-18
8124.00289 2.80136e-18
8125.99974 2.70591e-18
8127.99659 2.44391e-18
8130.00362 2.41376e-18
8132.00047 2.57273e-18
8133.99732 2.71015e-18
8136.00436 2.78342e-18
8138.00120 2.84147e-18
8139.99805 2.91696e-18
8141.99490 3.00643e-18
8144.00194 3.02156e-18
8145.99878 2.93945e-18
8147.99563 2.91608e-18
8150.00267 2.98150e-18
8151.99952 3.07266e-18
8153.99636 3.10288e-18
8156.00340 3.10822e-18
8158.00025 3.09810e-18
8159.99710 3.07378e-18
8162.00413 2.99391e-18
8164.00098 2.76634e-18
8165.99783 2.60464e-18
8167.99468 2.75859e-18
8170.00171 3.14730e-18
8171.99856 3.26213e-18
8173.99541 3.22320e-18
8176.00244 3.21918e-18
8177.99929 3.22318e-18
8179.99614 3.20623e-18
8182.00318 3.15039e-18
8184.00002 3.05067e-18
8185.99687 2.92051e-18
8188.00391 2.64803e-18
8190.00076 2.59555e-18
8191.99760 2.74131e-18
8194.00464 2.90247e-18
8196.00149 3.05728e-18
8197.99834 3.20308e-18
8199.99518 3.13239e-18
8202.00222 2.77231e-18
8203.99907 2.69807e-18
8205.99592 2.81435e-18
8208.00295 2.89028e-18
8209.99980 2.91736e-18
8211.99665 2.91062e-18
8214.00368 2.83765e-18
8216.00053 2.68003e-18
8217.99738 2.67179e-18
8220.00442 2.78455e-18
8222.00126 2.89456e-18
8223.99811 3.02200e-18
8225.99496 3.13765e-18
8228.00200 3.21654e-18
8229.99884 3.28956e-18
8231.99569 3.25281e-18
8234.00273 3.11262e-18
8235.99958 3.00885e-18
8237.99642 2.88649e-18
8240.00346 2.80570e-18
8242.00031 2.81804e-18
8243.99716 2.90091e-18
8246.00419 2.90366e-18
8248.00104 2.88135e-18
8249.99789 2.91220e-18
8252.00492 2.95137e-18
8254.00177 2.99985e-18
8255.99862 3.12711e-18
8257.99547 3.23384e-18
8260.00250 3.16542e-18
8261.99935 3.02953e-18
8263.99620 2.91771e-18
8266.00324 2.82211e-18
8268.00008 2.77148e-18
8269.99693 2.77499e-18
8272.00397 2.82053e-18
8274.00082 2.89545e-18
8275.99766 3.03276e-18
8278.00470 3.10626e-18
8280.00155 3.19369e-18
8281.99840 3.18159e-18
8283.99524 3.01433e-18
8286.00228 2.81349e-18
8287.99913 2.72285e-18
8289.99598 2.67823e-18
8292.00301 2.69527e-18
8293.99986 2.82257e-18
8295.99671 2.89498e-18
8298.00374 2.90265e-18
8300.00059 2.91883e-18
8301.99744 3.00858e-18
8304.00448 3.14825e-18
8306.00132 3.19332e-18
8307.99817 3.16967e-18
8309.99502 3.15154e-18
8312.00206 3.10735e-18
8313.99890 3.07694e-18
8315.99575 3.10491e-18
8318.00279 3.15756e-18
8319.99964 3.08082e-18
8321.99648 2.80818e-18
8324.00352 2.74672e-18
8326.00037 2.83356e-18
8327.99722 2.93180e-18
8330.00425 3.02285e-18
8332.00110 3.11242e-18
8333.99795 3.14103e-18
8335.99480 3.14599e-18
8338.00183 3.06900e-18
8339.99868 2.81275e-18
8341.99553 2.70726e-18
8344.00256 2.80294e-18
8345.99941 3.00568e-18
8347.99626 3.26077e-18
8350.00330 3.68746e-18
8352.00014 3.74534e-18
8353.99699 3.46320e-18
8356.00403 3.27147e-18
8358.00088 3.15476e-18
8359.99772 3.05492e-18
8362.00476 2.94284e-18
8364.00161 2.82254e-18
8365.99846 2.79319e-18
8367.99530 2.82835e-18
8370.00234 2.90751e-18
8371.99919 3.08310e-18
8373.99604 3.23691e-18
8376.00307 3.30281e-18
8377.99992 3.31604e-18
8379.99677 3.24252e-18
8382.00380 3.00173e-18
8384.00065 2.89803e-18
8385.99750 2.85270e-18
8388.00454 2.87052e-18
8390.00138 2.96732e-18
8391.99823 3.12507e-18
8393.99508 3.28288e-18
8396.00212 3.53441e-18
8397.99896 3.62274e-18
8399.99581 3.62591e-18
8402.00285 3.54077e-18
8403.99970 3.31004e-18
8405.99654 3.03253e-18
8408.00358 2.91680e-18
8410.00043 2.90614e-18
8411.99728 2.87425e-18
8414.00431 2.86447e-18
8416.00116 2.86495e-18
8417.99801 2.84701e-18
8419.99486 2.87141e-18
8422.00189 3.03110e-18
8423.99874 3.32226e-18
8425.99559 3.46267e-18
8428.00262 3.59753e-18
8429.99947 3.56144e-18
8431.99632 3.25965e-18
8434.00336 2.97058e-18
8436.00020 2.90623e-18
8437.99705 2.96563e-18
8440.00409 3.02086e-18
8442.00094 3.19704e-18
8443.99778 3.23048e-18
8446.00482 3.09798e-18
8448.00167 3.00969e-18
8449.99852 3.09446e-18
8451.99536 3.25652e-18
8454.00240 3.24381e-18
8455.99925 3.04350e-18
8457.99610 3.00589e-18
8460.00313 3.04634e-18
8461.99998 3.11901e-18
8463.99683 3.26593e-18
8466.00386 3.41528e-18
8468.00071 3.34265e-18
8469.99756 3.02207e-18
8472.00460 2.92571e-18
8474.00144 2.94661e-18
8475.99829 2.97576e-18
8477.99514 3.03110e-18
8480.00218 3.08142e-18
8481.99902 3.04997e-18
8483.99587 2.94249e-18
8486.00291 2.91958e-18
8487.99976 2.94534e-18
8489.99660 2.97286e-18
8492.00364 2.98943e-18
8494.00049 3.03526e-18
8495.99734 3.16544e-18
8498.00437 3.37184e-18
8500.00122 3.42647e-18
8501.99807 3.36717e-18
8504.00510 3.31639e-18
8506.00195 3.22909e-18
8507.99880 3.15748e-18
8509.99565 3.15150e-18
8512.00268 3.18042e-18
8513.99953 3.11412e-18
8515.99638 2.89958e-18
8518.00342 2.86484e-18
8520.00026 2.99622e-18
8521.99711 3.09966e-18
8524.00415 3.11357e-18
8526.00100 3.08703e-18
8527.99784 3.05243e-18
8529.99469 3.01100e-18
8532.00173 2.91238e-18
8533.99858 2.65511e-18
8535.99542 2.56930e-18
8538.00246 2.77571e-18
8539.99931 3.07331e-18
8541.99616 3.16757e-18
8544.00319 3.14192e-18
8546.00004 3.17811e-18
8547.99689 3.23251e-18
8550.00392 3.26510e-18
8552.00077 3.28165e-18
8553.99762 3.27639e-18
8556.00466 3.23574e-18
8558.00150 3.16183e-18
8559.99835 3.08875e-18
8561.99520 2.92839e-18
8564.00224 2.92127e-18
8565.99908 3.12682e-18
8567.99593 3.31105e-18
8570.00297 3.32139e-18
8571.99982 3.23544e-18
8573.99666 3.08886e-18
8576.00370 2.73748e-18
8578.00055 2.61151e-18
8579.99740 2.65107e-18
8582.00443 2.74771e-18
8584.00128 2.88886e-18
8585.99813 3.07048e-18
8587.99498 3.15553e-18
8590.00201 3.15997e-18
8591.99886 3.20088e-18
8593.99571 3.27186e-18
8596.00274 3.29476e-18
8597.99959 3.24199e-18
8599.99644 3.14940e-18
8602.00348 3.06870e-18
8604.00032 2.96559e-18
8605.99717 2.90207e-18
8608.00421 2.86368e-18
8610.00106 2.83680e-18
8611.99790 2.81806e-18
8613.99475 2.81514e-18
8616.00179 2.84328e-18
8617.99864 2.91229e-18
8619.99548 2.91393e-18
8622.00252 2.84236e-18
8623.99937 2.82239e-18
8625.99622 2.84651e-18
8628.00325 2.89531e-18
8630.00010 2.95480e-18
8631.99695 3.02850e-18
8634.00398 3.16886e-18
8636.00083 3.45921e-18
8637.99768 3.57561e-18
8640.00472 3.59106e-18
8642.00156 3.49124e-18
8643.99841 3.19340e-18
8645.99526 2.76427e-18
8648.00230 2.65244e-18
8649.99914 2.76233e-18
8651.99599 2.87940e-18
8654.00303 3.17085e-18
8655.99988 3.34542e-18
8657.99672 3.30537e-18
8660.00376 3.14247e-18
8662.00061 2.95112e-18
8663.99746 2.55543e-18
8665.99430 2.50573e-18
8668.00134 2.76371e-18
8669.99819 2.96159e-18
8671.99504 3.08981e-18
8674.00207 3.16068e-18
8675.99892 3.09981e-18
8677.99577 2.90366e-18
8680.00280 2.75791e-18
8681.99965 2.54218e-18
8683.99650 2.44205e-18
8686.00354 2.44985e-18
8688.00038 2.54524e-18
8689.99723 2.75744e-18
8692.00427 3.11139e-18
8694.00112 3.22465e-18
8695.99796 3.16225e-18
8698.00500 3.11789e-18
8700.00185 3.04833e-18
8701.99870 2.97541e-18
8703.99554 2.92335e-18
8706.00258 2.87940e-18
8707.99943 2.80829e-18
8709.99628 2.65634e-18
8712.00331 2.64018e-18
8714.00016 2.74385e-18
8715.99701 2.86823e-18
8718.00404 3.01269e-18
8720.00089 3.15993e-18
8721.99774 3.14293e-18
8724.00478 2.95000e-18
8726.00162 2.84271e-18
8727.99847 2.69780e-18
8729.99532 2.64150e-18
8732.00236 2.73409e-18
8733.99920 2.88426e-18
8735.99605 2.94104e-18
8738.00309 2.97611e-18
8739.99994 2.93478e-18
8741.99678 2.76537e-18
8744.00382 2.67041e-18
8746.00067 2.62582e-18
8747.99752 2.65918e-18
8750.00455 2.86071e-18
8752.00140 3.24540e-18
8753.99825 3.41514e-18
8755.99510 3.46568e-18
8758.00213 3.50048e-18
8759.99898 3.47435e-18
8761.99583 3.45767e-18
8764.00286 3.54780e-18
8765.99971 3.71185e-18
8767.99656 3.60623e-18
8770.00360 3.20841e-18
8772.00044 2.96917e-18
8773.99729 2.77321e-18
8776.00433 2.66118e-18
8778.00118 2.67249e-18
8779.99802 2.77798e-18
8782.00506 2.88779e-18
8784.00191 3.14361e-18
8785.99876 3.17780e-18
8787.99560 2.98474e-18
8790.00264 2.86567e-18
8791.99949 2.92538e-18
8793.99634 3.04874e-18
8796.00337 3.07356e-18
8798.00022 3.07694e-18
8799.99707 2.99820e-18
8802.00410 2.78980e-18
8804.00095 2.64247e-18
8805.99780 2.55117e-18
8807.99465 2.52176e-18
8810.00168 2.61863e-18
8811.99853 2.86762e-18
8813.99538 2.95875e-18
8816.00242 2.90532e-18
8817.99926 2.96666e-18
8819.99611 3.15664e-18
8822.00315 3.38277e-18
8824.00000 3.61166e-18
8825.99684 3.88869e-18
8828.00388 3.85939e-18
8830.00073 3.50287e-18
8831.99758 3.26086e-18
8834.00461 3.01122e-18
8836.00146 2.84759e-18
8837.99831 2.85597e-18
8840.00534 2.98668e-18
8842.00219 3.08267e-18
8843.99904 3.31835e-18
8845.99589 3.29937e-18
8848.00292 3.00832e-18
8849.99977 2.76280e-18
8851.99662 2.67479e-18
8854.00366 2.65391e-18
8856.00050 2.61207e-18
8857.99735 2.50774e-18
8860.00439 2.61694e-18
8862.00124 3.00202e-18
8863.99808 3.25318e-18
8865.99493 3.27701e-18
8868.00197 3.21459e-18
8869.99882 3.21735e-18
8871.99566 3.20827e-18
8874.00270 3.26703e-18
8875.99955 3.43622e-18
8877.99640 3.51494e-18
8880.00343 3.52054e-18
8882.00028 3.44584e-18
8883.99713 3.22746e-18
8886.00416 2.84317e-18
8888.00101 2.70803e-18
8889.99786 2.66571e-18
8892.00490 2.78025e-18
8894.00174 3.21501e-18
8895.99859 3.56087e-18
8897.99544 3.49334e-18
8900.00248 3.16790e-18
8901.99932 2.93639e-18
8903.99617 2.59242e-18
8906.00321 2.41416e-18
8908.00006 2.32766e-18
8909.99690 2.35685e-18
8912.00394 2.57565e-18
8914.00079 2.90957e-18
8915.99764 3.01136e-18
8918.00467 3.01066e-18
8920.00152 2.89635e-18
8921.99837 2.51648e-18
8923.99522 2.29829e-18
8926.00225 2.37384e-18
8927.99910 2.58548e-18
8929.99595 2.73440e-18
8932.00298 2.95022e-18
8933.99983 3.00720e-18
8935.99668 2.88359e-18
8938.00372 2.84507e-18
8940.00056 2.94564e-18
8941.99741 3.06365e-18
8944.00445 3.06458e-18
8946.00130 2.98817e-18
8947.99814 2.94567e-18
8949.99499 2.93210e-18
8952.00203 2.85341e-18
8953.99888 2.69301e-18
8955.99572 2.51449e-18
8958.00276 2.33955e-18
8959.99961 2.14000e-18
8961.99646 2.17987e-18
8964.00349 2.54323e-18
8966.00034 2.67704e-18
8967.99719 2.62948e-18
8970.00422 2.55999e-18
8972.00107 2.53240e-18
8973.99792 2.51188e-18
8976.00496 2.53619e-18
8978.00180 2.58781e-18
8979.99865 2.68038e-18
8981.99550 2.83863e-18
8984.00254 2.98641e-18
8985.99938 3.12632e-18
8987.99623 3.24146e-18
8990.00327 3.22407e-18
8992.00012 3.07323e-18
8993.99696 2.95011e-18
8996.00400 2.72032e-18
8998.00085 2.62777e-18
8999.99770 2.73769e-18
9001.99454 2.93697e-18
9004.00158 3.09180e-18
9005.99843 3.27928e-18
9007.99528 3.38053e-18
9010.00231 3.38915e-18
9011.99916 3.43677e-18
9013.99601 3.57207e-18
9016.00304 3.66612e-18
9017.99989 3.56822e-18
9019.99674 3.31193e-18
9022.00378 3.22483e-18
9024.00062 3.26027e-18
9025.99747 3.22538e-18
9028.00451 3.14707e-18
9030.00136 3.04017e-18
9031.99820 2.87247e-18
9033.99505 2.65846e-18
9036.00209 2.66878e-18
9037.99894 2.98421e-18
9039.99578 3.03247e-18
9042.00282 2.89088e-18
9043.99967 2.72214e-18
9045.99652 2.54749e-18
9048.00355 2.37011e-18
9050.00040 2.36256e-18
9051.99725 2.53941e-18
9054.00428 2.62637e-18
9056.00113 2.67388e-18
9057.99798 2.76878e-18
9059.99483 2.97191e-18
9062.00186 3.18996e-18
9063.99871 3.24252e-18
9065.99556 3.17466e-18
9068.00260 3.10600e-18
9069.99944 2.91470e-18
9071.99629 2.84997e-18
9074.00333 2.99057e-18
9076.00018 3.15332e-18
9077.99702 3.12523e-18
9080.00406 2.97569e-18
9082.00091 2.86492e-18
9083.99776 2.68669e-18
9085.99460 2.60874e-18
9088.00164 2.67537e-18
9089.99849 2.73134e-18
9091.99534 2.62562e-18
9094.00237 2.41465e-18
9095.99922 2.44659e-18
9097.99607 2.69483e-18
9100.00310 2.86435e-18
9101.99995 3.09128e-18
9103.99680 3.19261e-18
9106.00384 3.02561e-18
9108.00068 2.69275e-18
9109.99753 2.52705e-18
9112.00457 2.36783e-18
9114.00142 2.35358e-18
9115.99826 2.52385e-18
9117.99511 2.66560e-18
9120.00215 2.71794e-18
9121.99900 2.73865e-18
9123.99584 2.77828e-18
9126.00288 2.82648e-18
9127.99973 2.84692e-18
9129.99658 2.82307e-18
9132.00361 2.83432e-18
9134.00046 2.93282e-18
9135.99731 3.01911e-18
9138.00434 2.93570e-18
9140.00119 2.70128e-18
9141.99804 2.58252e-18
9143.99489 2.43387e-18
9146.00192 2.43935e-18
9147.99877 2.67049e-18
9149.99562 2.92891e-18
9152.00266 3.03851e-18
9153.99950 3.08156e-18
9155.99635 3.04927e-18
9158.00339 2.88382e-18
9160.00024 2.77750e-18
9161.99708 2.69029e-18
9164.00412 2.63298e-18
9166.00097 2.61545e-18
9167.99782 2.63246e-18
9170.00485 2.69623e-18
9172.00170 2.83469e-18
9173.99855 2.94158e-18
9175.99540 3.08745e-18
9178.00243 3.15796e-18
9179.99928 3.08956e-18
9181.99613 2.94232e-18
9184.00316 2.84846e-18
9186.00001 2.72268e-18
9187.99686 2.69689e-18
9190.00390 2.81224e-18
9192.00074 2.84204e-18
9193.99759 2.70791e-18
9196.00463 2.53062e-18
9198.00148 2.48799e-18
9199.99832 2.53287e-18
9201.99517 2.54852e-18
9204.00221 2.55915e-18
9205.99906 2.60108e-18
9207.99590 2.68128e-18
9210.00294 2.78045e-18
9211.99979 2.89926e-18
9213.99664 3.07042e-18
9216.00367 3.03399e-18
9218.00052 2.69040e-18
9219.99737 2.61269e-18
9222.00440 2.84228e-18
9224.00125 3.07731e-18
9225.99810 3.09765e-18
9227.99495 3.00584e-18
9230.00198 3.04750e-18
9231.99883 3.19252e-18
9233.99568 3.26573e-18
9236.00272 3.32614e-18
9237.99956 3.32499e-18
9239.99641 3.20303e-18
9242.00345 3.01260e-18
9244.00030 2.96758e-18
9245.99714 3.07790e-18
9248.00418 3.04832e-18
9250.00103 2.93713e-18
9251.99788 2.82110e-18
9254.00491 2.69706e-18
9256.00176 2.58036e-18
9257.99861 2.55224e-18
9259.99546 2.63743e-18
9262.00249 2.59715e-18
9263.99934 2.43838e-18
9265.99619 2.35355e-18
9268.00322 2.37184e-18
9270.00007 2.42788e-18
9271.99692 2.46529e-18
9274.00396 2.52202e-18
9276.00080 2.51032e-18
9277.99765 2.38010e-18
9279.99450 2.36989e-18
9282.00154 2.50429e-18
9283.99838 2.66534e-18
9285.99523 2.75762e-18
9288.00227 2.82079e-18
9289.99912 2.92965e-18
9291.99596 3.17681e-18
9294.00300 3.18693e-18
9295.99985 2.79555e-18
9297.99670 2.59371e-18
9300.00373 3.00745e-18
9302.00058 3.77452e-18
9303.99743 4.06132e-18
9306.00446 4.40527e-18
9308.00131 4.00036e-18
9309.99816 2.41497e-18
9312.00520 1.37525e-18
9314.00204 1.60513e-18
9315.99889 2.41198e-18
9317.99574 2.64629e-18
9320.00278 2.60736e-18
9321.99962 2.80281e-18
9323.99647 3.11831e-18
9326.00351 3.44348e-18
9328.00036 3.86811e-18
9329.99720 4.22514e-18
9332.00424 4.15024e-18
9334.00109 3.66597e-18
9335.99794 3.42134e-18
9337.99478 3.15702e-18
9340.00182 3.03820e-18
9341.99867 3.17639e-18
9343.99552 3.30569e-18
9346.00255 3.10851e-18
9347.99940 2.66578e-18
9349.99625 2.53086e-18
9352.00328 2.57703e-18
9354.00013 2.63121e-18
9355.99698 2.71528e-18
9358.00402 2.84580e-18
9360.00086 3.05117e-18
9361.99771 3.31956e-18
9364.00475 3.46128e-18
9366.00160 3.53064e-18
9367.99844 3.56444e-18
9369.99529 3.46628e-18
9372.00233 3.46320e-18
9373.99918 3.72728e-18
9375.99602 4.10300e-18
9378.00306 4.11477e-18
9379.99991 3.88922e-18
9381.99676 3.59144e-18
9384.00379 2.92621e-18
9386.00064 2.57576e-18
9387.99749 2.82407e-18
9390.00452 3.27754e-18
9392.00137 3.27578e-18
9393.99822 2.97939e-18
9395.99507 2.83094e-18
9398.00210 2.63646e-18
9399.99895 2.56354e-18
9401.99580 2.70490e-18
9404.00284 2.86076e-18
9405.99968 2.76729e-18
9407.99653 2.49032e-18
9410.00357 2.35277e-18
9412.00042 2.24689e-18
9413.99726 2.18363e-18
9416.00430 2.14285e-18
9418.00115 2.16725e-18
9419.99800 2.32086e-18
9421.99484 2.58796e-18
9424.00188 2.69824e-18
9425.99873 2.68442e-18
9427.99558 2.73522e-18
9430.00261 2.76587e-18
9431.99946 2.88914e-18
9433.99631 3.15346e-18
9436.00334 3.53329e-18
9438.00019 4.08325e-18
9439.99704 5.29135e-18
9442.00408 5.45969e-18
9444.00092 4.74374e-18
9445.99777 3.99727e-18
9448.00481 3.32972e-18
9450.00166 2.71849e-18
9451.99850 2.61347e-18
9453.99535 3.14024e-18
9456.00239 3.11763e-18
9457.99924 2.78845e-18
9459.99608 2.48554e-18
9462.00312 2.20358e-18
9463.99997 1.95434e-18
9465.99682 1.81878e-18
9468.00385 1.71481e-18
9470.00070 1.91263e-18
9471.99755 2.53240e-18
9474.00458 2.95344e-18
9476.00143 3.26043e-18
9477.99828 3.39875e-18
9479.99513 3.19805e-18
9482.00216 2.67008e-18
9483.99901 2.50749e-18
9485.99586 2.60086e-18
9488.00290 2.57059e-18
9489.99974 2.43182e-18
9491.99659 2.31370e-18
9494.00363 2.26245e-18
9496.00048 2.25385e-18
9497.99732 2.43373e-18
9500.00436 2.85662e-18
9502.00121 3.17557e-18
9503.99806 3.59146e-18
9505.99490 3.80611e-18
9508.00194 3.67231e-18
9509.99879 3.31687e-18
9511.99564 2.97136e-18
9514.00267 2.38262e-18
9515.99952 2.15317e-18
9517.99637 2.16135e-18
9520.00340 2.24353e-18
9522.00025 2.39918e-18
9523.99710 2.61576e-18
9526.00414 2.83177e-18
9528.00098 3.18010e-18
9529.99783 3.14708e-18
9532.00487 2.66044e-18
9534.00172 2.40656e-18
9535.99856 2.51080e-18
9537.99541 2.63378e-18
9540.00245 2.36151e-18
9541.99930 1.71573e-18
9543.99614 1.90037e-18
9546.00318 2.93572e-18
9548.00003 3.54519e-18
9549.99688 3.91919e-18
9552.00391 4.05196e-18
9554.00076 3.83577e-18
9555.99761 3.30977e-18
9557.99446 2.83993e-18
9560.00149 1.91741e-18
9561.99834 1.78461e-18
9563.99519 2.48390e-18
9566.00222 3.20053e-18
9567.99907 3.66173e-18
9569.99592 4.00842e-18
9572.00296 3.87791e-18
9573.99980 3.11408e-18
9575.99665 2.68389e-18
9578.00369 2.30167e-18
9580.00054 1.98579e-18
9581.99738 1.68898e-18
9584.00442 1.48754e-18
9586.00127 1.61388e-18
9587.99812 2.14540e-18
9590.00515 2.38540e-18
9592.00200 2.51924e-18
9593.99885 2.62746e-18
9595.99570 2.70279e-18
9598.00273 2.75687e-18
9599.99958 2.82305e-18
9601.99643 2.88779e-18
9604.00346 2.94827e-18
9606.00031 3.08260e-18
9607.99716 3.05594e-18
9610.00420 2.86642e-18
9612.00104 2.57662e-18
9613.99789 2.13746e-18
9615.99474 1.49778e-18
9618.00178 1.58844e-18
9619.99862 2.64643e-18
9621.99547 2.92799e-18
9624.00251 2.53527e-18
9625.99936 2.04736e-18
9627.99620 1.66527e-18
9630.00324 1.28897e-18
9632.00009 1.41909e-18
9633.99694 2.20584e-18
9636.00397 2.56672e-18
9638.00082 2.81573e-18
9639.99767 2.87464e-18
9642.00470 2.59984e-18
9644.00155 2.16789e-18
9645.99840 2.14388e-18
9647.99525 2.45982e-18
9650.00228 2.57688e-18
9651.99913 2.70555e-18
9653.99598 2.70923e-18
9656.00302 2.52740e-18
9657.99986 2.26129e-18
9659.99671 2.04987e-18
9662.00375 1.76697e-18
9664.00060 1.76557e-18
9665.99744 2.08674e-18
9668.00448 2.27794e-18
9670.00133 2.34187e-18
9671.99818 2.34345e-18
9673.99502 2.29939e-18
9676.00206 2.19276e-18
9677.99891 2.10445e-18
9679.99576 1.89710e-18
9682.00279 1.91698e-18
9683.99964 2.29152e-18
9685.99649 2.58639e-18
9688.00352 2.46151e-18
9690.00037 2.08045e-18
9691.99722 1.92232e-18
9694.00426 1.82841e-18
9696.00110 1.77800e-18
9697.99795 1.79471e-18
9699.99480 1.83021e-18
9702.00184 1.85442e-18
9703.99868 1.89181e-18
9705.99553 2.00475e-18
9708.00257 2.23742e-18
9709.99942 2.36078e-18
9711.99626 2.43483e-18
9714.00330 2.48112e-18
9716.00015 2.48002e-18
9717.99700 2.46602e-18
9720.00403 2.53956e-18
9722.00088 2.72471e-18
9723.99773 2.74351e-18
9726.00476 2.69952e-18
9728.00161 2.54054e-18
9729.99846 2.16928e-18
9731.99531 1.78286e-18
9734.00234 1.64450e-18
9735.99919 1.63694e-18
9737.99604 1.79236e-18
9740.00308 2.22588e-18
9741.99992 2.55273e-18
9743.99677 2.85824e-18
9746.00381 3.05969e-18
9748.00066 3.04369e-18
9749.99750 2.85243e-18
9751.99435 2.68100e-18
9754.00139 2.38163e-18
9755.99824 2.21691e-18
9757.99508 2.10344e-18
9760.00212 2.11412e-18
9761.99897 2.37705e-18
9763.99582 2.79583e-18
9766.00285 2.80686e-18
9767.99970 2.46358e-18
9769.99655 2.25697e-18
9772.00358 1.91561e-18
9774.00043 1.80772e-18
9775.99728 2.17772e-18
9778.00432 2.73794e-18
9780.00116 2.80553e-18
9781.99801 2.46172e-18
9784.00505 2.40198e-18
9786.00190 2.55191e-18
9787.99874 2.52196e-18
9789.99559 2.18583e-18
9792.00263 1.77041e-18
9793.99948 1.55579e-18
9795.99632 1.35608e-18
9798.00336 1.55456e-18
9800.00021 2.43082e-18
9801.99706 2.77984e-18
9804.00409 2.49408e-18
9806.00094 2.04114e-18
9807.99779 1.75562e-18
9809.99464 1.44347e-18
9812.00167 1.51493e-18
9813.99852 2.16738e-18
9815.99537 2.35261e-18
9818.00240 2.12400e-18
9819.99925 1.79546e-18
9821.99610 1.45178e-18
9824.00314 1.04614e-18
9825.99998 1.15268e-18
9827.99683 1.93322e-18
9830.00387 2.20118e-18
9832.00072 2.16287e-18
9833.99756 2.04605e-18
9836.00460 1.85956e-18
9838.00145 1.63127e-18
9839.99830 1.68493e-18
9841.99514 2.03947e-18
9844.00218 2.20365e-18
9845.99903 2.31435e-18
9847.99588 2.39826e-18
9850.00291 2.47546e-18
9851.99976 2.51435e-18
9853.99661 2.44472e-18
9856.00364 2.22619e-18
9858.00049 2.17520e-18
9859.99734 2.24793e-18
9862.00438 2.28401e-18
9864.00122 2.31598e-18
9865.99807 2.29392e-18
9868.00511 2.11244e-18
9870.00196 1.77795e-18
9871.99880 1.57625e-18
9873.99565 1.31720e-18
9876.00269 1.30208e-18
9877.99954 1.65004e-18
9879.99638 1.98656e-18
9882.00342 2.01179e-18
9884.00027 1.86204e-18
9885.99712 1.78714e-18
9888.00415 1.61348e-18
9890.00100 1.62706e-18
9891.99785 1.97020e-18
9893.99470 2.12378e-18
9896.00173 1.72224e-18
9897.99858 1.03374e-18
9899.99543 8.94413e-19
9902.00246 1.15394e-18
9903.99931 1.30717e-18
9905.99616 1.57148e-18
9908.00320 1.74674e-18
9910.00004 1.74929e-18
9911.99689 1.67543e-18
9914.00393 1.68489e-18
9916.00078 1.68000e-18
9917.99762 1.80949e-18
9920.00466 2.19675e-18
9922.00151 2.35503e-18
9923.99836 2.17811e-18
9925.99520 1.87725e-18
9928.00224 1.65621e-18
9929.99909 1.33654e-18
9931.99594 1.46321e-18
9934.00297 2.11036e-18
9935.99982 2.52704e-18
9937.99667 2.81565e-18
9940.00370 2.92595e-18
9942.00055 2.64764e-18
9943.99740 1.98301e-18
9946.00444 2.04735e-18
9948.00128 2.91673e-18
9949.99813 3.17073e-18
9951.99498 2.87526e-18
9954.00202 2.52489e-18
9955.99886 2.37245e-18
9957.99571 2.27900e-18
9960.00275 2.16635e-18
9961.99960 1.86364e-18
9963.99644 2.02639e-18
9966.00348 3.02691e-18
9968.00033 3.43153e-18
9969.99718 2.45671e-18
9972.00421 8.67308e-19
9974.00106 3.74607e-19
9975.99791 5.64493e-19
9978.00494 6.08187e-19
9980.00179 7.95512e-19
9981.99864 1.01096e-18
9983.99549 1.25481e-18
9986.00252 1.51934e-18
9987.99937 1.75936e-18
9989.99622 2.01549e-18
9992.00326 2.17723e-18
9994.00010 2.28435e-18
9995.99695 2.32140e-18
9998.00399 2.24187e-18
10000.00084 2.14540e-18
