# wavelength flux
3719.99603 5.04520e-18
3721.49933 4.81890e-18
3723.00263 4.97659e-18
3724.49590 5.03556e-18
3725.99920 5.13815e-18
3727.50250 4.91422e-18
3728.99578 4.59145e-18
3730.49908 5.16764e-18
3732.00238 4.81296e-18
3733.49566 4.95540e-18
3734.99896 5.29229e-18
3736.50226 4.71946e-18
3737.99554 4.84385e-18
3739.49884 4.80101e-18
3741.00214 4.55541e-18
3742.49542 4.63226e-18
3743.99872 4.86612e-18
3745.50202 4.96501e-18
3746.99529 4.57217e-18
3748.49859 4.65352e-18
3750.00189 4.76576e-18
3751.49517 4.58551e-18
3752.99847 4.41312e-18
3754.50177 4.32638e-18
3755.99505 4.62123e-18
3757.49835 4.91754e-18
3759.00165 4.61469e-18
3760.50495 4.38725e-18
3761.99823 4.50037e-18
3763.50153 4.34868e-18
3765.00483 4.39249e-18
3766.49811 4.73948e-18
3768.00141 4.63461e-18
3769.50471 4.28499e-18
3770.99798 4.28386e-18
3772.50128 4.44618e-18
3774.00458 4.44207e-18
3775.49786 4.15902e-18
3777.00116 4.28217e-18
3778.50446 4.56362e-18
3779.99774 4.55607e-18
3781.50104 4.31050e-18
3783.00434 4.43865e-18
3784.49762 4.44135e-18
3786.00092 4.37544e-18
3787.50422 4.46711e-18
3788.99750 4.44508e-18
3790.50080 4.37010e-18
3792.00410 4.39773e-18
3793.49737 4.38862e-18
3795.00067 4.50677e-18
3796.50397 4.18110e-18
3797.99725 4.34507e-18
3799.50055 4.71152e-18
3801.00385 4.44811e-18
3802.49713 4.40564e-18
3804.00043 4.73870e-18
3805.50373 4.62891e-18
3806.99701 3.95340e-18
3808.50031 4.05070e-18
3810.00361 4.38261e-18
3811.49689 4.23783e-18
3813.00019 4.55024e-18
3814.50349 4.61015e-18
3815.99676 4.47301e-18
3817.50006 4.36951e-18
3819.00336 4.53326e-18
3820.49664 4.54861e-18
3821.99994 4.41201e-18
3823.50324 4.54008e-18
3824.99652 4.81183e-18
3826.49982 4.71063e-18
3828.00312 4.67568e-18
3829.49640 4.91751e-18
3830.99970 4.66513e-18
3832.50300 4.49124e-18
3833.99628 4.75495e-18
3835.49958 5.09323e-18
3837.00288 5.03115e-18
3838.49615 4.87354e-18
3839.99945 5.23938e-18
3841.50275 5.42239e-18
3842.99603 5.46275e-18
3844.49933 5.53507e-18
3846.00263 5.49967e-18
3847.49591 5.45909e-18
3848.99921 5.45825e-18
3850.50251 5.52991e-18
3851.99579 5.57753e-18
3853.49909 5.52041e-18
3855.00239 5.70204e-18
3856.49567 5.68803e-18
3857.99897 5.69937e-18
3859.50227 5.71730e-18
3860.99554 6.01129e-18
3862.49884 6.12749e-18
3864.00214 5.83312e-18
3865.49542 5.90082e-18
3866.99872 6.03206e-18
3868.50202 5.94798e-18
3869.99530 6.53614e-18
3871.49860 6.51280e-18
3873.00190 6.02010e-18
3874.49518 6.24689e-18
3875.99848 6.45322e-18
3877.50178 6.61434e-18
3878.99506 6.53256e-18
3880.49836 6.73674e-18
3882.00166 6.93074e-18
3883.50496 6.75206e-18
3884.99823 6.73407e-18
3886.50153 6.93607e-18
3888.00483 7.16604e-18
3889.49811 7.22740e-18
3891.00141 7.19729e-18
3892.50471 7.10980e-18
3893.99799 7.10883e-18
3895.50129 6.87849e-18
3897.00459 7.14705e-18
3898.49787 7.10072e-18
3900.00117 7.07127e-18
3901.50447 7.36340e-18
3902.99775 7.28384e-18
3904.50105 7.18361e-18
3906.00435 7.30795e-18
3907.49762 7.32248e-18
3909.00092 7.30641e-18
3910.50422 7.42319e-18
3911.99750 7.47167e-18
3913.50080 7.30667e-18
3915.00410 7.48563e-18
3916.49738 7.63787e-18
3918.00068 7.26193e-18
3919.50398 7.53560e-18
3920.99726 7.85848e-18
3922.50056 7.64155e-18
3924.00386 7.62105e-18
3925.49714 7.76953e-18
3927.00044 7.85450e-18
3928.50374 8.03258e-18
3929.99701 8.04361e-18
3931.50031 7.91546e-18
3933.00361 7.85406e-18
3934.49689 7.60690e-18
3936.00019 7.70952e-18
3937.50349 8.01479e-18
3938.99677 8.37356e-18
3940.50007 8.51152e-18
3942.00337 8.20294e-18
3943.49665 7.95842e-18
3944.99995 8.01692e-18
3946.50325 8.24079e-18
3947.99653 8.12898e-18
3949.49983 8.36224e-18
3951.00313 8.31137e-18
3952.49640 8.14163e-18
3953.99970 7.93848e-18
3955.50300 8.36215e-18
3956.99628 8.37027e-18
3958.49958 8.41552e-18
3960.00288 8.68920e-18
3961.49616 8.79859e-18
3962.99946 8.83387e-18
3964.50276 8.62485e-18
3965.99604 8.29196e-18
3967.49934 8.26641e-18
3969.00264 8.47072e-18
3970.49592 8.38791e-18
3971.99922 8.46432e-18
3973.50252 8.69974e-18
3974.99579 8.68241e-18
3976.49909 8.50536e-18
3978.00239 8.48237e-18
3979.49567 8.51662e-18
3980.99897 8.61497e-18
3982.50227 8.73463e-18
3983.99555 8.73553e-18
3985.49885 8.75497e-18
3987.00215 8.61548e-18
3988.49543 8.46053e-18
3989.99873 8.57169e-18
3991.50203 8.72533e-18
3992.99531 8.78334e-18
3994.49861 8.70014e-18
3996.00191 8.64331e-18
3997.49518 8.59527e-18
3998.99848 8.47985e-18
4000.50178 8.52947e-18
4001.99506 8.59602e-18
4003.49836 8.56189e-18
4005.00166 8.58907e-18
4006.50496 8.62862e-18
4007.99824 8.65379e-18
4009.50154 8.79843e-18
4011.00484 8.84729e-18
4012.49812 8.76433e-18
4014.00142 8.72814e-18
4015.50472 8.56311e-18
4016.99800 8.69429e-18
4018.50130 8.68922e-18
4020.00460 8.71869e-18
4021.49787 8.56647e-18
4023.00117 8.47042e-18
4024.50447 8.70475e-18
4025.99775 8.64547e-18
4027.50105 8.75968e-18
4029.00435 8.72925e-18
4030.49763 8.47978e-18
4032.00093 8.39638e-18
4033.50423 8.37938e-18
4034.99751 8.29537e-18
4036.50081 8.38270e-18
4038.00411 8.11183e-18
4039.49739 8.39453e-18
4041.00069 8.26784e-18
4042.50399 8.24704e-18
4043.99726 8.05306e-18
4045.50056 7.85407e-18
4047.00386 7.78081e-18
4048.49714 7.88949e-18
4050.00044 8.21022e-18
4051.50374 8.14206e-18
4052.99702 8.08903e-18
4054.50032 8.17622e-18
4056.00362 8.14255e-18
4057.49690 7.98334e-18
4059.00020 8.00199e-18
4060.50350 8.06552e-18
4061.99678 8.26656e-18
4063.50008 8.08090e-18
4065.00338 7.89689e-18
4066.49665 8.17934e-18
4067.99995 8.23965e-18
4069.50325 8.30241e-18
4070.99653 8.29159e-18
4072.49983 8.09567e-18
4074.00313 8.17824e-18
4075.49641 8.05036e-18
4076.99971 8.10961e-18
4078.50301 8.39827e-18
4079.99629 8.07544e-18
4081.49959 8.03156e-18
4083.00289 8.01862e-18
4084.49617 7.84357e-18
4085.99947 7.88467e-18
4087.50277 8.00062e-18
4088.99604 8.26362e-18
4090.49934 8.19663e-18
4092.00264 8.27069e-18
4093.49592 7.96033e-18
4094.99922 8.17168e-18
4096.50252 8.19854e-18
4097.99580 8.13197e-18
4099.49910 7.97669e-18
4101.00240 7.88180e-18
4102.49568 7.83862e-18
4103.99898 7.82323e-18
4105.50228 8.02060e-18
4106.99556 8.09509e-18
4108.49886 7.91427e-18
4110.00216 8.00230e-18
4111.49543 8.10829e-18
4112.99873 8.01980e-18
4114.50203 7.95759e-18
4115.99531 8.21911e-18
4117.49861 8.18951e-18
4119.00191 8.01168e-18
4120.49519 7.99853e-18
4121.99849 8.14080e-18
4123.50179 8.35817e-18
4124.99507 8.28756e-18
4126.49837 8.16199e-18
4128.00167 8.32871e-18
4129.50497 8.39738e-18
4130.99825 8.33297e-18
4132.50155 8.28165e-18
4134.00485 8.19118e-18
4135.49812 8.03951e-18
4137.00142 8.23779e-18
4138.50472 8.26553e-18
4139.99800 8.00942e-18
4141.50130 8.21320e-18
4143.00460 8.41926e-18
4144.49788 8.44935e-18
4146.00118 8.34553e-18
4147.50448 8.48314e-18
4148.99776 8.41157e-18
4150.50106 8.20462e-18
4152.00436 8.19408e-18
4153.49764 8.25254e-18
4155.00094 8.25649e-18
4156.50424 8.52813e-18
4157.99751 8.04020e-18
4159.50081 8.30009e-18
4161.00411 8.44506e-18
4162.49739 8.47726e-18
4164.00069 8.70752e-18
4165.50399 8.45963e-18
4166.99727 8.49902e-18
4168.50057 8.43219e-18
4170.00387 8.60176e-18
4171.49715 8.73499e-18
4173.00045 8.61830e-18
4174.50375 8.55006e-18
4175.99703 8.49512e-18
4177.50033 8.54089e-18
4179.00363 8.62613e-18
4180.49690 8.74236e-18
4182.00020 8.59520e-18
4183.50350 8.41627e-18
4184.99678 8.59741e-18
4186.50008 8.78011e-18
4188.00338 8.76558e-18
4189.49666 8.96571e-18
4190.99996 9.05979e-18
4192.50326 9.02596e-18
4193.99654 8.85041e-18
4195.49984 8.80735e-18
4197.00314 8.77939e-18
4198.49642 8.88909e-18
4199.99972 9.06097e-18
4201.50302 9.13469e-18
4202.99629 8.93945e-18
4204.49959 8.88685e-18
4206.00289 9.09998e-18
4207.49617 9.14507e-18
4208.99947 9.12247e-18
4210.50277 9.19551e-18
4211.99605 9.19179e-18
4213.49935 9.17471e-18
4215.00265 9.09653e-18
4216.49593 9.22718e-18
4217.99923 9.45459e-18
4219.50253 9.48937e-18
4220.99581 9.39129e-18
4222.49911 9.31067e-18
4224.00241 9.27892e-18
4225.49568 9.07364e-18
4226.99898 9.16958e-18
4228.50228 9.59017e-18
4229.99556 9.64503e-18
4231.49886 9.43631e-18
4233.00216 9.60397e-18
4234.49544 9.80599e-18
4235.99874 9.40424e-18
4237.50204 9.33504e-18
4238.99532 9.44461e-18
4240.49862 9.52278e-18
4242.00192 9.63824e-18
4243.49520 9.59529e-18
4244.99850 9.45893e-18
4246.50180 9.55843e-18
4247.99507 9.71073e-18
4249.49837 9.72154e-18
4251.00167 9.55235e-18
4252.50497 9.51581e-18
4253.99825 9.64662e-18
4255.50155 9.63844e-18
4257.00485 9.36407e-18
4258.49813 9.35331e-18
4260.00143 9.64383e-18
4261.50473 9.56445e-18
4262.99801 9.48169e-18
4264.50131 9.60724e-18
4266.00461 9.75591e-18
4267.49789 9.86606e-18
4269.00119 9.82763e-18
4270.50449 9.77605e-18
4271.99776 9.82587e-18
4273.50106 9.77478e-18
4275.00436 9.58841e-18
4276.49764 9.49972e-18
4278.00094 9.64980e-18
4279.50424 9.71448e-18
4280.99752 9.65350e-18
4282.50082 9.91689e-18
4284.00412 1.00644e-17
4285.49740 9.94862e-18
4287.00070 9.78516e-18
4288.50400 9.81558e-18
4289.99728 1.00784e-17
4291.50058 1.02446e-17
4293.00388 1.03922e-17
4294.49715 1.00625e-17
4296.00045 1.00555e-17
4297.50375 1.05508e-17
4298.99703 1.04936e-17
4300.50033 1.01395e-17
4302.00363 1.01961e-17
4303.49691 1.03332e-17
4305.00021 1.04802e-17
4306.50351 1.04660e-17
4307.99679 1.02625e-17
4309.50009 1.01571e-17
4311.00339 1.02382e-17
4312.49667 1.04459e-17
4313.99997 1.05592e-17
4315.50327 1.03546e-17
4316.99654 1.04020e-17
4318.49984 1.05730e-17
4320.00314 1.06132e-17
4321.49642 1.04834e-17
4322.99972 1.06978e-17
4324.50302 1.05013e-17
4325.99630 1.03603e-17
4327.49960 1.04034e-17
4329.00290 1.04517e-17
4330.49618 1.05832e-17
4331.99948 1.06573e-17
4333.50278 1.06103e-17
4334.99606 1.06608e-17
4336.49936 1.04245e-17
4338.00266 1.04864e-17
4339.49593 1.05892e-17
4340.99923 1.03930e-17
4342.50253 1.05466e-17
4343.99581 1.06214e-17
4345.49911 1.05144e-17
4347.00241 1.04459e-17
4348.49569 1.05887e-17
4349.99899 1.06984e-17
4351.50229 1.06038e-17
4352.99557 1.06040e-17
4354.49887 1.07716e-17
4356.00217 1.07084e-17
4357.49545 1.08205e-17
4358.99875 1.07432e-17
4360.50205 1.05787e-17
4361.99532 1.05746e-17
4363.49862 1.07274e-17
4365.00192 1.06088e-17
4366.49520 1.07718e-17
4367.99850 1.07116e-17
4369.50180 1.07252e-17
4370.99508 1.08444e-17
4372.49838 1.07948e-17
4374.00168 1.08001e-17
4375.50498 1.08610e-17
4376.99826 1.08040e-17
4378.50156 1.08317e-17
4380.00486 1.08224e-17
4381.49814 1.08326e-17
4383.00144 1.11566e-17
4384.50474 1.13788e-17
4385.99801 1.13052e-17
4387.50131 1.13772e-17
4389.00461 1.13618e-17
4390.49789 1.12453e-17
4392.00119 1.14374e-17
4393.50449 1.14143e-17
4394.99777 1.12703e-17
4396.50107 1.15569e-17
4398.00437 1.17538e-17
4399.49765 1.17980e-17
4401.00095 1.16857e-17
4402.50425 1.16333e-17
4403.99753 1.17239e-17
4405.50083 1.19661e-17
4407.00413 1.21031e-17
4408.49740 1.19905e-17
4410.00070 1.20180e-17
4411.50400 1.20159e-17
4412.99728 1.19569e-17
4414.50058 1.20861e-17
4416.00388 1.22043e-17
4417.49716 1.22968e-17
4419.00046 1.22539e-17
4420.50376 1.23204e-17
4421.99704 1.23182e-17
4423.50034 1.21390e-17
4425.00364 1.22663e-17
4426.49692 1.24481e-17
4428.00022 1.25712e-17
4429.50352 1.27312e-17
4430.99679 1.27723e-17
4432.50009 1.27675e-17
4434.00339 1.26204e-17
4435.49667 1.25921e-17
4436.99997 1.26329e-17
4438.50327 1.27425e-17
4439.99655 1.29347e-17
4441.49985 1.29512e-17
4443.00315 1.29447e-17
4444.49643 1.30367e-17
4445.99973 1.30285e-17
4447.50303 1.30646e-17
4448.99631 1.36468e-17
4450.49961 1.32553e-17
4452.00291 1.33813e-17
4453.49618 1.36546e-17
4454.99948 1.37005e-17
4456.50278 1.38782e-17
4457.99606 1.38911e-17
4459.49936 1.37486e-17
4461.00266 1.40515e-17
4462.49594 1.42434e-17
4463.99924 1.43943e-17
4465.50254 1.45855e-17
4466.99582 1.45290e-17
4468.49912 1.45367e-17
4470.00242 1.46349e-17
4471.49570 1.46837e-17
4472.99900 1.48084e-17
4474.50230 1.48900e-17
4475.99557 1.49422e-17
4477.49887 1.50501e-17
4479.00217 1.49175e-17
4480.49545 1.48982e-17
4481.99875 1.50528e-17
4483.50205 1.50318e-17
4484.99533 1.52671e-17
4486.49863 1.52920e-17
4488.00193 1.52380e-17
4489.49521 1.54338e-17
4490.99851 1.55196e-17
4492.50181 1.56951e-17
4493.99509 1.58560e-17
4495.49839 1.59722e-17
4497.00169 1.58520e-17
4498.49496 1.58284e-17
4499.99826 1.58623e-17
4501.50156 1.61280e-17
4503.00486 1.61539e-17
4504.49814 1.59516e-17
4506.00144 1.62759e-17
4507.50474 1.62448e-17
4508.99802 1.63077e-17
4510.50132 1.65835e-17
4512.00462 1.65838e-17
4513.49790 1.63805e-17
4515.00120 1.67018e-17
4516.50450 1.65125e-17
4517.99778 1.64675e-17
4519.50108 1.66376e-17
4521.00438 1.67350e-17
4522.49765 1.65465e-17
4524.00095 1.66160e-17
4525.50425 1.64652e-17
4526.99753 1.68122e-17
4528.50083 1.67410e-17
4530.00413 1.68442e-17
4531.49741 1.67390e-17
4533.00071 1.66231e-17
4534.50401 1.66721e-17
4535.99729 1.69597e-17
4537.50059 1.70964e-17
4539.00389 1.71991e-17
4540.49717 1.72660e-17
4542.00047 1.73460e-17
4543.50377 1.72148e-17
4544.99704 1.74665e-17
4546.50034 1.74600e-17
4548.00364 1.74424e-17
4549.49692 1.72978e-17
4551.00022 1.72885e-17
4552.50352 1.73562e-17
4553.99680 1.73915e-17
4555.50010 1.72896e-17
4557.00340 1.73004e-17
4558.49668 1.75638e-17
4559.99998 1.75465e-17
4561.50328 1.73703e-17
4562.99656 1.74541e-17
4564.49986 1.76043e-17
4566.00316 1.76593e-17
4567.49643 1.76234e-17
4568.99973 1.74383e-17
4570.50303 1.73084e-17
4571.99631 1.75159e-17
4573.49961 1.76848e-17
4575.00291 1.76104e-17
4576.49619 1.76348e-17
4577.99949 1.77791e-17
4579.50279 1.75892e-17
4580.99607 1.74359e-17
4582.49937 1.75005e-17
4584.00267 1.75568e-17
4585.49595 1.76020e-17
4586.99925 1.75463e-17
4588.50255 1.75259e-17
4589.99582 1.75645e-17
4591.49912 1.80470e-17
4593.00242 1.80250e-17
4594.49570 1.78967e-17
4595.99900 1.76333e-17
4597.50230 1.75024e-17
4598.99558 1.74541e-17
4600.49888 1.76615e-17
4602.00218 1.76240e-17
4603.49546 1.75379e-17
4604.99876 1.76550e-17
4606.50206 1.76639e-17
4607.99534 1.76940e-17
4609.49864 1.76614e-17
4611.00194 1.74333e-17
4612.49521 1.74729e-17
4613.99851 1.74522e-17
4615.50181 1.74182e-17
4616.99509 1.73871e-17
4618.49839 1.73322e-17
4620.00169 1.71776e-17
4621.49497 1.70331e-17
4622.99827 1.71981e-17
4624.50157 1.72486e-17
4626.00487 1.71149e-17
4627.49815 1.70880e-17
4629.00145 1.70214e-17
4630.50475 1.70447e-17
4631.99803 1.69546e-17
4633.50133 1.68627e-17
4635.00463 1.69221e-17
4636.49790 1.67714e-17
4638.00120 1.65361e-17
4639.50450 1.66363e-17
4640.99778 1.65481e-17
4642.50108 1.63109e-17
4644.00438 1.62465e-17
4645.49766 1.64397e-17
4647.00096 1.63267e-17
4648.50426 1.60902e-17
4649.99754 1.62389e-17
4651.50084 1.64485e-17
4653.00414 1.64619e-17
4654.49742 1.59985e-17
4656.00072 1.57327e-17
4657.50402 1.57035e-17
4658.99729 1.59445e-17
4660.50059 1.58311e-17
4662.00389 1.56011e-17
4663.49717 1.56316e-17
4665.00047 1.54276e-17
4666.50377 1.51901e-17
4667.99705 1.52809e-17
4669.50035 1.51325e-17
4671.00365 1.55190e-17
4672.49693 1.56790e-17
4674.00023 1.51525e-17
4675.50353 1.51976e-17
4676.99681 1.52204e-17
4678.50011 1.50576e-17
4680.00341 1.48998e-17
4681.49668 1.47310e-17
4682.99998 1.47159e-17
4684.50328 1.49690e-17
4685.99656 1.49351e-17
4687.49986 1.45646e-17
4689.00316 1.43919e-17
4690.49644 1.44339e-17
4691.99974 1.43859e-17
4693.50304 1.44464e-17
4694.99632 1.44422e-17
4696.49962 1.43053e-17
4698.00292 1.42552e-17
4699.49620 1.42098e-17
4700.99950 1.41893e-17
4702.50280 1.42269e-17
4703.99607 1.40433e-17
4705.49937 1.37359e-17
4707.00267 1.37932e-17
4708.49595 1.37663e-17
4709.99925 1.35074e-17
4711.50255 1.35988e-17
4712.99583 1.38766e-17
4714.49913 1.38798e-17
4716.00243 1.38028e-17
4717.49571 1.36182e-17
4718.99901 1.34375e-17
4720.50231 1.34301e-17
4721.99559 1.34314e-17
4723.49889 1.33531e-17
4725.00219 1.33635e-17
4726.49546 1.34417e-17
4727.99876 1.33868e-17
4729.50206 1.32097e-17
4730.99534 1.32373e-17
4732.49864 1.33010e-17
4734.00194 1.31204e-17
4735.49522 1.33386e-17
4736.99852 1.33251e-17
4738.50182 1.32222e-17
4739.99510 1.32832e-17
4741.49840 1.32517e-17
4743.00170 1.34239e-17
4744.49498 1.33996e-17
4745.99828 1.30925e-17
4747.50158 1.31473e-17
4749.00488 1.32126e-17
4750.49815 1.31653e-17
4752.00145 1.30746e-17
4753.50475 1.31088e-17
4754.99803 1.31051e-17
4756.50133 1.29541e-17
4758.00463 1.28947e-17
4759.49791 1.28513e-17
4761.00121 1.28045e-17
4762.50451 1.27858e-17
4763.99779 1.27449e-17
4765.50109 1.26949e-17
4767.00439 1.27690e-17
4768.49767 1.27541e-17
4770.00097 1.26759e-17
4771.50427 1.26610e-17
4772.99754 1.26270e-17
4774.50084 1.26652e-17
4776.00414 1.25984e-17
4777.49742 1.25570e-17
4779.00072 1.26083e-17
4780.50402 1.28854e-17
4781.99730 1.29867e-17
4783.50060 1.27549e-17
4785.00390 1.27594e-17
4786.49718 1.28123e-17
4788.00048 1.26519e-17
4789.50378 1.28328e-17
4790.99706 1.30090e-17
4792.50036 1.29097e-17
4794.00366 1.29407e-17
4795.49693 1.29531e-17
4797.00023 1.30713e-17
4798.50353 1.29768e-17
4799.99681 1.32333e-17
4801.50011 1.32877e-17
4803.00341 1.31097e-17
4804.49669 1.32682e-17
4805.99999 1.32778e-17
4807.50329 1.33805e-17
4808.99657 1.35331e-17
4810.49987 1.33558e-17
4812.00317 1.33051e-17
4813.49645 1.31925e-17
4814.99975 1.33968e-17
4816.50305 1.35358e-17
4817.99632 1.37137e-17
4819.49962 1.35951e-17
4821.00292 1.33042e-17
4822.49620 1.34030e-17
4823.99950 1.34954e-17
4825.50280 1.35792e-17
4826.99608 1.34103e-17
4828.49938 1.32584e-17
4830.00268 1.33062e-17
4831.49596 1.34514e-17
4832.99926 1.34110e-17
4834.50256 1.33613e-17
4835.99584 1.33526e-17
4837.49914 1.31070e-17
4839.00244 1.30804e-17
4840.49571 1.33222e-17
4841.99901 1.35399e-17
4843.50231 1.34533e-17
4844.99559 1.33437e-17
4846.49889 1.34180e-17
4848.00219 1.33663e-17
4849.49547 1.33212e-17
4850.99877 1.32758e-17
4852.50207 1.31672e-17
4853.99535 1.31576e-17
4855.49865 1.31715e-17
4857.00195 1.32024e-17
4858.49523 1.31518e-17
4859.99853 1.30173e-17
4861.50183 1.29862e-17
4862.99510 1.30680e-17
4864.49840 1.30054e-17
4866.00170 1.30222e-17
4867.49498 1.32938e-17
4868.99828 1.33133e-17
4870.50158 1.32468e-17
4872.00488 1.32443e-17
4873.49816 1.32754e-17
4875.00146 1.35469e-17
4876.50476 1.36852e-17
4877.99804 1.36836e-17
4879.50134 1.35045e-17
4881.00464 1.34683e-17
4882.49792 1.36271e-17
4884.00122 1.37055e-17
4885.50452 1.37961e-17
4886.99779 1.36572e-17
4888.50109 1.37109e-17
4890.00439 1.36518e-17
4891.49767 1.37970e-17
4893.00097 1.39316e-17
4894.50427 1.37508e-17
4895.99755 1.37602e-17
4897.50085 1.37220e-17
4899.00415 1.37306e-17
4900.49743 1.37055e-17
4902.00073 1.39348e-17
4903.50403 1.39995e-17
4904.99731 1.42136e-17
4906.50061 1.41840e-17
4908.00391 1.39412e-17
4909.49718 1.38687e-17
4911.00048 1.39824e-17
4912.50378 1.39290e-17
4913.99706 1.38813e-17
4915.50036 1.38382e-17
4917.00366 1.37494e-17
4918.49694 1.37651e-17
4920.00024 1.38476e-17
4921.50354 1.39455e-17
4922.99682 1.38323e-17
4924.50012 1.36787e-17
4926.00342 1.37271e-17
4927.49670 1.37285e-17
4929.00000 1.36808e-17
4930.50330 1.37943e-17
4931.99657 1.38541e-17
4933.49987 1.39390e-17
4935.00317 1.39246e-17
4936.49645 1.38645e-17
4937.99975 1.39434e-17
4939.50305 1.39149e-17
4940.99633 1.39480e-17
4942.49963 1.39092e-17
4944.00293 1.38303e-17
4945.49621 1.38668e-17
4946.99951 1.39842e-17
4948.50281 1.39175e-17
4949.99609 1.41459e-17
4951.49939 1.38129e-17
4953.00269 1.38794e-17
4954.49596 1.42362e-17
4955.99926 1.41843e-17
4957.50256 1.38428e-17
4958.99584 1.36651e-17
4960.49914 1.36878e-17
4962.00244 1.38382e-17
4963.49572 1.38949e-17
4964.99902 1.38361e-17
4966.50232 1.37817e-17
4967.99560 1.37340e-17
4969.49890 1.38442e-17
4971.00220 1.38100e-17
4972.49548 1.38140e-17
4973.99878 1.37285e-17
4975.50208 1.34955e-17
4976.99535 1.34777e-17
4978.49865 1.35906e-17
4980.00195 1.36791e-17
4981.49523 1.37236e-17
4982.99853 1.36624e-17
4984.50183 1.34535e-17
4985.99511 1.34309e-17
4987.49841 1.34612e-17
4989.00171 1.34969e-17
4990.49499 1.36068e-17
4991.99829 1.36882e-17
4993.50159 1.38172e-17
4995.00489 1.37645e-17
4996.49817 1.34682e-17
4998.00147 1.34535e-17
4999.50477 1.34545e-17
5000.99804 1.33375e-17
5002.50134 1.33795e-17
5004.00464 1.33827e-17
5005.49792 1.33298e-17
5007.00122 1.33092e-17
5008.50452 1.33481e-17
5009.99780 1.34599e-17
5011.50110 1.33070e-17
5013.00440 1.33062e-17
5014.49768 1.33764e-17
5016.00098 1.34790e-17
5017.50428 1.33125e-17
5018.99756 1.35232e-17
5020.50086 1.35730e-17
5022.00416 1.36023e-17
5023.49743 1.33130e-17
5025.00073 1.32945e-17
5026.50403 1.35635e-17
5027.99731 1.35223e-17
5029.50061 1.34225e-17
5031.00391 1.35373e-17
5032.49719 1.34052e-17
5034.00049 1.35752e-17
5035.50379 1.36478e-17
5036.99707 1.35119e-17
5038.50037 1.34704e-17
5040.00367 1.36377e-17
5041.49695 1.37197e-17
5043.00025 1.35798e-17
5044.50355 1.36126e-17
5045.99682 1.38293e-17
5047.50012 1.39499e-17
5049.00342 1.39238e-17
5050.49670 1.39229e-17
5052.00000 1.38641e-17
5053.50330 1.38282e-17
5054.99658 1.39679e-17
5056.49988 1.40841e-17
5058.00318 1.40507e-17
5059.49646 1.39618e-17
5060.99976 1.40525e-17
5062.50306 1.40930e-17
5063.99634 1.40871e-17
5065.49964 1.40696e-17
5067.00294 1.39591e-17
5068.49621 1.40105e-17
5069.99951 1.41324e-17
5071.50281 1.41797e-17
5072.99609 1.41956e-17
5074.49939 1.42592e-17
5076.00269 1.41371e-17
5077.49597 1.43089e-17
5078.99927 1.44038e-17
5080.50257 1.43845e-17
5081.99585 1.45479e-17
5083.49915 1.44351e-17
5085.00245 1.43720e-17
5086.49573 1.45063e-17
5087.99903 1.45165e-17
5089.50233 1.45575e-17
5090.99560 1.44231e-17
5092.49890 1.44894e-17
5094.00220 1.44348e-17
5095.49548 1.44745e-17
5096.99878 1.45661e-17
5098.50208 1.45459e-17
5099.99536 1.44548e-17
5101.49866 1.45227e-17
5103.00196 1.46724e-17
5104.49524 1.46505e-17
5105.99854 1.48356e-17
5107.50184 1.48487e-17
5108.99512 1.47155e-17
5110.49842 1.48024e-17
5112.00172 1.47444e-17
5113.49499 1.47115e-17
5114.99829 1.49935e-17
5116.50159 1.49295e-17
5118.00489 1.48286e-17
5119.49817 1.49115e-17
5121.00147 1.49847e-17
5122.50477 1.49706e-17
5123.99805 1.48878e-17
5125.50135 1.50735e-17
5127.00465 1.50473e-17
5128.49793 1.49449e-17
5130.00123 1.50269e-17
5131.50453 1.51868e-17
5132.99781 1.52259e-17
5134.50111 1.51836e-17
5136.00441 1.51996e-17
5137.49768 1.51847e-17
5139.00098 1.50881e-17
5140.50428 1.52150e-17
5141.99756 1.53543e-17
5143.50086 1.51955e-17
5145.00416 1.51328e-17
5146.49744 1.52378e-17
5148.00074 1.53836e-17
5149.50404 1.52646e-17
5150.99732 1.51557e-17
5152.50062 1.53043e-17
5154.00392 1.54465e-17
5155.49720 1.53592e-17
5157.00050 1.53497e-17
5158.50380 1.53605e-17
5159.99707 1.52904e-17
5161.50037 1.52340e-17
5163.00367 1.55079e-17
5164.49695 1.55061e-17
5166.00025 1.54645e-17
5167.50355 1.57197e-17
5168.99683 1.56563e-17
5170.50013 1.55427e-17
5172.00343 1.57726e-17
5173.49671 1.60963e-17
5175.00001 1.58783e-17
5176.50331 1.60053e-17
5177.99659 1.61745e-17
5179.49989 1.60767e-17
5181.00319 1.60359e-17
5182.49646 1.59821e-17
5183.99976 1.60994e-17
5185.50306 1.61515e-17
5186.99634 1.63072e-17
5188.49964 1.63971e-17
5190.00294 1.63908e-17
5191.49622 1.64733e-17
5192.99952 1.64192e-17
5194.50282 1.65390e-17
5195.99610 1.65834e-17
5197.49940 1.64477e-17
5199.00270 1.65166e-17
5200.49598 1.65810e-17
5201.99928 1.65237e-17
5203.50258 1.65044e-17
5204.99585 1.67498e-17
5206.49915 1.69648e-17
5208.00245 1.69134e-17
5209.49573 1.67650e-17
5210.99903 1.68756e-17
5212.50233 1.69886e-17
5213.99561 1.70295e-17
5215.49891 1.71298e-17
5217.00221 1.71446e-17
5218.49549 1.71953e-17
5219.99879 1.70612e-17
5221.50209 1.70798e-17
5222.99537 1.72751e-17
5224.49867 1.73665e-17
5226.00197 1.74565e-17
5227.49524 1.72901e-17
5228.99854 1.73185e-17
5230.50184 1.76282e-17
5231.99512 1.76547e-17
5233.49842 1.74637e-17
5235.00172 1.75166e-17
5236.49500 1.75651e-17
5237.99830 1.75199e-17
5239.50160 1.77102e-17
5241.00490 1.79018e-17
5242.49818 1.76860e-17
5244.00148 1.77938e-17
5245.50478 1.78592e-17
5246.99806 1.77166e-17
5248.50136 1.78625e-17
5250.00466 1.79015e-17
5251.49793 1.80224e-17
5253.00123 1.81570e-17
5254.50453 1.80156e-17
5255.99781 1.78200e-17
5257.50111 1.79365e-17
5259.00441 1.79448e-17
5260.49769 1.78312e-17
5262.00099 1.78834e-17
5263.50429 1.78285e-17
5264.99757 1.78767e-17
5266.50087 1.81480e-17
5268.00417 1.82853e-17
5269.49745 1.81893e-17
5271.00075 1.80579e-17
5272.50405 1.81908e-17
5273.99732 1.83867e-17
5275.50062 1.83500e-17
5277.00392 1.83455e-17
5278.49720 1.83983e-17
5280.00050 1.82921e-17
5281.50380 1.83301e-17
5282.99708 1.84640e-17
5284.50038 1.85003e-17
5286.00368 1.85535e-17
5287.49696 1.86701e-17
5289.00026 1.86611e-17
5290.50356 1.86374e-17
5291.99684 1.87077e-17
5293.50014 1.87157e-17
5295.00344 1.88948e-17
5296.49671 1.90209e-17
5298.00001 1.88528e-17
5299.50331 1.87272e-17
5300.99659 1.86093e-17
5302.49989 1.84821e-17
5304.00319 1.85622e-17
5305.49647 1.86382e-17
5306.99977 1.85063e-17
5308.50307 1.84964e-17
5309.99635 1.87599e-17
5311.49965 1.85929e-17
5313.00295 1.84977e-17
5314.49623 1.86761e-17
5315.99953 1.85917e-17
5317.50283 1.84840e-17
5318.99610 1.85720e-17
5320.49940 1.84590e-17
5322.00270 1.85232e-17
5323.49598 1.86973e-17
5324.99928 1.86701e-17
5326.50258 1.85362e-17
5327.99586 1.84973e-17
5329.49916 1.85088e-17
5331.00246 1.85286e-17
5332.49574 1.86139e-17
5333.99904 1.86891e-17
5335.50234 1.84965e-17
5336.99562 1.83991e-17
5338.49892 1.86514e-17
5340.00222 1.87296e-17
5341.49549 1.85100e-17
5342.99879 1.85901e-17
5344.50209 1.86925e-17
5345.99537 1.87397e-17
5347.49867 1.86621e-17
5349.00197 1.87721e-17
5350.49525 1.88472e-17
5351.99855 1.87715e-17
5353.50185 1.89567e-17
5354.99513 1.89558e-17
5356.49843 1.89060e-17
5358.00173 1.89827e-17
5359.49501 1.89202e-17
5360.99831 1.87347e-17
5362.50161 1.86748e-17
5364.00491 1.87647e-17
5365.49818 1.88341e-17
5367.00148 1.89460e-17
5368.50478 1.92140e-17
5369.99806 1.92244e-17
5371.50136 1.91272e-17
5373.00466 1.90012e-17
5374.49794 1.90782e-17
5376.00124 1.89123e-17
5377.50454 1.89918e-17
5378.99782 1.91690e-17
5380.50112 1.93710e-17
5382.00442 1.93860e-17
5383.49770 1.92003e-17
5385.00100 1.91082e-17
5386.50430 1.95395e-17
5387.99757 1.93929e-17
5389.50087 1.92842e-17
5391.00417 1.92822e-17
5392.49745 1.94456e-17
5394.00075 1.95039e-17
5395.50405 1.94549e-17
5396.99733 1.93537e-17
5398.50063 1.94859e-17
5400.00393 1.96502e-17
5401.49721 1.96366e-17
5403.00051 1.95120e-17
5404.50381 1.96692e-17
5405.99709 1.96133e-17
5407.50039 1.97277e-17
5409.00369 1.98889e-17
5410.49696 1.95738e-17
5412.00026 1.94943e-17
5413.50356 1.97197e-17
5414.99684 1.96108e-17
5416.50014 1.94694e-17
5418.00344 1.95228e-17
5419.49672 1.95341e-17
5421.00002 1.95712e-17
5422.50332 1.97092e-17
5423.99660 1.96950e-17
5425.49990 1.95882e-17
5427.00320 1.96060e-17
5428.49648 1.97073e-17
5429.99978 1.99029e-17
5431.50308 1.98260e-17
5432.99635 1.96644e-17
5434.49965 1.98363e-17
5436.00295 1.98297e-17
5437.49623 1.98123e-17
5438.99953 1.99526e-17
5440.50283 1.97901e-17
5441.99611 1.97759e-17
5443.49941 1.97688e-17
5445.00271 1.99052e-17
5446.49599 1.99830e-17
5447.99929 2.01090e-17
5449.50259 1.98667e-17
5450.99587 1.98891e-17
5452.49917 1.97112e-17
5454.00247 1.99844e-17
5455.49574 1.99514e-17
5456.99904 1.99110e-17
5458.50234 1.96689e-17
5459.99562 1.93666e-17
5461.49892 1.97903e-17
5463.00222 1.97385e-17
5464.49550 1.96542e-17
5465.99880 1.96430e-17
5467.50210 1.95430e-17
5468.99538 1.94075e-17
5470.49868 1.90415e-17
5472.00198 1.92466e-17
5473.49526 1.94046e-17
5474.99856 1.94653e-17
5476.50186 1.91918e-17
5477.99513 1.91619e-17
5479.49843 1.91745e-17
5481.00173 1.91627e-17
5482.49501 1.91318e-17
5483.99831 1.91407e-17
5485.50161 1.91675e-17
5487.00491 1.90721e-17
5488.49819 1.88967e-17
5490.00149 1.88286e-17
5491.50479 1.88499e-17
5492.99807 1.88815e-17
5494.50137 1.89093e-17
5496.00467 1.88021e-17
5497.49795 1.87620e-17
5499.00125 1.88274e-17
5500.50455 1.89136e-17
5501.99782 1.89723e-17
5503.50112 1.88075e-17
5505.00442 1.86788e-17
5506.49770 1.87285e-17
5508.00100 1.87341e-17
5509.50430 1.87817e-17
5510.99758 1.88276e-17
5512.50088 1.88030e-17
5514.00418 1.88037e-17
5515.49746 1.85240e-17
5517.00076 1.86463e-17
5518.50406 1.88639e-17
5519.99734 1.88080e-17
5521.50064 1.88541e-17
5523.00394 1.86149e-17
5524.49721 1.84801e-17
5526.00051 1.85831e-17
5527.50381 1.86593e-17
5528.99709 1.87039e-17
5530.50039 1.87361e-17
5532.00369 1.85574e-17
5533.49697 1.85971e-17
5535.00027 1.84510e-17
5536.50357 1.82991e-17
5537.99685 1.80354e-17
5539.50015 1.81245e-17
5541.00345 1.82265e-17
5542.49673 1.80723e-17
5544.00003 1.79708e-17
5545.50333 1.79302e-17
5546.99660 1.79397e-17
5548.49990 1.79838e-17
5550.00320 1.81023e-17
5551.49648 1.79933e-17
5552.99978 1.80612e-17
5554.50308 1.81207e-17
5555.99636 1.80514e-17
5557.49966 1.79722e-17
5559.00296 1.78731e-17
5560.49624 1.77710e-17
5561.99954 1.77891e-17
5563.50284 1.77642e-17
5564.99612 1.76824e-17
5566.49942 1.76614e-17
5568.00272 1.77913e-17
5569.49599 1.77555e-17
5570.99929 1.75084e-17
5572.50259 1.74942e-17
5573.99587 1.75119e-17
5575.49917 1.74149e-17
5577.00247 1.74120e-17
5578.49575 1.72991e-17
5579.99905 1.72826e-17
5581.50235 1.74017e-17
5582.99563 1.71297e-17
5584.49893 1.70370e-17
5586.00223 1.72161e-17
5587.49551 1.72686e-17
5588.99881 1.72279e-17
5590.50211 1.70794e-17
5591.99538 1.70412e-17
5593.49868 1.70708e-17
5595.00198 1.70636e-17
5596.49526 1.70077e-17
5597.99856 1.68825e-17
5599.50186 1.68607e-17
5600.99514 1.64775e-17
5602.49844 1.64945e-17
5604.00174 1.68451e-17
5605.49502 1.67450e-17
5606.99832 1.66489e-17
5608.50162 1.65335e-17
5610.00492 1.63420e-17
5611.49820 1.62273e-17
5613.00150 1.63023e-17
5614.50480 1.61791e-17
5615.99807 1.61606e-17
5617.50137 1.61110e-17
5619.00467 1.59966e-17
5620.49795 1.59926e-17
5622.00125 1.58434e-17
5623.50455 1.57574e-17
5624.99783 1.57518e-17
5626.50113 1.56934e-17
5628.00443 1.56421e-17
5629.49771 1.57057e-17
5631.00101 1.57392e-17
5632.50431 1.56633e-17
5633.99759 1.55856e-17
5635.50089 1.55544e-17
5637.00419 1.55196e-17
5638.49746 1.54689e-17
5640.00076 1.53645e-17
5641.50406 1.52530e-17
5642.99734 1.51508e-17
5644.50064 1.50113e-17
5646.00394 1.50143e-17
5647.49722 1.51104e-17
5649.00052 1.50156e-17
5650.50382 1.49813e-17
5651.99710 1.48876e-17
5653.50040 1.47513e-17
5655.00370 1.46634e-17
5656.49698 1.45907e-17
5658.00028 1.46580e-17
5659.50358 1.44422e-17
5660.99685 1.43802e-17
5662.50015 1.44162e-17
5664.00345 1.43835e-17
5665.49673 1.42803e-17
5667.00003 1.44012e-17
5668.50333 1.44246e-17
5669.99661 1.43234e-17
5671.49991 1.42946e-17
5673.00321 1.42975e-17
5674.49649 1.41618e-17
5675.99979 1.40904e-17
5677.50309 1.41077e-17
5678.99637 1.40454e-17
5680.49967 1.40785e-17
5682.00297 1.38643e-17
5683.49624 1.39843e-17
5684.99954 1.39574e-17
5686.50284 1.36214e-17
5687.99612 1.37680e-17
5689.49942 1.39268e-17
5691.00272 1.38484e-17
5692.49600 1.37548e-17
5693.99930 1.38454e-17
5695.50260 1.38625e-17
5696.99588 1.36947e-17
5698.49918 1.36693e-17
5700.00248 1.36038e-17
5701.49576 1.35862e-17
5702.99906 1.36164e-17
5704.50236 1.35989e-17
5705.99563 1.36084e-17
5707.49893 1.35942e-17
5709.00223 1.36183e-17
5710.49551 1.35870e-17
5711.99881 1.34830e-17
5713.50211 1.34603e-17
5714.99539 1.35653e-17
5716.49869 1.37343e-17
5718.00199 1.36724e-17
5719.49527 1.35312e-17
5720.99857 1.36799e-17
5722.50187 1.36495e-17
5723.99515 1.36163e-17
5725.49845 1.36772e-17
5727.00175 1.36513e-17
5728.49502 1.36019e-17
5729.99832 1.37612e-17
5731.50162 1.37376e-17
5733.00492 1.38510e-17
5734.49820 1.38649e-17
5736.00150 1.39340e-17
5737.50480 1.39099e-17
5738.99808 1.39979e-17
5740.50138 1.39647e-17
5742.00468 1.38888e-17
5743.49796 1.37511e-17
5745.00126 1.37423e-17
5746.50456 1.38141e-17
5747.99784 1.38283e-17
5749.50114 1.38713e-17
5751.00444 1.38394e-17
5752.49771 1.38831e-17
5754.00101 1.40891e-17
5755.50431 1.38767e-17
5756.99759 1.39505e-17
5758.50089 1.38720e-17
5760.00419 1.39052e-17
5761.49747 1.39305e-17
5763.00077 1.40161e-17
5764.50407 1.40543e-17
5765.99735 1.40799e-17
5767.50065 1.40362e-17
5769.00395 1.41246e-17
5770.49723 1.41310e-17
5772.00053 1.39745e-17
5773.50383 1.40046e-17
5774.99710 1.40498e-17
5776.50040 1.40860e-17
5778.00370 1.40081e-17
5779.49698 1.39738e-17
5781.00028 1.40320e-17
5782.50358 1.39608e-17
5783.99686 1.39737e-17
5785.50016 1.41911e-17
5787.00346 1.43217e-17
5788.49674 1.41528e-17
5790.00004 1.41172e-17
5791.50334 1.41432e-17
5792.99662 1.42215e-17
5794.49992 1.42753e-17
5796.00322 1.42505e-17
5797.49649 1.40056e-17
5798.99979 1.40489e-17
5800.50309 1.41396e-17
5801.99637 1.41346e-17
5803.49967 1.42285e-17
5805.00297 1.40826e-17
5806.49625 1.39287e-17
5807.99955 1.41221e-17
5809.50285 1.41410e-17
5810.99613 1.41161e-17
5812.49943 1.41392e-17
5814.00273 1.40516e-17
5815.49601 1.41565e-17
5816.99931 1.41462e-17
5818.50261 1.39898e-17
5819.99588 1.41733e-17
5821.49918 1.42556e-17
5823.00248 1.39812e-17
5824.49576 1.41163e-17
5825.99906 1.41605e-17
5827.50236 1.40654e-17
5828.99564 1.40378e-17
5830.49894 1.40724e-17
5832.00224 1.40991e-17
5833.49552 1.41450e-17
5834.99882 1.42588e-17
5836.50212 1.40955e-17
5837.99540 1.40784e-17
5839.49870 1.41079e-17
5841.00200 1.39799e-17
5842.49527 1.39840e-17
5843.99857 1.38370e-17
5845.50187 1.36817e-17
5846.99515 1.38611e-17
5848.49845 1.39451e-17
5850.00175 1.40152e-17
5851.49503 1.40429e-17
5852.99833 1.38839e-17
5854.50163 1.38841e-17
5856.00493 1.39856e-17
5857.49821 1.38917e-17
5859.00151 1.37505e-17
5860.50481 1.38462e-17
5861.99809 1.40338e-17
5863.50139 1.40797e-17
5865.00469 1.40146e-17
5866.49796 1.38683e-17
5868.00126 1.38293e-17
5869.50456 1.39988e-17
5870.99784 1.41617e-17
5872.50114 1.41461e-17
5874.00444 1.40610e-17
5875.49772 1.39922e-17
5877.00102 1.38636e-17
5878.50432 1.38325e-17
5879.99760 1.39897e-17
5881.50090 1.40879e-17
5883.00420 1.39581e-17
5884.49748 1.39344e-17
5886.00078 1.38418e-17
5887.50408 1.34147e-17
5888.99735 1.31832e-17
5890.50065 1.31468e-17
5892.00395 1.31902e-17
5893.49723 1.32220e-17
5895.00053 1.33113e-17
5896.50383 1.32434e-17
5897.99711 1.32224e-17
5899.50041 1.33799e-17
5901.00371 1.35078e-17
5902.49699 1.34354e-17
5904.00029 1.35612e-17
5905.50359 1.35580e-17
5906.99687 1.35554e-17
5908.50017 1.34056e-17
5910.00347 1.32535e-17
5911.49674 1.33641e-17
5913.00004 1.34125e-17
5914.50334 1.33952e-17
5915.99662 1.34411e-17
5917.49992 1.34013e-17
5919.00322 1.33479e-17
5920.49650 1.34257e-17
5921.99980 1.34839e-17
5923.50310 1.33075e-17
5924.99638 1.31342e-17
5926.49968 1.32624e-17
5928.00298 1.33338e-17
5929.49626 1.33625e-17
5930.99956 1.33858e-17
5932.50286 1.34055e-17
5933.99613 1.35135e-17
5935.49943 1.36193e-17
5937.00273 1.34915e-17
5938.49601 1.33186e-17
5939.99931 1.32298e-17
5941.50261 1.31873e-17
5942.99589 1.31600e-17
5944.49919 1.31722e-17
5946.00249 1.31447e-17
5947.49577 1.31977e-17
5948.99907 1.32811e-17
5950.50237 1.31407e-17
5951.99565 1.30638e-17
5953.49895 1.30078e-17
5955.00225 1.31087e-17
5956.49552 1.32500e-17
5957.99882 1.32165e-17
5959.50212 1.29362e-17
5960.99540 1.29361e-17
5962.49870 1.30489e-17
5964.00200 1.28639e-17
5965.49528 1.29813e-17
5966.99858 1.29705e-17
5968.50188 1.27106e-17
5970.00518 1.27242e-17
5971.49846 1.29871e-17
5973.00176 1.27925e-17
5974.49504 1.29235e-17
5975.99834 1.30000e-17
5977.50164 1.29399e-17
5979.00494 1.27960e-17
5980.49821 1.28797e-17
5982.00151 1.28850e-17
5983.50481 1.28267e-17
5984.99809 1.27653e-17
5986.50139 1.29289e-17
5988.00469 1.28417e-17
5989.49797 1.27661e-17
5991.00127 1.28551e-17
5992.50457 1.29209e-17
5993.99785 1.28464e-17
5995.50115 1.28241e-17
5997.00445 1.28609e-17
5998.49773 1.29275e-17
6000.00103 1.29825e-17
6001.50433 1.29204e-17
6002.99760 1.29166e-17
6004.50090 1.27894e-17
6006.00420 1.27276e-17
6007.49748 1.26873e-17
6009.00078 1.26471e-17
6010.50408 1.27676e-17
6011.99736 1.27550e-17
6013.50066 1.27971e-17
6015.00396 1.27503e-17
6016.49724 1.27381e-17
6018.00054 1.28181e-17
6019.50384 1.28493e-17
6020.99712 1.27351e-17
6022.50042 1.26812e-17
6024.00372 1.26408e-17
6025.49699 1.25129e-17
6027.00029 1.27464e-17
6028.50359 1.27750e-17
6029.99687 1.24099e-17
6031.50017 1.25488e-17
6033.00347 1.24852e-17
6034.49675 1.25741e-17
6036.00005 1.24668e-17
6037.50335 1.24687e-17
6038.99663 1.25350e-17
6040.49993 1.25030e-17
6042.00323 1.23999e-17
6043.49651 1.23693e-17
6044.99981 1.22624e-17
6046.50311 1.22816e-17
6047.99638 1.23005e-17
6049.49968 1.22351e-17
6051.00298 1.21697e-17
6052.49626 1.21043e-17
6053.99956 1.20389e-17
6055.50286 1.20383e-17
6056.99614 1.19860e-17
6058.49944 1.20938e-17
6060.00274 1.20948e-17
6061.49602 1.20280e-17
6062.99932 1.20564e-17
6064.50262 1.20677e-17
6065.99590 1.20286e-17
6067.49920 1.19654e-17
6069.00250 1.20627e-17
6070.49577 1.21484e-17
6071.99907 1.19785e-17
6073.50237 1.19496e-17
6074.99565 1.20752e-17
6076.49895 1.20406e-17
6078.00225 1.18417e-17
6079.49553 1.18555e-17
6080.99883 1.19573e-17
6082.50213 1.17991e-17
6083.99541 1.17646e-17
6085.49871 1.18340e-17
6087.00201 1.17735e-17
6088.49529 1.16965e-17
6089.99859 1.18340e-17
6091.50189 1.19337e-17
6092.99516 1.18458e-17
6094.49846 1.18271e-17
6096.00176 1.17226e-17
6097.49504 1.16306e-17
6098.99834 1.17357e-17
6100.50164 1.17281e-17
6101.99492 1.16946e-17
6103.49822 1.17664e-17
6105.00152 1.17238e-17
6106.50482 1.18147e-17
6107.99810 1.16577e-17
6109.50140 1.15333e-17
6111.00470 1.15900e-17
6112.49798 1.14585e-17
6114.00128 1.14904e-17
6115.50458 1.14630e-17
6116.99785 1.14369e-17
6118.50115 1.15124e-17
6120.00445 1.15226e-17
6121.49773 1.15334e-17
6123.00103 1.15579e-17
6124.50433 1.15622e-17
6125.99761 1.15064e-17
6127.50091 1.14704e-17
6129.00421 1.14912e-17
6130.49749 1.15474e-17
6132.00079 1.15323e-17
6133.50409 1.14345e-17
6134.99737 1.14559e-17
6136.50067 1.14875e-17
6138.00397 1.13675e-17
6139.49724 1.12270e-17
6141.00054 1.13267e-17
6142.50384 1.13771e-17
6143.99712 1.14203e-17
6145.50042 1.14002e-17
6147.00372 1.13126e-17
6148.49700 1.13535e-17
6150.00030 1.13923e-17
6151.50360 1.12609e-17
6152.99688 1.10971e-17
6154.50018 1.10186e-17
6156.00348 1.11394e-17
6157.49676 1.11575e-17
6159.00006 1.10755e-17
6160.50336 1.10766e-17
6161.99663 1.10217e-17
6163.49993 1.09711e-17
6165.00323 1.09656e-17
6166.49651 1.09595e-17
6167.99981 1.08325e-17
6169.50311 1.07994e-17
6170.99639 1.09119e-17
6172.49969 1.08721e-17
6174.00299 1.07831e-17
6175.49627 1.09704e-17
6176.99957 1.09657e-17
6178.50287 1.08213e-17
6179.99615 1.07658e-17
6181.49945 1.06610e-17
6183.00275 1.09960e-17
6184.49602 1.09345e-17
6185.99932 1.08061e-17
6187.50262 1.08472e-17
6188.99590 1.09371e-17
6190.49920 1.08985e-17
6192.00250 1.08771e-17
6193.49578 1.07891e-17
6194.99908 1.06832e-17
6196.50238 1.08171e-17
6197.99566 1.08546e-17
6199.49896 1.09517e-17
6201.00226 1.08679e-17
6202.49554 1.08104e-17
6203.99884 1.08155e-17
6205.50214 1.07679e-17
6206.99541 1.08234e-17
6208.49871 1.08439e-17
6210.00201 1.08219e-17
6211.49529 1.09852e-17
6212.99859 1.10229e-17
6214.50189 1.10166e-17
6215.99517 1.10962e-17
6217.49847 1.10439e-17
6219.00177 1.10710e-17
6220.49505 1.11365e-17
6221.99835 1.10819e-17
6223.50165 1.09772e-17
6224.99493 1.09551e-17
6226.49823 1.10486e-17
6228.00153 1.10813e-17
6229.50483 1.10839e-17
6230.99810 1.11518e-17
6232.50140 1.11297e-17
6234.00470 1.10893e-17
6235.49798 1.11389e-17
6237.00128 1.12430e-17
6238.50458 1.12759e-17
6239.99786 1.12824e-17
6241.50116 1.12872e-17
6243.00446 1.13460e-17
6244.49774 1.13612e-17
6246.00104 1.14649e-17
6247.50434 1.14822e-17
6248.99762 1.14716e-17
6250.50092 1.13855e-17
6252.00422 1.14480e-17
6253.49749 1.14133e-17
6255.00079 1.11518e-17
6256.50409 1.14776e-17
6257.99737 1.17727e-17
6259.50067 1.17436e-17
6261.00397 1.15996e-17
6262.49725 1.15310e-17
6264.00055 1.15743e-17
6265.50385 1.16097e-17
6266.99713 1.15573e-17
6268.50043 1.16811e-17
6270.00373 1.19116e-17
6271.49701 1.18478e-17
6273.00031 1.16878e-17
6274.50361 1.15831e-17
6275.99688 1.15510e-17
6277.50018 1.16914e-17
6279.00348 1.17583e-17
6280.49676 1.18045e-17
6282.00006 1.18938e-17
6283.50336 1.18869e-17
6284.99664 1.19071e-17
6286.49994 1.19292e-17
6288.00324 1.19607e-17
6289.49652 1.19788e-17
6290.99982 1.20317e-17
6292.50312 1.19655e-17
6293.99640 1.18920e-17
6295.49970 1.19764e-17
6297.00300 1.22039e-17
6298.49627 1.23077e-17
6299.99957 1.19916e-17
6301.50287 1.20212e-17
6302.99615 1.22454e-17
6304.49945 1.21884e-17
6306.00275 1.23068e-17
6307.49603 1.23386e-17
6308.99933 1.22279e-17
6310.50263 1.22670e-17
6311.99591 1.24294e-17
6313.49921 1.24168e-17
6315.00251 1.22405e-17
6316.49579 1.23256e-17
6317.99909 1.26178e-17
6319.50239 1.24473e-17
6320.99566 1.23962e-17
6322.49896 1.24080e-17
6324.00226 1.23312e-17
6325.49554 1.23418e-17
6326.99884 1.24441e-17
6328.50214 1.23680e-17
6329.99542 1.24034e-17
6331.49872 1.23644e-17
6333.00202 1.24226e-17
6334.49530 1.23867e-17
6335.99860 1.23763e-17
6337.50190 1.23908e-17
6338.99518 1.24445e-17
6340.49848 1.26633e-17
6342.00178 1.25925e-17
6343.49505 1.25107e-17
6344.99835 1.26376e-17
6346.50165 1.28561e-17
6347.99493 1.27350e-17
6349.49823 1.26055e-17
6351.00153 1.27688e-17
6352.50483 1.29663e-17
6353.99811 1.28990e-17
6355.50141 1.27120e-17
6357.00471 1.25467e-17
6358.49799 1.26810e-17
6360.00129 1.28857e-17
6361.50459 1.29151e-17
6362.99787 1.26571e-17
6364.50117 1.23773e-17
6366.00447 1.23508e-17
6367.49774 1.24386e-17
6369.00104 1.25742e-17
6370.50434 1.25163e-17
6371.99762 1.25464e-17
6373.50092 1.25863e-17
6375.00422 1.26207e-17
6376.49750 1.26657e-17
6378.00080 1.27402e-17
6379.50410 1.26785e-17
6380.99738 1.25430e-17
6382.50068 1.26732e-17
6384.00398 1.25793e-17
6385.49726 1.26572e-17
6387.00056 1.27769e-17
6388.50386 1.26520e-17
6389.99713 1.26936e-17
6391.50043 1.27296e-17
6393.00373 1.25442e-17
6394.49701 1.25692e-17
6396.00031 1.25514e-17
6397.50361 1.26021e-17
6398.99689 1.26257e-17
6400.50019 1.23995e-17
6402.00349 1.24491e-17
6403.49677 1.24776e-17
6405.00007 1.24946e-17
6406.50337 1.25851e-17
6407.99665 1.25457e-17
6409.49995 1.25462e-17
6411.00325 1.25639e-17
6412.49652 1.26293e-17
6413.99982 1.26568e-17
6415.50312 1.25926e-17
6416.99640 1.25268e-17
6418.49970 1.26032e-17
6420.00300 1.26316e-17
6421.49628 1.26572e-17
6422.99958 1.27028e-17
6424.50288 1.27182e-17
6425.99616 1.26522e-17
6427.49946 1.26237e-17
6429.00276 1.26529e-17
6430.49604 1.27582e-17
6431.99934 1.26951e-17
6433.50264 1.26370e-17
6434.99591 1.27276e-17
6436.49921 1.27235e-17
6438.00251 1.26943e-17
6439.49579 1.27564e-17
6440.99909 1.26595e-17
6442.50239 1.26683e-17
6443.99567 1.26601e-17
6445.49897 1.26292e-17
6447.00227 1.25749e-17
6448.49555 1.24936e-17
6449.99885 1.25318e-17
6451.50215 1.25198e-17
6452.99543 1.24757e-17
6454.49873 1.25313e-17
6456.00203 1.25648e-17
6457.49530 1.26203e-17
6458.99860 1.25276e-17
6460.50190 1.26336e-17
6461.99518 1.24623e-17
6463.49848 1.24168e-17
6465.00178 1.24728e-17
6466.49506 1.23758e-17
6467.99836 1.24821e-17
6469.50166 1.23898e-17
6470.99494 1.23872e-17
6472.49824 1.23950e-17
6474.00154 1.23094e-17
6475.50484 1.22689e-17
6476.99812 1.24104e-17
6478.50142 1.24058e-17
6480.00472 1.23116e-17
6481.49799 1.23657e-17
6483.00129 1.24557e-17
6484.50459 1.23740e-17
6485.99787 1.23600e-17
6487.50117 1.23458e-17
6489.00447 1.23168e-17
6490.49775 1.24245e-17
6492.00105 1.24599e-17
6493.50435 1.23607e-17
6494.99763 1.22984e-17
6496.50093 1.23093e-17
6498.00423 1.24229e-17
6499.49751 1.24296e-17
6501.00081 1.23791e-17
6502.50411 1.25117e-17
6503.99738 1.25567e-17
6505.50068 1.25284e-17
6507.00398 1.25540e-17
6508.49726 1.24043e-17
6510.00056 1.23444e-17
6511.50386 1.24703e-17
6512.99714 1.24600e-17
6514.50044 1.24313e-17
6516.00374 1.24364e-17
6517.49702 1.24272e-17
6519.00032 1.23596e-17
6520.50362 1.22815e-17
6521.99690 1.23520e-17
6523.50020 1.24149e-17
6525.00350 1.23695e-17
6526.49677 1.23518e-17
6528.00007 1.24263e-17
6529.50337 1.26113e-17
6530.99665 1.25760e-17
6532.49995 1.24634e-17
6534.00325 1.23691e-17
6535.49653 1.22790e-17
6536.99983 1.22907e-17
6538.50313 1.23111e-17
6539.99641 1.23901e-17
6541.49971 1.23725e-17
6543.00301 1.23288e-17
6544.49629 1.23368e-17
6545.99959 1.23198e-17
6547.50289 1.22742e-17
6548.99616 1.22185e-17
6550.49946 1.23485e-17
6552.00276 1.23234e-17
6553.49604 1.23269e-17
6554.99934 1.23652e-17
6556.50264 1.21200e-17
6557.99592 1.20880e-17
6559.49922 1.22449e-17
6561.00252 1.22087e-17
6562.49580 1.21855e-17
6563.99910 1.22295e-17
6565.50240 1.22038e-17
6566.99568 1.21534e-17
6568.49898 1.21450e-17
6570.00228 1.21463e-17
6571.49555 1.21608e-17
6572.99885 1.22486e-17
6574.50215 1.20649e-17
6575.99543 1.19165e-17
6577.49873 1.20115e-17
6579.00203 1.21107e-17
6580.49531 1.21211e-17
6581.99861 1.20966e-17
6583.50191 1.20203e-17
6584.99519 1.19214e-17
6586.49849 1.19780e-17
6588.00179 1.19289e-17
6589.49507 1.19909e-17
6590.99837 1.19866e-17
6592.50167 1.19820e-17
6593.99494 1.18591e-17
6595.49824 1.18416e-17
6597.00154 1.18801e-17
6598.50484 1.18098e-17
6599.99812 1.17985e-17
6601.50142 1.17845e-17
6603.00472 1.16919e-17
6604.49800 1.15697e-17
6606.00130 1.16490e-17
6607.50460 1.16392e-17
6608.99788 1.16450e-17
6610.50118 1.16427e-17
6612.00448 1.16372e-17
6613.49776 1.16481e-17
6615.00106 1.16413e-17
6616.50436 1.16555e-17
6617.99763 1.15746e-17
6619.50093 1.16598e-17
6621.00423 1.15873e-17
6622.49751 1.15178e-17
6624.00081 1.14732e-17
6625.50411 1.14889e-17
6626.99739 1.14868e-17
6628.50069 1.14571e-17
6630.00399 1.13933e-17
6631.49727 1.14604e-17
6633.00057 1.15293e-17
6634.50387 1.14410e-17
6635.99715 1.14595e-17
6637.50045 1.14511e-17
6639.00375 1.13194e-17
6640.49702 1.12324e-17
6642.00032 1.12531e-17
6643.50362 1.12989e-17
6644.99690 1.13439e-17
6646.50020 1.12739e-17
6648.00350 1.11795e-17
6649.49678 1.11254e-17
6651.00008 1.12344e-17
6652.50338 1.12969e-17
6653.99666 1.12322e-17
6655.49996 1.12186e-17
6657.00326 1.12045e-17
6658.49654 1.11972e-17
6659.99984 1.12704e-17
6661.50314 1.12195e-17
6662.99641 1.11329e-17
6664.49971 1.11950e-17
6666.00301 1.11520e-17
6667.49629 1.11081e-17
6668.99959 1.12121e-17
6670.50289 1.10446e-17
6671.99617 1.09519e-17
6673.49947 1.09369e-17
6675.00277 1.09347e-17
6676.49605 1.08575e-17
6677.99935 1.08308e-17
6679.50265 1.07957e-17
6680.99593 1.09028e-17
6682.49923 1.10376e-17
6684.00253 1.09239e-17
6685.49580 1.10197e-17
6686.99910 1.09763e-17
6688.50240 1.09297e-17
6689.99568 1.09292e-17
6691.49898 1.08411e-17
6693.00228 1.08055e-17
6694.49556 1.06787e-17
6695.99886 1.07962e-17
6697.50216 1.08423e-17
6698.99544 1.07493e-17
6700.49874 1.08399e-17
6702.00204 1.08076e-17
6703.49532 1.06448e-17
6704.99862 1.06944e-17
6706.50192 1.07264e-17
6707.99519 1.07018e-17
6709.49849 1.07647e-17
6711.00179 1.07938e-17
6712.49507 1.07994e-17
6713.99837 1.06975e-17
6715.50167 1.06220e-17
6716.99495 1.07050e-17
6718.49825 1.06967e-17
6720.00155 1.05716e-17
6721.50485 1.06204e-17
6722.99813 1.06496e-17
6724.50143 1.06358e-17
6726.00473 1.06287e-17
6727.49801 1.05590e-17
6729.00131 1.05547e-17
6730.50461 1.06107e-17
6731.99788 1.06674e-17
6733.50118 1.05749e-17
6735.00448 1.04860e-17
6736.49776 1.05459e-17
6738.00106 1.06147e-17
6739.50436 1.04720e-17
6740.99764 1.04236e-17
6742.50094 1.04035e-17
6744.00424 1.03227e-17
6745.49752 1.03500e-17
6747.00082 1.04009e-17
6748.50412 1.03750e-17
6749.99740 1.04277e-17
6751.50070 1.03763e-17
6753.00400 1.03589e-17
6754.49727 1.02932e-17
6756.00057 1.03580e-17
6757.50387 1.02389e-17
6758.99715 1.01827e-17
6760.50045 1.02014e-17
6762.00375 1.01886e-17
6763.49703 1.03006e-17
6765.00033 1.02714e-17
6766.50363 1.01148e-17
6767.99691 1.01663e-17
6769.50021 1.02588e-17
6771.00351 1.01608e-17
6772.49679 1.01619e-17
6774.00009 1.02016e-17
6775.50339 1.02024e-17
6776.99666 1.00652e-17
6778.49996 1.00538e-17
6780.00326 9.98086e-18
6781.49654 9.93260e-18
6782.99984 9.80083e-18
6784.50314 9.78252e-18
6785.99642 9.88640e-18
6787.49972 9.83948e-18
6789.00302 9.70263e-18
6790.49630 9.63781e-18
6791.99960 9.69441e-18
6793.50290 9.78143e-18
6794.99618 9.72802e-18
6796.49948 9.65112e-18
6798.00278 9.65960e-18
6799.49605 9.68605e-18
6800.99935 9.77508e-18
6802.50265 9.80362e-18
6803.99593 9.80902e-18
6805.49923 9.76995e-18
6807.00253 9.75893e-18
6808.49581 9.73098e-18
6809.99911 9.79398e-18
6811.50241 9.75038e-18
6812.99569 9.66722e-18
6814.49899 9.62147e-18
6816.00229 9.60597e-18
6817.49557 9.59237e-18
6818.99887 9.66130e-18
6820.50217 9.67250e-18
6821.99544 9.53738e-18
6823.49874 9.53733e-18
6825.00204 9.55713e-18
6826.49532 9.61571e-18
6827.99862 9.61594e-18
6829.50192 9.57370e-18
6830.99520 9.35541e-18
6832.49850 9.46456e-18
6834.00180 9.67743e-18
6835.49508 9.56192e-18
6836.99838 9.54686e-18
6838.50168 9.63649e-18
6839.99496 9.59831e-18
6841.49826 9.59861e-18
6843.00156 9.77630e-18
6844.50486 9.82415e-18
6845.99813 9.81314e-18
6847.50143 9.80213e-18
6849.00473 9.79112e-18
6850.49801 9.78011e-18
6852.00131 9.76911e-18
6853.50461 9.75810e-18
6854.99789 9.74710e-18
6856.50119 9.73610e-18
6858.00449 9.72509e-18
6859.49777 9.71409e-18
6861.00107 9.70309e-18
6862.50437 9.69209e-18
6863.99765 9.68109e-18
6865.50095 9.67009e-18
6867.00425 9.65909e-18
6868.49752 9.64810e-18
6870.00082 9.63710e-18
6871.50412 9.62611e-18
6872.99740 9.61511e-18
6874.50070 9.60412e-18
6876.00400 9.59313e-18
6877.49728 9.58214e-18
6879.00058 9.57114e-18
6880.50388 9.56016e-18
6881.99716 9.54917e-18
6883.50046 9.53818e-18
6885.00376 9.52719e-18
6886.49704 9.51621e-18
6888.00034 9.50522e-18
6889.50364 9.49423e-18
6890.99691 9.48325e-18
6892.50021 9.47227e-18
6894.00351 9.46128e-18
6895.49679 9.45030e-18
6897.00009 9.43932e-18
6898.50339 9.42834e-18
6899.99667 9.41736e-18
6901.49997 9.40639e-18
6903.00327 9.39541e-18
6904.49655 9.38443e-18
6905.99985 9.37346e-18
6907.50315 9.36248e-18
6908.99643 9.35151e-18
6910.49973 9.34054e-18
6912.00303 9.32956e-18
6913.49630 9.31859e-18
6914.99960 9.30762e-18
6916.50290 9.29665e-18
6917.99618 9.28568e-18
6919.49948 9.27472e-18
6921.00278 9.26375e-18
6922.49606 9.25278e-18
6923.99936 9.24182e-18
6925.50266 9.23085e-18
6926.99594 9.21989e-18
6928.49924 9.20892e-18
6930.00254 9.19796e-18
6931.49582 9.18700e-18
6932.99912 9.17604e-18
6934.50242 9.16508e-18
6935.99569 9.15412e-18
6937.49899 9.26993e-18
6939.00229 9.25512e-18
6940.49557 9.12923e-18
6941.99887 9.06680e-18
6943.50217 9.04720e-18
6944.99545 9.23074e-18
6946.49875 9.37666e-18
6948.00205 9.29745e-18
6949.49533 9.26426e-18
6950.99863 9.25803e-18
6952.50193 9.32768e-18
6953.99521 9.34289e-18
6955.49851 9.18426e-18
6957.00181 9.15387e-18
6958.50511 9.12571e-18
6959.99838 9.15206e-18
6961.50168 9.26695e-18
6962.99496 9.18930e-18
6964.49826 9.24954e-18
6966.00156 9.34952e-18
6967.50486 9.18238e-18
6968.99814 9.19417e-18
6970.50144 9.18558e-18
6972.00474 9.10343e-18
6973.49802 9.26107e-18
6975.00132 9.23557e-18
6976.50462 9.08427e-18
6977.99790 9.12347e-18
6979.50120 9.17743e-18
6981.00450 9.03116e-18
6982.49777 9.03009e-18
6984.00107 9.17329e-18
6985.50437 9.22243e-18
6986.99765 9.05434e-18
6988.50095 8.90970e-18
6990.00425 8.92220e-18
6991.49753 8.90757e-18
6993.00083 8.90817e-18
6994.50413 8.96558e-18
6995.99741 8.87467e-18
6997.50071 8.82771e-18
6999.00401 8.89659e-18
7000.49729 8.98133e-18
7002.00059 8.93972e-18
7003.50389 8.89735e-18
7004.99716 8.84956e-18
7006.50046 8.86817e-18
7008.00376 8.92230e-18
7009.49704 8.88710e-18
7011.00034 8.88179e-18
7012.50364 8.86939e-18
7013.99692 8.90301e-18
7015.50022 8.92425e-18
7017.00352 8.92103e-18
7018.49680 8.88139e-18
7020.00010 8.82771e-18
7021.50340 8.74187e-18
7022.99668 8.75491e-18
7024.49998 8.88344e-18
7026.00328 8.87730e-18
7027.49655 8.74846e-18
7028.99985 8.77067e-18
7030.50315 8.94565e-18
7031.99643 8.73200e-18
7033.49973 8.69509e-18
7035.00303 8.75078e-18
7036.49631 8.86572e-18
7037.99961 8.74366e-18
7039.50291 8.62424e-18
7040.99619 8.72000e-18
7042.49949 8.70810e-18
7044.00279 8.71753e-18
7045.49607 8.59022e-18
7046.99937 8.56583e-18
7048.50267 8.63317e-18
7049.99594 8.62024e-18
7051.49924 8.60835e-18
7053.00254 8.58875e-18
7054.49582 8.76612e-18
7055.99912 8.53290e-18
7057.50242 8.40543e-18
7058.99570 8.52739e-18
7060.49900 8.61713e-18
7062.00230 8.60990e-18
7063.49558 8.61689e-18
7064.99888 8.60001e-18
7066.50218 8.48679e-18
7067.99546 8.42405e-18
7069.49876 8.40391e-18
7071.00206 8.41473e-18
7072.49533 8.48820e-18
7073.99863 8.44704e-18
7075.50193 8.40596e-18
7076.99521 8.45840e-18
7078.49851 8.51701e-18
7080.00181 8.41599e-18
7081.50511 8.34036e-18
7082.99839 8.41139e-18
7084.50169 8.37267e-18
7085.99497 8.39146e-18
7087.49827 8.49355e-18
7089.00157 8.42363e-18
7090.50487 8.29281e-18
7091.99815 8.38442e-18
7093.50145 8.59627e-18
7095.00475 8.51678e-18
7096.49802 8.32538e-18
7098.00132 8.31414e-18
7099.50462 8.45475e-18
7100.99790 8.32570e-18
7102.50120 8.11368e-18
7104.00450 8.14321e-18
7105.49778 8.36554e-18
7107.00108 8.32186e-18
7108.50438 8.30043e-18
7109.99766 8.23873e-18
7111.50096 8.26445e-18
7113.00426 8.29798e-18
7114.49754 8.36459e-18
7116.00084 8.26956e-18
7117.50414 8.26116e-18
7118.99741 8.19421e-18
7120.50071 8.25672e-18
7122.00401 8.33273e-18
7123.49729 8.21686e-18
7125.00059 8.18949e-18
7126.50389 8.39180e-18
7127.99717 8.10330e-18
7129.50047 8.22537e-18
7131.00377 8.27365e-18
7132.49705 8.19585e-18
7134.00035 8.29670e-18
7135.50365 8.37205e-18
7136.99693 8.28796e-18
7138.50023 8.27063e-18
7140.00353 8.19610e-18
7141.49680 8.18855e-18
7143.00010 8.26181e-18
7144.50340 8.24318e-18
7145.99668 8.25155e-18
7147.49998 8.33187e-18
7149.00328 8.33179e-18
7150.49656 8.26226e-18
7151.99986 8.16802e-18
7153.50316 8.10010e-18
7154.99644 8.12800e-18
7156.49974 8.23308e-18
7158.00304 8.29545e-18
7159.49632 8.23556e-18
7160.99962 8.13837e-18
7162.50292 8.16550e-18
7163.99619 8.20903e-18
7165.49949 8.12916e-18
7167.00279 7.99061e-18
7168.49607 7.82867e-18
7169.99937 7.89069e-18
7171.50267 7.90855e-18
7172.99595 7.94211e-18
7174.49925 7.90572e-18
7176.00255 7.86573e-18
7177.49583 7.82569e-18
7178.99913 7.78564e-18
7180.50243 7.76282e-18
7181.99571 7.78767e-18
7183.49901 7.76028e-18
7185.00231 7.69265e-18
7186.49558 7.70656e-18
7187.99888 7.71474e-18
7189.50218 7.74200e-18
7190.99546 7.91871e-18
7192.49876 7.91539e-18
7194.00206 7.83940e-18
7195.49534 7.81472e-18
7196.99864 7.87599e-18
7198.50194 7.86487e-18
7199.99522 7.68884e-18
7201.49852 7.69722e-18
7203.00182 7.63882e-18
7204.50512 7.57917e-18
7205.99840 7.63304e-18
7207.50170 7.61557e-18
7208.99497 7.75300e-18
7210.49827 7.88917e-18
7212.00157 7.80713e-18
7213.50487 7.81156e-18
7214.99815 7.80618e-18
7216.50145 7.61760e-18
7218.00475 7.48514e-18
7219.49803 7.45932e-18
7221.00133 7.44732e-18
7222.50463 7.47878e-18
7223.99791 7.48778e-18
7225.50121 7.39868e-18
7227.00451 7.39393e-18
7228.49779 7.52349e-18
7230.00109 7.48275e-18
7231.50439 7.34766e-18
7232.99766 7.33435e-18
7234.50096 7.34909e-18
7236.00426 7.32218e-18
7237.49754 7.32683e-18
7239.00084 7.41940e-18
7240.50414 7.44573e-18
7241.99742 7.24570e-18
7243.50072 7.08007e-18
7245.00402 7.28933e-18
7246.49730 7.38665e-18
7248.00060 7.15724e-18
7249.50390 7.13442e-18
7250.99718 7.05879e-18
7252.50048 7.07926e-18
7254.00378 7.28335e-18
7255.49705 7.37249e-18
7257.00035 7.24876e-18
7258.50365 7.25714e-18
7259.99693 7.33847e-18
7261.50023 7.29308e-18
7263.00353 7.29532e-18
7264.49681 7.15139e-18
7266.00011 7.05170e-18
7267.50341 7.12633e-18
7268.99669 6.99996e-18
7270.49999 6.86246e-18
7272.00329 6.90517e-18
7273.49657 6.90852e-18
7274.99987 6.94996e-18
7276.50317 6.88875e-18
7277.99644 6.70632e-18
7279.49974 6.75032e-18
7281.00304 7.00468e-18
7282.49632 7.06486e-18
7283.99962 7.06055e-18
7285.50292 7.08004e-18
7286.99620 6.82217e-18
7288.49950 6.60093e-18
7290.00280 6.61502e-18
7291.49608 6.71010e-18
7292.99938 6.88970e-18
7294.50268 6.96902e-18
7295.99596 6.80582e-18
7297.49926 6.65642e-18
7299.00256 6.59348e-18
7300.49583 6.58997e-18
7301.99913 6.68390e-18
7303.50243 6.62909e-18
7304.99571 6.55111e-18
7306.49901 6.58812e-18
7308.00231 6.56663e-18
7309.49559 6.47892e-18
7310.99889 6.51427e-18
7312.50219 6.52023e-18
7313.99547 6.38521e-18
7315.49877 6.43550e-18
7317.00207 6.42273e-18
7318.49535 6.38745e-18
7319.99865 6.39864e-18
7321.50195 6.35486e-18
7322.99522 6.25203e-18
7324.49852 6.25571e-18
7326.00182 6.33837e-18
7327.50512 6.53003e-18
7328.99840 6.38574e-18
7330.50170 6.31193e-18
7331.99498 6.31021e-18
7333.49828 6.25722e-18
7335.00158 6.36295e-18
7336.50488 6.34337e-18
7337.99816 6.26196e-18
7339.50146 6.15149e-18
7341.00476 6.14807e-18
7342.49804 6.15546e-18
7344.00134 6.10661e-18
7345.50464 6.03762e-18
7346.99791 5.99428e-18
7348.50121 5.91350e-18
7350.00451 6.00090e-18
7351.49779 5.99501e-18
7353.00109 5.89924e-18
7354.50439 5.91373e-18
7355.99767 5.91031e-18
7357.50097 5.80897e-18
7359.00427 5.84998e-18
7360.49755 5.91564e-18
7362.00085 5.82575e-18
7363.50415 5.79437e-18
7364.99743 5.77079e-18
7366.50073 5.58607e-18
7368.00403 5.48479e-18
7369.49730 5.57273e-18
7371.00060 5.61294e-18
7372.50390 5.54268e-18
7373.99718 5.47105e-18
7375.50048 5.48251e-18
7377.00378 5.45743e-18
7378.49706 5.38363e-18
7380.00036 5.34300e-18
7381.50366 5.28771e-18
7382.99694 5.28648e-18
7384.50024 5.31296e-18
7386.00354 5.34081e-18
7387.49682 5.19147e-18
7389.00012 5.18243e-18
7390.50342 5.09338e-18
7391.99669 5.07728e-18
7393.49999 5.23461e-18
7395.00329 5.22607e-18
7396.49657 5.16149e-18
7397.99987 5.13925e-18
7399.50317 5.15247e-18
7400.99645 5.12942e-18
7402.49975 4.99173e-18
7404.00305 4.99493e-18
7405.49633 5.02495e-18
7406.99963 4.85400e-18
7408.50293 4.89703e-18
7409.99621 5.02594e-18
7411.49951 4.91048e-18
7413.00281 4.77501e-18
7414.49608 4.85403e-18
7415.99938 4.88255e-18
7417.50268 4.65926e-18
7418.99596 4.61355e-18
7420.49926 4.61439e-18
7422.00256 4.61427e-18
7423.49584 4.59535e-18
7424.99914 4.54551e-18
7426.50244 4.50138e-18
7427.99572 4.48290e-18
7429.49902 4.45185e-18
7431.00232 4.40380e-18
7432.49560 4.38303e-18
7433.99890 4.37590e-18
7435.50220 4.33261e-18
7436.99547 4.30149e-18
7438.49877 4.29280e-18
7440.00207 4.29289e-18
7441.49535 4.28672e-18
7442.99865 4.24755e-18
7444.50195 4.16955e-18
7445.99523 4.18097e-18
7447.49853 4.11981e-18
7449.00183 4.06321e-18
7450.50513 4.07165e-18
7451.99841 4.10310e-18
7453.50171 4.08139e-18
7454.99499 3.99724e-18
7456.49829 4.01981e-18
7458.00159 4.03949e-18
7459.49486 3.93495e-18
7460.99816 4.00318e-18
7462.50146 3.96150e-18
7464.00476 3.84311e-18
7465.49804 3.78491e-18
7467.00134 3.90211e-18
7468.50464 3.92242e-18
7469.99792 3.89393e-18
7471.50122 3.93512e-18
7473.00452 3.84072e-18
7474.49780 3.79484e-18
7476.00110 3.75914e-18
7477.50440 3.80635e-18
7478.99768 3.74163e-18
7480.50098 3.68138e-18
7482.00428 3.66345e-18
7483.49755 3.70025e-18
7485.00085 3.67647e-18
7486.50415 3.63618e-18
7487.99743 3.60188e-18
7489.50073 3.63393e-18
7491.00403 3.54469e-18
7492.49731 3.49706e-18
7494.00061 3.43377e-18
7495.50391 3.46850e-18
7496.99719 3.46516e-18
7498.50049 3.39436e-18
7500.00379 3.35622e-18
7501.49707 3.39017e-18
7503.00037 3.35588e-18
7504.50367 3.27885e-18
7505.99694 3.28711e-18
7507.50024 3.27141e-18
7509.00354 3.23439e-18
7510.49682 3.25037e-18
7512.00012 3.26629e-18
7513.50342 3.16895e-18
7514.99670 3.16250e-18
7516.50000 3.12767e-18
7518.00330 3.13398e-18
7519.49658 3.19372e-18
7520.99988 3.20266e-18
7522.50318 3.20408e-18
7523.99646 3.19956e-18
7525.49976 3.19334e-18
7527.00306 3.09927e-18
7528.49633 3.06312e-18
7529.99963 3.08177e-18
7531.50293 3.12356e-18
7532.99621 3.03812e-18
7534.49951 2.96042e-18
7536.00281 2.93628e-18
7537.49609 2.93098e-18
7538.99939 2.86680e-18
7540.50269 3.08716e-18
7542.00320 3.08716e-18
7544.00005 3.09439e-18
7545.99690 3.12764e-18
7548.00394 3.09635e-18
7550.00078 2.98287e-18
7551.99763 2.91276e-18
7554.00467 2.87785e-18
7556.00152 2.88399e-18
7557.99836 2.96442e-18
7559.99521 3.16316e-18
7562.00225 3.17979e-18
7563.99910 3.02250e-18
7565.99594 2.93681e-18
7568.00298 2.93605e-18
7569.99983 2.94857e-18
7571.99668 2.89139e-18
7574.00371 2.79224e-18
7576.00056 2.79761e-18
7577.99741 2.95603e-18
7580.00444 2.97261e-18
7582.00129 2.81463e-18
7583.99814 2.68226e-18
7585.99499 2.69759e-18
7588.00202 2.81064e-18
7589.99887 2.87127e-18
7591.99572 2.92361e-18
7594.00276 2.96891e-18
7595.99960 2.96223e-18
7597.99645 2.99461e-18
7600.00349 3.14674e-18
7602.00034 3.34205e-18
7603.99718 3.31878e-18
7606.00422 3.06476e-18
7608.00107 2.96791e-18
7609.99792 2.92984e-18
7612.00495 2.93070e-18
7614.00180 2.98020e-18
7615.99865 3.04845e-18
7617.99550 3.08825e-18
7620.00253 3.03829e-18
7621.99938 3.18007e-18
7623.99623 3.64657e-18
7626.00326 3.81122e-18
7628.00011 3.56655e-18
7629.99696 3.21140e-18
7632.00400 3.04513e-18
7634.00084 2.94253e-18
7635.99769 2.84594e-18
7638.00473 2.73554e-18
7640.00158 2.73446e-18
7641.99842 2.89326e-18
7643.99527 3.05676e-18
7646.00231 3.07931e-18
7647.99916 3.03211e-18
7649.99600 2.99191e-18
7652.00304 2.86487e-18
7653.99989 2.82733e-18
7655.99674 2.86650e-18
7658.00377 2.92818e-18
7660.00062 3.00413e-18
7661.99747 3.10089e-18
7664.00450 3.10951e-18
7666.00135 3.05266e-18
7667.99820 2.98186e-18
7669.99505 2.87236e-18
7672.00208 2.76981e-18
7673.99893 2.67520e-18
7675.99578 2.60139e-18
7678.00282 2.58916e-18
7679.99966 2.64506e-18
7681.99651 2.74297e-18
7684.00355 2.92319e-18
7686.00040 3.06489e-18
7687.99724 3.17331e-18
7690.00428 3.24654e-18
7692.00113 3.23899e-18
7693.99798 3.13813e-18
7695.99482 3.10528e-18
7698.00186 3.11097e-18
7699.99871 3.10381e-18
7701.99556 3.10174e-18
7704.00259 3.07930e-18
7705.99944 2.98970e-18
7707.99629 2.83342e-18
7710.00332 2.87607e-18
7712.00017 3.17240e-18
7713.99702 3.25029e-18
7716.00406 3.12250e-18
7718.00090 2.99425e-18
7719.99775 2.94121e-18
7722.00479 2.91088e-18
7724.00164 2.95593e-18
7725.99848 3.13623e-18
7727.99533 3.18265e-18
7730.00237 3.13006e-18
7731.99922 3.07451e-18
7733.99606 3.00559e-18
7736.00310 2.95175e-18
7737.99995 2.98978e-18
7739.99680 3.13395e-18
7742.00383 3.23219e-18
7744.00068 3.39252e-18
7745.99753 3.42758e-18
7748.00456 3.27379e-18
7750.00141 3.04447e-18
7751.99826 2.92396e-18
7753.99511 2.81657e-18
7756.00214 2.85588e-18
7757.99899 3.13808e-18
7759.99584 3.28087e-18
7762.00288 3.28893e-18
7763.99972 3.21797e-18
7765.99657 3.04483e-18
7768.00361 2.72668e-18
7770.00046 2.66155e-18
7771.99730 2.78158e-18
7774.00434 2.87646e-18
7776.00119 3.01768e-18
7777.99804 3.11998e-18
7780.00507 3.13355e-18
7782.00192 3.07494e-18
7783.99877 3.03069e-18
7785.99562 2.92811e-18
7788.00265 2.89366e-18
7789.99950 2.92118e-18
7791.99635 2.97490e-18
7794.00338 3.07083e-18
7796.00023 3.19223e-18
7797.99708 3.19509e-18
7800.00412 3.02008e-18
7802.00096 3.00426e-18
7803.99781 3.10297e-18
7806.00485 3.16275e-18
7808.00170 3.15664e-18
7809.99854 3.10107e-18
7811.99539 3.06737e-18
7814.00243 2.98912e-18
7815.99928 3.06632e-18
7817.99612 3.34331e-18
7820.00316 3.49622e-18
7822.00001 3.51420e-18
7823.99686 3.45301e-18
7826.00389 3.28527e-18
7828.00074 2.95676e-18
7829.99759 2.84938e-18
7832.00462 2.87226e-18
7834.00147 2.94255e-18
7835.99832 3.14219e-18
7837.99517 3.30466e-18
7840.00220 3.25762e-18
7841.99905 3.06129e-18
7843.99590 2.93095e-18
7846.00294 2.74355e-18
7847.99978 2.67372e-18
7849.99663 2.66585e-18
7852.00367 2.75698e-18
7854.00052 3.00065e-18
7855.99736 3.32121e-18
7858.00440 3.43128e-18
7860.00125 3.42444e-18
7861.99810 3.33233e-18
7863.99494 3.07160e-18
7866.00198 2.85677e-18
7867.99883 2.75265e-18
7869.99568 2.70972e-18
7872.00271 2.70026e-18
7873.99956 2.78778e-18
7875.99641 2.80961e-18
7878.00344 2.79606e-18
7880.00029 2.81006e-18
7881.99714 2.84854e-18
7884.00418 2.88370e-18
7886.00102 2.91363e-18
7887.99787 2.91311e-18
7889.99472 2.94760e-18
7892.00176 3.03841e-18
7893.99860 3.08266e-18
7895.99545 3.11951e-18
7898.00249 3.11950e-18
7899.99934 3.01891e-18
7901.99618 2.81588e-18
7904.00322 2.71255e-18
7906.00007 2.64684e-18
7907.99692 2.66522e-18
7910.00395 2.79136e-18
7912.00080 2.91899e-18
7913.99765 3.00549e-18
7916.00468 3.07479e-18
7918.00153 3.04237e-18
7919.99838 2.86258e-18
7921.99523 2.81390e-18
7924.00226 2.81174e-18
7925.99911 2.89112e-18
7927.99596 3.11154e-18
7930.00300 3.39993e-18
7931.99984 3.42632e-18
7933.99669 3.20698e-18
7936.00373 3.08143e-18
7938.00058 2.87091e-18
7939.99742 2.77496e-18
7942.00446 2.87668e-18
7944.00131 3.05504e-18
7945.99816 3.10711e-18
7947.99500 3.11568e-18
7950.00204 3.09781e-18
7951.99889 3.00576e-18
7953.99574 2.98244e-18
7956.00277 3.10545e-18
7957.99962 3.21436e-18
7959.99647 3.11238e-18
7962.00350 2.84340e-18
7964.00035 2.78488e-18
7965.99720 2.85693e-18
7968.00424 2.88977e-18
7970.00108 2.90837e-18
7971.99793 2.93565e-18
7973.99478 2.95924e-18
7976.00182 2.98609e-18
7977.99866 2.96759e-18
7979.99551 2.87339e-18
7982.00255 2.83336e-18
7983.99940 2.80401e-18
7985.99624 2.82592e-18
7988.00328 2.98166e-18
7990.00013 3.21295e-18
7991.99698 3.21284e-18
7994.00401 3.00939e-18
7996.00086 2.88163e-18
7997.99771 2.69177e-18
8000.00474 2.59373e-18
8002.00159 2.67708e-18
8003.99844 2.83820e-18
8005.99529 2.93468e-18
8008.00232 3.07303e-18
8009.99917 3.10442e-18
8011.99602 3.05177e-18
8014.00306 2.95990e-18
8015.99990 2.82498e-18
8017.99675 2.66883e-18
8020.00379 2.54148e-18
8022.00064 2.36436e-18
8023.99748 2.42142e-18
8026.00452 2.80702e-18
8028.00137 2.98128e-18
8029.99822 2.86229e-18
8031.99506 2.71530e-18
8034.00210 2.76909e-18
8035.99895 2.92682e-18
8037.99580 2.94595e-18
8040.00283 2.84983e-18
8041.99968 2.81601e-18
8043.99653 2.83906e-18
8046.00356 2.87306e-18
8048.00041 2.88644e-18
8049.99726 2.89978e-18
8052.00430 2.94603e-18
8054.00114 3.08227e-18
8055.99799 3.09838e-18
8057.99484 2.99519e-18
8060.00188 2.91129e-18
8061.99872 2.88335e-18
8063.99557 2.87335e-18
8066.00261 2.86894e-18
8067.99946 2.89997e-18
8069.99630 2.91186e-18
8072.00334 2.89652e-18
8074.00019 2.91875e-18
8075.99704 3.05668e-18
8078.00407 3.20311e-18
8080.00092 3.12551e-18
8081.99777 2.83040e-18
8084.00480 2.74194e-18
8086.00165 2.78538e-18
8087.99850 2.80281e-18
8089.99535 2.79536e-18
8092.00238 2.78287e-18
8093.99923 2.73705e-18
8095.99608 2.65517e-18
8098.00312 2.65030e-18
8099.99996 2.70952e-18
8101.99681 2.76357e-18
8104.00385 2.83387e-18
8106.00070 2.90037e-18
8107.99754 2.93436e-18
8110.00458 2.95136e-18
8112.00143 2.98814e-18
8113.99828 3.09440e-18
8115.99512 3.08410e-18
8118.00216 2.94120e-18
8119.99901 2.81153e-18
8121.99586 2.78468e-18
8124.00289 2.79314e-18
8125.99974 2.69797e-18
8127.99659 2.43673e-18
8130.00362 2.40667e-18
8132.00047 2.56518e-18
8133.99732 2.70219e-18
8136.00436 2.77524e-18
8138.00120 2.83313e-18
8139.99805 2.90840e-18
8141.99490 2.99760e-18
8144.00194 3.01269e-18
8145.99878 2.93082e-18
8147.99563 2.90752e-18
8150.00267 2.97275e-18
8151.99952 3.06364e-18
8153.99636 3.09377e-18
8156.00340 3.09909e-18
8158.00025 3.08901e-18
8159.99710 3.06475e-18
8162.00413 2.98512e-18
8164.00098 2.75822e-18
8165.99783 2.59700e-18
8167.99468 2.75049e-18
8170.00171 3.13806e-18
8171.99856 3.25255e-18
8173.99541 3.21373e-18
8176.00244 3.20973e-18
8177.99929 3.21372e-18
8179.99614 3.19682e-18
8182.00318 3.14114e-18
8184.00002 3.04171e-18
8185.99687 2.91194e-18
8188.00391 2.64025e-18
8190.00076 2.58793e-18
8191.99760 2.73326e-18
8194.00464 2.89394e-18
8196.00149 3.04831e-18
8197.99834 3.19368e-18
8199.99518 3.12319e-18
8202.00222 2.76417e-18
8203.99907 2.69015e-18
8205.99592 2.80609e-18
8208.00295 2.88179e-18
8209.99980 2.90880e-18
8211.99665 2.90208e-18
8214.00368 2.82932e-18
8216.00053 2.67216e-18
8217.99738 2.66394e-18
8220.00442 2.77638e-18
8222.00126 2.88607e-18
8223.99811 3.01313e-18
8225.99496 3.12843e-18
8228.00200 3.20710e-18
8229.99884 3.27990e-18
8231.99569 3.24326e-18
8234.00273 3.10349e-18
8235.99958 3.00002e-18
8237.99642 2.87802e-18
8240.00346 2.79747e-18
8242.00031 2.80977e-18
8243.99716 2.89239e-18
8246.00419 2.89514e-18
8248.00104 2.87289e-18
8249.99789 2.90365e-18
8252.00492 2.94271e-18
8254.00177 2.99104e-18
8255.99862 3.11793e-18
8257.99547 3.22434e-18
8260.00250 3.15612e-18
8261.99935 3.02064e-18
8263.99620 2.90915e-18
8266.00324 2.81382e-18
8268.00008 2.76334e-18
8269.99693 2.76684e-18
8272.00397 2.81225e-18
8274.00082 2.88695e-18
8275.99766 3.02385e-18
8278.00470 3.09714e-18
8280.00155 3.18431e-18
8281.99840 3.17225e-18
8283.99524 3.00548e-18
8286.00228 2.80523e-18
8287.99913 2.71486e-18
8289.99598 2.67037e-18
8292.00301 2.68736e-18
8293.99986 2.81428e-18
8295.99671 2.88648e-18
8298.00374 2.89413e-18
8300.00059 2.91026e-18
8301.99744 2.99975e-18
8304.00448 3.13901e-18
8306.00132 3.18395e-18
8307.99817 3.16036e-18
8309.99502 3.14229e-18
8312.00206 3.09823e-18
8313.99890 3.06790e-18
8315.99575 3.09579e-18
8318.00279 3.14829e-18
8319.99964 3.07178e-18
8321.99648 2.79993e-18
8324.00352 2.73866e-18
8326.00037 2.82524e-18
8327.99722 2.92320e-18
8330.00425 3.01397e-18
8332.00110 3.10328e-18
8333.99795 3.13181e-18
8335.99480 3.13676e-18
8338.00183 3.05999e-18
8339.99868 2.80450e-18
8341.99553 2.69931e-18
8344.00256 2.79471e-18
8345.99941 2.99685e-18
8347.99626 3.25119e-18
8350.00330 3.67663e-18
8352.00014 3.73434e-18
8353.99699 3.45303e-18
8356.00403 3.26186e-18
8358.00088 3.14550e-18
8359.99772 3.04596e-18
8362.00476 2.93420e-18
8364.00161 2.81426e-18
8365.99846 2.78499e-18
8367.99530 2.82004e-18
8370.00234 2.89897e-18
8371.99919 3.07405e-18
8373.99604 3.22740e-18
8376.00307 3.29312e-18
8377.99992 3.30631e-18
8379.99677 3.23300e-18
8382.00380 2.99291e-18
8384.00065 2.88952e-18
8385.99750 2.84432e-18
8388.00454 2.86209e-18
8390.00138 2.95861e-18
8391.99823 3.11590e-18
8393.99508 3.27324e-18
8396.00212 3.52403e-18
8397.99896 3.61211e-18
8399.99581 3.61526e-18
8402.00285 3.53038e-18
8403.99970 3.30032e-18
8405.99654 3.02363e-18
8408.00358 2.90824e-18
8410.00043 2.89761e-18
8411.99728 2.86581e-18
8414.00431 2.85606e-18
8416.00116 2.85653e-18
8417.99801 2.83865e-18
8419.99486 2.86298e-18
8422.00189 3.02220e-18
8423.99874 3.31250e-18
8425.99559 3.45250e-18
8428.00262 3.58697e-18
8429.99947 3.55099e-18
8431.99632 3.25008e-18
8434.00336 2.96186e-18
8436.00020 2.89770e-18
8437.99705 2.95693e-18
8440.00409 3.01199e-18
8442.00094 3.18766e-18
8443.99778 3.22099e-18
8446.00482 3.08889e-18
8448.00167 3.00086e-18
8449.99852 3.08538e-18
8451.99536 3.24696e-18
8454.00240 3.23429e-18
8455.99925 3.03456e-18
8457.99610 2.99706e-18
8460.00313 3.03740e-18
8461.99998 3.10985e-18
8463.99683 3.25634e-18
8466.00386 3.40525e-18
8468.00071 3.33284e-18
8469.99756 3.01320e-18
8472.00460 2.91712e-18
8474.00144 2.93796e-18
8475.99829 2.96703e-18
8477.99514 3.02220e-18
8480.00218 3.07237e-18
8481.99902 3.04101e-18
8483.99587 2.93385e-18
8486.00291 2.91101e-18
8487.99976 2.93669e-18
8489.99660 2.96413e-18
8492.00364 2.98066e-18
8494.00049 3.02635e-18
8495.99734 3.15615e-18
8498.00437 3.36195e-18
8500.00122 3.41641e-18
8501.99807 3.35729e-18
8504.00510 3.30665e-18
8506.00195 3.21961e-18
8507.99880 3.14821e-18
8509.99565 3.14225e-18
8512.00268 3.17108e-18
8513.99953 3.10498e-18
8515.99638 2.89107e-18
8518.00342 2.85643e-18
8520.00026 2.98742e-18
8521.99711 3.09056e-18
8524.00415 3.10443e-18
8526.00100 3.07797e-18
8527.99784 3.04347e-18
8529.99469 3.00216e-18
8532.00173 2.90383e-18
8533.99858 2.64731e-18
8535.99542 2.56175e-18
8538.00246 2.76756e-18
8539.99931 3.06429e-18
8541.99616 3.15827e-18
8544.00319 3.13270e-18
8546.00004 3.16878e-18
8547.99689 3.22302e-18
8550.00392 3.25552e-18
8552.00077 3.27202e-18
8553.99762 3.26677e-18
8556.00466 3.22624e-18
8558.00150 3.15255e-18
8559.99835 3.07968e-18
8561.99520 2.91979e-18
8564.00224 2.91269e-18
8565.99908 3.11764e-18
8567.99593 3.30133e-18
8570.00297 3.31163e-18
8571.99982 3.22594e-18
8573.99666 3.07979e-18
8576.00370 2.72944e-18
8578.00055 2.60384e-18
8579.99740 2.64329e-18
8582.00443 2.73964e-18
8584.00128 2.88038e-18
8585.99813 3.06146e-18
8587.99498 3.14627e-18
8590.00201 3.15069e-18
8591.99886 3.19148e-18
8593.99571 3.26226e-18
8596.00274 3.28509e-18
8597.99959 3.23247e-18
8599.99644 3.14015e-18
8602.00348 3.05969e-18
8604.00032 2.95688e-18
8605.99717 2.89355e-18
8608.00421 2.85527e-18
8610.00106 2.82847e-18
8611.99790 2.80979e-18
8613.99475 2.80687e-18
8616.00179 2.83493e-18
8617.99864 2.90374e-18
8619.99548 2.90537e-18
8622.00252 2.83402e-18
8623.99937 2.81410e-18
8625.99622 2.83816e-18
8628.00325 2.88681e-18
8630.00010 2.94612e-18
8631.99695 3.01961e-18
8634.00398 3.15955e-18
8636.00083 3.44906e-18
8637.99768 3.56511e-18
8640.00472 3.58051e-18
8642.00156 3.48099e-18
8643.99841 3.18402e-18
8645.99526 2.75615e-18
8648.00230 2.64465e-18
8649.99914 2.75422e-18
8651.99599 2.87094e-18
8654.00303 3.16155e-18
8655.99988 3.33560e-18
8657.99672 3.29566e-18
8660.00376 3.13324e-18
8662.00061 2.94245e-18
8663.99746 2.54793e-18
8665.99430 2.49837e-18
8668.00134 2.75560e-18
8669.99819 2.95289e-18
8671.99504 3.08074e-18
8674.00207 3.15140e-18
8675.99892 3.09071e-18
8677.99577 2.89514e-18
8680.00280 2.74981e-18
8681.99965 2.53471e-18
8683.99650 2.43488e-18
8686.00354 2.44266e-18
8688.00038 2.53777e-18
8689.99723 2.74934e-18
8692.00427 3.10226e-18
8694.00112 3.21518e-18
8695.99796 3.15297e-18
8698.00500 3.10873e-18
8700.00185 3.03938e-18
8701.99870 2.96667e-18
8703.99554 2.91477e-18
8706.00258 2.87095e-18
8707.99943 2.80004e-18
8709.99628 2.64854e-18
8712.00331 2.63242e-18
8714.00016 2.73580e-18
8715.99701 2.85981e-18
8718.00404 3.00385e-18
8720.00089 3.15065e-18
8721.99774 3.13370e-18
8724.00478 2.94134e-18
8726.00162 2.83436e-18
8727.99847 2.68988e-18
8729.99532 2.63375e-18
8732.00236 2.72607e-18
8733.99920 2.87580e-18
8735.99605 2.93241e-18
8738.00309 2.96737e-18
8739.99994 2.92617e-18
8741.99678 2.75725e-18
8744.00382 2.66257e-18
8746.00067 2.61811e-18
8747.99752 2.65137e-18
8750.00455 2.85231e-18
8752.00140 3.23588e-18
8753.99825 3.40511e-18
8755.99510 3.45551e-18
8758.00213 3.49021e-18
8759.99898 3.46415e-18
8761.99583 3.44751e-18
8764.00286 3.53738e-18
8765.99971 3.70095e-18
8767.99656 3.59565e-18
8770.00360 3.19899e-18
8772.00044 2.96045e-18
8773.99729 2.76507e-18
8776.00433 2.65337e-18
8778.00118 2.66465e-18
8779.99802 2.76982e-18
8782.00506 2.87932e-18
8784.00191 3.13438e-18
8785.99876 3.16847e-18
8787.99560 2.97598e-18
8790.00264 2.85725e-18
8791.99949 2.91679e-18
8793.99634 3.03979e-18
8796.00337 3.06454e-18
8798.00022 3.06790e-18
8799.99707 2.98940e-18
8802.00410 2.78161e-18
8804.00095 2.63471e-18
8805.99780 2.54368e-18
8807.99465 2.51435e-18
8810.00168 2.61094e-18
8811.99853 2.85920e-18
8813.99538 2.95006e-18
8816.00242 2.89679e-18
8817.99926 2.95795e-18
8819.99611 3.14737e-18
8822.00315 3.37284e-18
8824.00000 3.60106e-18
8825.99684 3.87727e-18
8828.00388 3.84806e-18
8830.00073 3.49258e-18
8831.99758 3.25128e-18
8834.00461 3.00238e-18
8836.00146 2.83923e-18
8837.99831 2.84758e-18
8840.00534 2.97791e-18
8842.00219 3.07362e-18
8843.99904 3.30860e-18
8845.99589 3.28968e-18
8848.00292 2.99949e-18
8849.99977 2.75469e-18
8851.99662 2.66694e-18
8854.00366 2.64611e-18
8856.00050 2.60440e-18
8857.99735 2.50038e-18
8860.00439 2.60926e-18
8862.00124 2.99320e-18
8863.99808 3.24363e-18
8865.99493 3.26739e-18
8868.00197 3.20515e-18
8869.99882 3.20790e-18
8871.99566 3.19885e-18
8874.00270 3.25744e-18
8875.99955 3.42613e-18
8877.99640 3.50462e-18
8880.00343 3.51020e-18
8882.00028 3.43572e-18
8883.99713 3.21799e-18
8886.00416 2.83482e-18
8888.00101 2.70008e-18
8889.99786 2.65788e-18
8892.00490 2.77208e-18
8894.00174 3.20557e-18
8895.99859 3.55041e-18
8897.99544 3.48308e-18
8900.00248 3.15860e-18
8901.99932 2.92777e-18
8903.99617 2.58481e-18
8906.00321 2.40707e-18
8908.00006 2.32083e-18
8909.99690 2.34993e-18
8912.00394 2.56809e-18
8914.00079 2.90102e-18
8915.99764 3.00252e-18
8918.00467 3.00182e-18
8920.00152 2.88785e-18
8921.99837 2.50909e-18
8923.99522 2.29155e-18
8926.00225 2.36687e-18
8927.99910 2.57789e-18
8929.99595 2.72638e-18
8932.00298 2.94156e-18
8933.99983 2.99837e-18
8935.99668 2.87512e-18
8938.00372 2.83672e-18
8940.00056 2.93699e-18
8941.99741 3.05466e-18
8944.00445 3.05558e-18
8946.00130 2.97940e-18
8947.99814 2.93703e-18
8949.99499 2.92349e-18
8952.00203 2.84503e-18
8953.99888 2.68511e-18
8955.99572 2.50711e-18
8958.00276 2.33268e-18
8959.99961 2.13372e-18
8961.99646 2.17347e-18
8964.00349 2.53576e-18
8966.00034 2.66918e-18
8967.99719 2.62176e-18
8970.00422 2.55247e-18
8972.00107 2.52496e-18
8973.99792 2.50450e-18
8976.00496 2.52874e-18
8978.00180 2.58021e-18
8979.99865 2.67251e-18
8981.99550 2.83030e-18
8984.00254 2.97764e-18
8985.99938 3.11714e-18
8987.99623 3.23195e-18
8990.00327 3.21461e-18
8992.00012 3.06421e-18
8993.99696 2.94145e-18
8996.00400 2.71233e-18
8998.00085 2.62006e-18
8999.99770 2.72965e-18
9001.99454 2.92835e-18
9004.00158 3.08272e-18
9005.99843 3.26965e-18
9007.99528 3.37061e-18
9010.00231 3.37920e-18
9011.99916 3.42668e-18
9013.99601 3.56158e-18
9016.00304 3.65536e-18
9017.99989 3.55775e-18
9019.99674 3.30221e-18
9022.00378 3.21536e-18
9024.00062 3.25070e-18
9025.99747 3.21591e-18
9028.00451 3.13783e-18
9030.00136 3.03124e-18
9031.99820 2.86403e-18
9033.99505 2.65066e-18
9036.00209 2.66095e-18
9037.99894 2.97545e-18
9039.99578 3.02357e-18
9042.00282 2.88239e-18
9043.99967 2.71415e-18
9045.99652 2.54001e-18
9048.00355 2.36316e-18
9050.00040 2.35562e-18
9051.99725 2.53195e-18
9054.00428 2.61866e-18
9056.00113 2.66603e-18
9057.99798 2.76065e-18
9059.99483 2.96318e-18
9062.00186 3.18060e-18
9063.99871 3.23301e-18
9065.99556 3.16534e-18
9068.00260 3.09688e-18
9069.99944 2.90614e-18
9071.99629 2.84160e-18
9074.00333 2.98179e-18
9076.00018 3.14406e-18
9077.99702 3.11606e-18
9080.00406 2.96695e-18
9082.00091 2.85651e-18
9083.99776 2.67880e-18
9085.99460 2.60108e-18
9088.00164 2.66751e-18
9089.99849 2.72332e-18
9091.99534 2.61791e-18
9094.00237 2.40756e-18
9095.99922 2.43941e-18
9097.99607 2.68692e-18
9100.00310 2.85594e-18
9101.99995 3.08220e-18
9103.99680 3.18324e-18
9106.00384 3.01673e-18
9108.00068 2.68484e-18
9109.99753 2.51963e-18
9112.00457 2.36088e-18
9114.00142 2.34667e-18
9115.99826 2.51644e-18
9117.99511 2.65777e-18
9120.00215 2.70996e-18
9121.99900 2.73060e-18
9123.99584 2.77012e-18
9126.00288 2.81818e-18
9127.99973 2.83856e-18
9129.99658 2.81478e-18
9132.00361 2.82600e-18
9134.00046 2.92421e-18
9135.99731 3.01024e-18
9138.00434 2.92708e-18
9140.00119 2.69335e-18
9141.99804 2.57494e-18
9143.99489 2.42672e-18
9146.00192 2.43219e-18
9147.99877 2.66265e-18
9149.99562 2.92031e-18
9152.00266 3.02959e-18
9153.99950 3.07251e-18
9155.99635 3.04032e-18
9158.00339 2.87535e-18
9160.00024 2.76935e-18
9161.99708 2.68239e-18
9164.00412 2.62525e-18
9166.00097 2.60777e-18
9167.99782 2.62473e-18
9170.00485 2.68831e-18
9172.00170 2.82636e-18
9173.99855 2.93295e-18
9175.99540 3.07839e-18
9178.00243 3.14869e-18
9179.99928 3.08049e-18
9181.99613 2.93368e-18
9184.00316 2.84010e-18
9186.00001 2.71468e-18
9187.99686 2.68898e-18
9190.00390 2.80399e-18
9192.00074 2.83369e-18
9193.99759 2.69996e-18
9196.00463 2.52320e-18
9198.00148 2.48068e-18
9199.99832 2.52543e-18
9201.99517 2.54104e-18
9204.00221 2.55163e-18
9205.99906 2.59345e-18
9207.99590 2.67340e-18
9210.00294 2.77229e-18
9211.99979 2.89075e-18
9213.99664 3.06140e-18
9216.00367 3.02508e-18
9218.00052 2.68250e-18
9219.99737 2.60502e-18
9222.00440 2.83393e-18
9224.00125 3.06828e-18
9225.99810 3.08856e-18
9227.99495 2.99702e-18
9230.00198 3.03856e-18
9231.99883 3.18315e-18
9233.99568 3.25614e-18
9236.00272 3.31638e-18
9237.99956 3.31523e-18
9239.99641 3.19363e-18
9242.00345 3.00376e-18
9244.00030 2.95887e-18
9245.99714 3.06887e-18
9248.00418 3.03937e-18
9250.00103 2.92851e-18
9251.99788 2.81282e-18
9254.00491 2.68914e-18
9256.00176 2.57279e-18
9257.99861 2.54475e-18
9259.99546 2.62969e-18
9262.00249 2.58953e-18
9263.99934 2.43122e-18
9265.99619 2.34664e-18
9268.00322 2.36488e-18
9270.00007 2.42075e-18
9271.99692 2.45806e-18
9274.00396 2.51462e-18
9276.00080 2.50295e-18
9277.99765 2.37311e-18
9279.99450 2.36293e-18
9282.00154 2.49694e-18
9283.99838 2.65751e-18
9285.99523 2.74953e-18
9288.00227 2.81251e-18
9289.99912 2.92105e-18
9291.99596 3.16748e-18
9294.00300 3.17757e-18
9295.99985 2.78735e-18
9297.99670 2.58609e-18
9300.00373 2.99862e-18
9302.00058 3.76344e-18
9303.99743 4.04940e-18
9306.00446 4.39234e-18
9308.00131 3.98861e-18
9309.99816 2.40788e-18
9312.00520 1.37121e-18
9314.00204 1.60042e-18
9315.99889 2.40490e-18
9317.99574 2.63852e-18
9320.00278 2.59971e-18
9321.99962 2.79458e-18
9323.99647 3.10916e-18
9326.00351 3.43337e-18
9328.00036 3.85675e-18
9329.99720 4.21274e-18
9332.00424 4.13805e-18
9334.00109 3.65521e-18
9335.99794 3.41129e-18
9337.99478 3.14775e-18
9340.00182 3.02928e-18
9341.99867 3.16706e-18
9343.99552 3.29598e-18
9346.00255 3.09938e-18
9347.99940 2.65795e-18
9349.99625 2.52343e-18
9352.00328 2.56946e-18
9354.00013 2.62348e-18
9355.99698 2.70730e-18
9358.00402 2.83744e-18
9360.00086 3.04221e-18
9361.99771 3.30981e-18
9364.00475 3.45112e-18
9366.00160 3.52028e-18
9367.99844 3.55398e-18
9369.99529 3.45611e-18
9372.00233 3.45304e-18
9373.99918 3.71633e-18
9375.99602 4.09095e-18
9378.00306 4.10269e-18
9379.99991 3.87780e-18
9381.99676 3.58090e-18
9384.00379 2.91762e-18
9386.00064 2.56820e-18
9387.99749 2.81578e-18
9390.00452 3.26791e-18
9392.00137 3.26616e-18
9393.99822 2.97065e-18
9395.99507 2.82263e-18
9398.00210 2.62872e-18
9399.99895 2.55601e-18
9401.99580 2.69696e-18
9404.00284 2.85236e-18
9405.99968 2.75917e-18
9407.99653 2.48301e-18
9410.00357 2.34586e-18
9412.00042 2.24029e-18
9413.99726 2.17722e-18
9416.00430 2.13656e-18
9418.00115 2.16089e-18
9419.99800 2.31404e-18
9421.99484 2.58036e-18
9424.00188 2.69032e-18
9425.99873 2.67654e-18
9427.99558 2.72719e-18
9430.00261 2.75775e-18
9431.99946 2.88066e-18
9433.99631 3.14421e-18
9436.00334 3.52292e-18
9438.00019 4.07126e-18
9439.99704 5.27582e-18
9442.00408 5.44366e-18
9444.00092 4.72981e-18
9445.99777 3.98554e-18
9448.00481 3.31995e-18
9450.00166 2.71051e-18
9451.99850 2.60580e-18
9453.99535 3.13103e-18
9456.00239 3.10848e-18
9457.99924 2.78027e-18
9459.99608 2.47824e-18
9462.00312 2.19711e-18
9463.99997 1.94860e-18
9465.99682 1.81344e-18
9468.00385 1.70977e-18
9470.00070 1.90701e-18
9471.99755 2.52497e-18
9474.00458 2.94477e-18
9476.00143 3.25085e-18
9477.99828 3.38877e-18
9479.99513 3.18866e-18
9482.00216 2.66224e-18
9483.99901 2.50012e-18
9485.99586 2.59322e-18
9488.00290 2.56305e-18
9489.99974 2.42468e-18
9491.99659 2.30691e-18
9494.00363 2.25581e-18
9496.00048 2.24723e-18
9497.99732 2.42658e-18
9500.00436 2.84823e-18
9502.00121 3.16625e-18
9503.99806 3.58091e-18
9505.99490 3.79494e-18
9508.00194 3.66153e-18
9509.99879 3.30713e-18
9511.99564 2.96264e-18
9514.00267 2.37563e-18
9515.99952 2.14685e-18
9517.99637 2.15501e-18
9520.00340 2.23695e-18
9522.00025 2.39213e-18
9523.99710 2.60808e-18
9526.00414 2.82346e-18
9528.00098 3.17076e-18
9529.99783 3.13784e-18
9532.00487 2.65263e-18
9534.00172 2.39949e-18
9535.99856 2.50343e-18
9537.99541 2.62605e-18
9540.00245 2.35458e-18
9541.99930 1.71070e-18
9543.99614 1.89480e-18
9546.00318 2.92710e-18
9548.00003 3.53478e-18
9549.99688 3.90768e-18
9552.00391 4.04006e-18
9554.00076 3.82451e-18
9555.99761 3.30005e-18
9557.99446 2.83159e-18
9560.00149 1.91178e-18
9561.99834 1.77937e-18
9563.99519 2.47660e-18
9566.00222 3.19114e-18
9567.99907 3.65098e-18
9569.99592 3.99665e-18
9572.00296 3.86653e-18
9573.99980 3.10494e-18
9575.99665 2.67601e-18
9578.00369 2.29491e-18
9580.00054 1.97996e-18
9581.99738 1.68402e-18
9584.00442 1.48317e-18
9586.00127 1.60914e-18
9587.99812 2.13910e-18
9590.00515 2.37840e-18
9592.00200 2.51184e-18
9593.99885 2.61975e-18
9595.99570 2.69486e-18
9598.00273 2.74878e-18
9599.99958 2.81476e-18
9601.99643 2.87931e-18
9604.00346 2.93961e-18
9606.00031 3.07355e-18
9607.99716 3.04697e-18
9610.00420 2.85800e-18
9612.00104 2.56905e-18
9613.99789 2.13119e-18
9615.99474 1.49339e-18
9618.00178 1.58378e-18
9619.99862 2.63866e-18
9621.99547 2.91940e-18
9624.00251 2.52783e-18
9625.99936 2.04135e-18
9627.99620 1.66038e-18
9630.00324 1.28519e-18
9632.00009 1.41492e-18
9633.99694 2.19936e-18
9636.00397 2.55918e-18
9638.00082 2.80746e-18
9639.99767 2.86621e-18
9642.00470 2.59221e-18
9644.00155 2.16153e-18
9645.99840 2.13759e-18
9647.99525 2.45260e-18
9650.00228 2.56931e-18
9651.99913 2.69761e-18
9653.99598 2.70128e-18
9656.00302 2.51998e-18
9657.99986 2.25466e-18
9659.99671 2.04385e-18
9662.00375 1.76178e-18
9664.00060 1.76039e-18
9665.99744 2.08062e-18
9668.00448 2.27125e-18
9670.00133 2.33499e-18
9671.99818 2.33657e-18
9673.99502 2.29264e-18
9676.00206 2.18632e-18
9677.99891 2.09828e-18
9679.99576 1.89153e-18
9682.00279 1.91136e-18
9683.99964 2.28479e-18
9685.99649 2.57879e-18
9688.00352 2.45428e-18
9690.00037 2.07434e-18
9691.99722 1.91668e-18
9694.00426 1.82304e-18
9696.00110 1.77278e-18
9697.99795 1.78944e-18
9699.99480 1.82483e-18
9702.00184 1.84897e-18
9703.99868 1.88625e-18
9705.99553 1.99887e-18
9708.00257 2.23085e-18
9709.99942 2.35385e-18
9711.99626 2.42768e-18
9714.00330 2.47384e-18
9716.00015 2.47273e-18
9717.99700 2.45878e-18
9720.00403 2.53211e-18
9722.00088 2.71671e-18
9723.99773 2.73546e-18
9726.00476 2.69159e-18
9728.00161 2.53308e-18
9729.99846 2.16292e-18
9731.99531 1.77762e-18
9734.00234 1.63967e-18
9735.99919 1.63214e-18
9737.99604 1.78710e-18
9740.00308 2.21934e-18
9741.99992 2.54524e-18
9743.99677 2.84985e-18
9746.00381 3.05071e-18
9748.00066 3.03476e-18
9749.99750 2.84406e-18
9751.99435 2.67312e-18
9754.00139 2.37464e-18
9755.99824 2.21040e-18
9757.99508 2.09726e-18
9760.00212 2.10792e-18
9761.99897 2.37007e-18
9763.99582 2.78762e-18
9766.00285 2.79862e-18
9767.99970 2.45635e-18
9769.99655 2.25035e-18
9772.00358 1.90999e-18
9774.00043 1.80241e-18
9775.99728 2.17133e-18
9778.00432 2.72990e-18
9780.00116 2.79729e-18
9781.99801 2.45449e-18
9784.00505 2.39493e-18
9786.00190 2.54442e-18
9787.99874 2.51456e-18
9789.99559 2.17942e-18
9792.00263 1.76521e-18
9793.99948 1.55123e-18
9795.99632 1.35210e-18
9798.00336 1.54999e-18
9800.00021 2.42368e-18
9801.99706 2.77168e-18
9804.00409 2.48676e-18
9806.00094 2.03515e-18
9807.99779 1.75047e-18
9809.99464 1.43923e-18
9812.00167 1.51049e-18
9813.99852 2.16102e-18
9815.99537 2.34570e-18
9818.00240 2.11776e-18
9819.99925 1.79019e-18
9821.99610 1.44751e-18
9824.00314 1.04307e-18
9825.99998 1.14930e-18
9827.99683 1.92754e-18
9830.00387 2.19472e-18
9832.00072 2.15652e-18
9833.99756 2.04005e-18
9836.00460 1.85410e-18
9838.00145 1.62648e-18
9839.99830 1.67998e-18
9841.99514 2.03349e-18
9844.00218 2.19718e-18
9845.99903 2.30756e-18
9847.99588 2.39122e-18
9850.00291 2.46819e-18
9851.99976 2.50697e-18
9853.99661 2.43754e-18
9856.00364 2.21966e-18
9858.00049 2.16881e-18
9859.99734 2.24133e-18
9862.00438 2.27730e-18
9864.00122 2.30918e-18
9865.99807 2.28719e-18
9868.00511 2.10624e-18
9870.00196 1.77273e-18
9871.99880 1.57162e-18
9873.99565 1.31334e-18
9876.00269 1.29826e-18
9877.99954 1.64520e-18
9879.99638 1.98073e-18
9882.00342 2.00588e-18
9884.00027 1.85657e-18
9885.99712 1.78189e-18
9888.00415 1.60874e-18
9890.00100 1.62228e-18
9891.99785 1.96442e-18
9893.99470 2.11754e-18
9896.00173 1.71718e-18
9897.99858 1.03071e-18
9899.99543 8.91787e-19
9902.00246 1.15055e-18
9903.99931 1.30333e-18
9905.99616 1.56687e-18
9908.00320 1.74161e-18
9910.00004 1.74415e-18
9911.99689 1.67051e-18
9914.00393 1.67994e-18
9916.00078 1.67507e-18
9917.99762 1.80418e-18
9920.00466 2.19030e-18
9922.00151 2.34812e-18
9923.99836 2.17171e-18
9925.99520 1.87174e-18
9928.00224 1.65134e-18
9929.99909 1.33262e-18
9931.99594 1.45892e-18
9934.00297 2.10417e-18
9935.99982 2.51962e-18
9937.99667 2.80738e-18
9940.00370 2.91736e-18
9942.00055 2.63987e-18
9943.99740 1.97719e-18
9946.00444 2.04134e-18
9948.00128 2.90817e-18
9949.99813 3.16142e-18
9951.99498 2.86682e-18
9954.00202 2.51748e-18
9955.99886 2.36549e-18
9957.99571 2.27231e-18
9960.00275 2.15999e-18
9961.99960 1.85816e-18
9963.99644 2.02044e-18
9966.00348 3.01802e-18
9968.00033 3.42146e-18
9969.99718 2.44950e-18
9972.00421 8.64762e-19
9974.00106 3.73507e-19
9975.99791 5.62835e-19
9978.00494 6.06402e-19
9980.00179 7.93176e-19
9981.99864 1.00799e-18
9983.99549 1.25112e-18
9986.00252 1.51487e-18
9987.99937 1.75419e-18
9989.99622 2.00957e-18
9992.00326 2.17084e-18
9994.00010 2.27765e-18
9995.99695 2.31458e-18
9998.00399 2.23529e-18
10000.00084 2.13910e-18
