# wavelength flux
3300.00407 1.65096e-17
3301.99845 1.23922e-17
3304.00285 -3.91858e-18
3305.99723 -5.74383e-18
3308.00163 1.80183e-18
3309.99601 3.05137e-19
3312.00041 -1.02481e-18
3314.00481 -2.05165e-18
3315.99918 -8.04232e-19
3318.00358 -3.65220e-18
3319.99796 -9.60997e-18
3322.00236 -4.18800e-19
3323.99674 7.59993e-18
3326.00114 1.62877e-17
3327.99552 3.82593e-18
3329.99992 2.13610e-18
3332.00432 6.79176e-18
3333.99870 3.71293e-18
3336.00310 -3.43139e-18
3337.99747 -5.66577e-19
3340.00187 4.65996e-18
3341.99625 1.31033e-18
3344.00065 1.09842e-18
3346.00505 1.14667e-17
3347.99943 7.16074e-18
3350.00383 1.56488e-18
3351.99821 3.68247e-18
3354.00261 7.37144e-18
3355.99699 1.18108e-17
3358.00139 1.11721e-17
3359.99576 3.30252e-18
3362.00016 1.02630e-17
3364.00456 -2.85888e-18
3365.99894 3.32495e-18
3368.00334 3.79919e-18
3369.99772 8.57823e-18
3372.00212 8.97801e-18
3373.99650 4.93034e-18
3376.00090 1.76177e-19
3377.99528 4.72530e-19
3379.99968 3.27272e-18
3382.00408 2.80177e-18
3383.99845 -1.97378e-18
3386.00285 4.28608e-19
3387.99723 8.50891e-18
3390.00163 8.97868e-18
3391.99601 4.53783e-18
3394.00041 2.62049e-18
3396.00481 -4.56235e-18
3397.99919 4.96711e-18
3400.00359 8.24436e-18
3401.99797 8.38813e-18
3404.00237 4.49838e-18
3405.99674 -2.68031e-18
3408.00114 -2.16628e-18
3409.99552 7.84877e-18
3411.99992 8.80530e-18
3414.00432 4.60111e-18
3415.99870 -1.53991e-18
3418.00310 7.46149e-18
3419.99748 1.09630e-17
3422.00188 6.32137e-18
3423.99626 1.45175e-18
3426.00066 6.69661e-18
3427.99503 5.20754e-18
3429.99943 2.13135e-18
3432.00383 4.83994e-18
3433.99821 2.67711e-18
3436.00261 9.18741e-19
3437.99699 9.21766e-18
3440.00139 9.44730e-18
3441.99577 2.29957e-19
3444.00017 -3.51303e-18
3446.00457 -2.42927e-18
3447.99895 -5.73843e-18
3450.00335 4.69475e-19
3451.99772 5.41890e-18
3454.00212 2.37912e-18
3455.99650 -7.35259e-19
3458.00090 4.07437e-18
3459.99528 3.75881e-19
3461.99968 3.68333e-18
3464.00408 1.07614e-17
3465.99846 7.60294e-18
3468.00286 6.54898e-18
3469.99724 7.58821e-18
3472.00164 4.27981e-18
3473.99601 7.10598e-19
3476.00041 3.61962e-18
3478.00481 2.00671e-18
3479.99919 3.47506e-20
3482.00359 2.09181e-18
3483.99797 3.55607e-18
3486.00237 5.09738e-18
3487.99675 1.21533e-18
3490.00115 2.45576e-18
3491.99553 3.82364e-18
3493.99993 4.15271e-18
3496.00433 5.66664e-18
3497.99870 3.58181e-18
3500.00310 -2.98249e-18
3501.99748 1.25138e-18
3504.00188 1.79208e-18
3505.99626 1.21760e-18
3508.00066 1.04291e-18
3509.99504 -6.75273e-19
3511.99944 3.68581e-18
3514.00384 3.43355e-18
3515.99822 2.86910e-19
3518.00262 -3.74794e-19
3519.99699 5.47461e-18
3522.00139 3.32295e-18
3523.99577 2.14255e-18
3526.00017 1.24555e-18
3528.00457 2.94019e-18
3529.99895 5.74313e-18
3532.00335 3.99677e-18
3533.99773 3.68757e-18
3536.00213 1.35775e-18
3537.99651 1.63330e-18
3540.00091 3.24888e-18
3541.99528 3.10044e-18
3543.99968 2.54258e-18
3546.00408 -2.93634e-19
3547.99846 -1.37983e-19
3550.00286 4.76982e-18
3551.99724 4.86786e-18
3554.00164 2.28476e-18
3555.99602 3.11788e-18
3558.00042 1.69762e-18
3560.00482 3.36126e-18
3561.99920 4.24412e-18
3564.00360 1.79597e-18
3565.99797 2.29918e-18
3568.00237 4.09418e-18
3569.99675 -3.31984e-20
3572.00115 8.44677e-18
3573.99553 6.58919e-18
3575.99993 1.22958e-18
3578.00433 -1.04084e-18
3579.99871 1.97510e-19
3582.00311 6.08271e-18
3583.99749 1.41237e-18
3586.00189 2.48246e-18
3587.99626 3.77303e-18
3590.00066 3.46679e-18
3591.99504 -2.17597e-19
3593.99944 3.28597e-19
3596.00384 -8.18831e-20
3597.99822 -1.36484e-18
3600.00262 3.43617e-19
3601.99700 3.82268e-18
3604.00140 1.31586e-18
3605.99578 9.38342e-19
3608.00018 2.86424e-18
3610.00458 6.17432e-19
3611.99895 7.44231e-19
3614.00335 3.33592e-18
3615.99773 2.52121e-18
3618.00213 2.10421e-18
3619.99651 2.78070e-18
3622.00091 -3.13115e-19
3623.99529 6.75657e-18
3625.99969 6.75587e-18
3628.00409 5.25333e-18
3629.99847 3.89055e-18
3632.00287 1.95172e-18
3633.99724 5.10751e-18
3636.00164 3.76712e-18
3637.99602 2.35682e-18
3640.00042 1.91977e-18
3642.00482 3.36081e-18
3643.99920 3.51127e-18
3646.00360 3.66167e-18
3647.99798 3.81202e-18
3650.00238 3.96232e-18
3651.99676 4.11258e-18
3654.00116 4.26279e-18
3655.99553 4.41296e-18
3657.99993 4.56307e-18
3660.00433 4.71313e-18
3661.99871 4.86315e-18
3664.00311 5.01312e-18
3665.99749 5.16305e-18
3668.00189 5.31293e-18
3669.99627 5.46277e-18
3672.00067 5.61256e-18
3673.99505 4.91634e-18
3675.99945 1.23832e-18
3678.00385 2.83348e-18
3679.99822 6.40782e-18
3682.00262 2.81383e-18
3683.99700 3.62174e-18
3686.00140 5.46555e-18
3687.99578 6.21264e-18
3690.00018 6.07800e-18
3692.00458 4.08535e-18
3693.99896 2.31116e-18
3696.00336 4.99068e-18
3697.99774 6.48857e-18
3700.00214 5.86672e-18
3701.99651 4.25996e-18
3704.00091 5.34916e-18
3705.99529 4.32544e-18
3707.99969 4.56848e-18
3710.00409 4.88199e-18
3711.99847 2.60259e-18
3714.00287 3.44397e-18
3715.99725 3.99532e-18
3718.00165 4.47830e-18
3719.99603 4.69627e-18
3722.00043 3.81146e-18
3724.00483 3.74742e-18
3725.99920 5.09671e-18
3728.00360 4.91352e-18
3729.99798 2.53571e-18
3732.00238 3.08749e-18
3733.99676 4.66887e-18
3736.00116 4.59301e-18
3737.99554 2.83490e-18
3739.99994 3.61701e-18
3742.00434 2.86169e-18
3743.99872 2.81187e-18
3746.00312 3.25638e-18
3747.99749 3.83607e-18
3750.00189 3.72466e-18
3751.99627 4.04753e-18
3754.00067 3.67154e-18
3755.99505 5.25922e-18
3757.99945 5.92887e-18
3760.00385 3.79709e-18
3761.99823 3.37007e-18
3764.00263 2.30102e-18
3765.99701 3.61016e-18
3768.00141 3.44250e-18
3769.99578 3.69281e-18
3772.00018 5.34404e-18
3774.00458 5.50559e-18
3775.99896 2.53259e-18
3778.00336 1.36629e-18
3779.99774 2.42649e-18
3782.00214 4.92806e-18
3783.99652 3.77541e-18
3786.00092 2.90610e-18
3787.99530 3.91756e-18
3789.99970 3.93358e-18
3792.00410 4.81481e-18
3793.99847 3.28114e-18
3796.00287 3.70769e-18
3797.99725 4.23820e-18
3800.00165 4.35931e-18
3801.99603 5.42375e-18
3804.00043 5.32553e-18
3806.00483 8.19019e-18
3807.99921 2.28415e-18
3810.00361 3.05514e-18
3811.99799 5.57534e-18
3814.00239 3.16021e-18
3815.99676 2.17319e-18
3818.00116 3.24811e-18
3819.99554 4.19901e-18
3821.99994 4.76983e-18
3824.00434 6.83842e-18
3825.99872 3.59625e-18
3828.00312 3.62812e-18
3829.99750 4.18691e-18
3832.00190 3.29341e-18
3833.99628 3.95677e-18
3836.00068 4.53568e-18
3837.99505 4.01274e-18
3839.99945 4.18081e-18
3842.00385 5.39757e-18
3843.99823 3.37120e-18
3846.00263 4.89278e-18
3847.99701 5.85098e-18
3850.00141 4.24963e-18
3851.99579 6.58550e-18
3854.00019 6.46201e-18
3856.00459 6.66434e-18
3857.99897 6.90962e-18
3860.00337 5.74603e-18
3861.99774 4.92789e-18
3864.00214 5.42890e-18
3865.99652 5.65976e-18
3868.00092 6.21299e-18
3869.99530 5.78523e-18
3871.99970 5.88391e-18
3874.00410 5.71044e-18
3875.99848 4.91362e-18
3878.00288 5.96927e-18
3879.99726 5.91919e-18
3882.00166 6.05298e-18
3883.99603 6.81077e-18
3886.00043 8.55906e-18
3888.00483 6.61354e-18
3889.99921 5.48318e-18
3892.00361 5.31542e-18
3893.99799 6.50106e-18
3896.00239 8.44791e-18
3897.99677 6.07691e-18
3900.00117 5.90035e-18
3901.99555 4.63064e-18
3903.99995 4.78316e-18
3906.00435 8.31224e-18
3907.99872 7.16015e-18
3910.00312 7.91517e-18
3911.99750 9.33365e-18
3914.00190 7.37120e-18
3915.99628 6.51428e-18
3918.00068 7.04051e-18
3920.00508 5.91932e-18
3921.99946 8.28340e-18
3924.00386 7.64879e-18
3925.99824 8.74846e-18
3928.00264 6.77510e-18
3929.99701 6.58526e-18
3932.00141 7.89452e-18
3933.99579 7.53969e-18
3936.00019 7.50152e-18
3938.00459 6.24360e-18
3939.99897 7.49279e-18
3942.00337 9.27015e-18
3943.99775 9.86793e-18
3946.00215 7.17521e-18
3947.99653 7.98644e-18
3950.00093 7.64480e-18
3951.99530 6.41379e-18
3953.99970 7.18602e-18
3956.00410 8.19054e-18
3957.99848 7.93186e-18
3960.00288 8.05355e-18
3961.99726 9.85549e-18
3964.00166 8.47683e-18
3965.99604 5.53496e-18
3968.00044 6.88640e-18
3970.00484 6.74433e-18
3971.99922 9.49650e-18
3974.00362 8.17365e-18
3975.99799 8.30772e-18
3978.00239 8.93649e-18
3979.99677 9.27716e-18
3982.00117 8.19943e-18
3983.99555 6.56405e-18
3985.99995 7.07249e-18
3988.00435 8.63087e-18
3989.99873 7.88205e-18
3992.00313 6.48839e-18
3993.99751 6.43192e-18
3996.00191 8.29107e-18
3997.99628 9.22892e-18
4000.00068 6.92415e-18
4001.99506 5.35349e-18
4003.99946 7.00284e-18
4006.00386 8.45845e-18
4007.99824 9.45584e-18
4010.00264 1.04533e-17
4011.99702 7.93716e-18
4014.00142 8.29418e-18
4015.99580 9.28249e-18
4018.00020 9.00266e-18
4020.00460 9.85718e-18
4021.99897 9.51898e-18
4024.00337 9.25124e-18
4025.99775 7.83427e-18
4028.00215 8.34882e-18
4029.99653 8.69328e-18
4032.00093 8.35939e-18
4033.99531 1.03389e-17
4035.99971 9.18045e-18
4038.00411 7.73644e-18
4039.99849 7.18948e-18
4042.00289 6.64259e-18
4043.99726 6.09582e-18
4046.00166 5.54916e-18
4047.99604 5.00262e-18
4050.00044 5.00210e-18
4052.00484 5.31698e-18
4053.99922 7.73668e-18
4056.00362 7.40841e-18
4057.99800 9.89752e-18
4060.00240 8.70417e-18
4061.99678 6.84198e-18
4064.00118 7.78085e-18
4065.99555 7.77612e-18
4067.99995 8.25004e-18
4070.00435 9.54913e-18
4071.99873 8.66932e-18
4074.00313 6.64314e-18
4075.99751 7.53839e-18
4078.00191 9.73236e-18
4079.99629 6.70772e-18
4082.00069 6.40473e-18
4083.99507 6.07060e-18
4085.99947 9.32177e-18
4088.00387 9.32059e-18
4089.99824 7.98511e-18
4092.00264 8.08279e-18
4093.99702 6.69735e-18
4096.00142 7.70705e-18
4097.99580 6.18808e-18
4100.00020 5.17570e-18
4102.00460 7.87802e-18
4103.99898 8.33568e-18
4106.00338 9.22621e-18
4107.99776 7.56901e-18
4110.00216 6.19117e-18
4111.99653 7.00018e-18
4114.00093 5.84002e-18
4115.99531 8.49512e-18
4117.99971 9.26840e-18
4120.00411 7.98863e-18
4121.99849 7.97164e-18
4124.00289 8.05972e-18
4125.99727 7.70930e-18
4128.00167 7.12781e-18
4129.99605 6.55379e-18
4132.00045 7.69526e-18
4134.00485 7.79608e-18
4135.99922 5.83761e-18
4138.00362 5.41354e-18
4139.99800 5.92321e-18
4142.00240 5.53610e-18
4143.99678 5.84479e-18
4146.00118 6.40607e-18
4147.99556 4.79446e-18
4149.99996 4.81051e-18
4152.00436 6.42438e-18
4153.99874 6.81345e-18
4156.00314 7.40751e-18
4157.99751 8.83623e-18
4160.00191 8.64164e-18
4161.99629 8.35255e-18
4164.00069 8.75890e-18
4165.99507 9.71522e-18
4167.99947 8.08790e-18
4170.00387 7.97467e-18
4171.99825 8.92643e-18
4174.00265 8.03055e-18
4175.99703 6.51815e-18
4178.00143 6.64620e-18
4179.99580 6.91743e-18
4182.00020 6.43433e-18
4184.00460 7.03055e-18
4185.99898 7.70820e-18
4188.00338 6.34510e-18
4189.99776 8.59321e-18
4192.00216 7.41296e-18
4193.99654 6.82351e-18
4196.00094 7.54092e-18
4197.99532 7.72651e-18
4199.99972 7.08577e-18
4202.00412 5.95481e-18
4203.99849 6.36384e-18
4206.00289 6.34590e-18
4207.99727 7.24832e-18
4210.00167 6.49720e-18
4211.99605 7.63409e-18
4214.00045 8.26523e-18
4216.00485 7.90480e-18
4217.99923 7.89413e-18
4220.00363 6.57187e-18
4221.99801 6.56517e-18
4224.00241 6.22713e-18
4225.99678 6.81671e-18
4228.00118 6.34086e-18
4229.99556 6.02707e-18
4231.99996 6.05302e-18
4234.00436 7.05510e-18
4235.99874 6.88960e-18
4238.00314 7.42138e-18
4239.99752 6.86515e-18
4242.00192 5.53945e-18
4243.99630 5.49267e-18
4246.00070 8.45022e-18
4247.99507 1.10700e-17
4249.99947 9.51113e-18
4252.00387 7.73461e-18
4253.99825 8.75377e-18
4256.00265 9.01681e-18
4257.99703 7.73292e-18
4260.00143 7.81611e-18
4261.99581 8.46465e-18
4264.00021 7.50076e-18
4266.00461 7.19234e-18
4267.99899 6.85619e-18
4270.00339 6.89360e-18
4271.99776 6.86953e-18
4274.00216 7.91510e-18
4275.99654 8.20919e-18
4278.00094 7.94580e-18
4279.99532 7.27129e-18
4281.99972 7.05700e-18
4284.00412 7.06515e-18
4285.99850 6.49604e-18
4288.00290 7.76506e-18
4289.99728 9.28743e-18
4292.00168 8.80189e-18
4293.99605 6.92669e-18
4296.00045 7.87250e-18
4297.99483 9.54718e-18
4299.99923 8.91768e-18
4302.00363 7.22704e-18
4303.99801 7.50323e-18
4306.00241 7.78247e-18
4307.99679 6.82570e-18
4310.00119 5.99046e-18
4311.99557 6.09688e-18
4313.99997 7.58666e-18
4316.00437 8.40177e-18
4317.99874 8.51505e-18
4320.00314 8.15525e-18
4321.99752 7.59688e-18
4324.00192 6.66057e-18
4325.99630 7.83569e-18
4328.00070 8.11214e-18
4330.00510 8.25200e-18
4331.99948 8.76263e-18
4334.00388 8.72313e-18
4335.99826 8.00370e-18
4338.00266 7.80645e-18
4339.99703 8.77746e-18
4342.00143 6.78301e-18
4343.99581 7.56846e-18
4346.00021 5.65152e-18
4348.00461 7.49139e-18
4349.99899 9.65130e-18
4352.00339 9.53360e-18
4353.99777 9.41585e-18
4356.00217 9.29813e-18
4357.99655 9.18051e-18
4360.00095 9.06284e-18
4361.99532 8.94527e-18
4363.99972 8.94426e-18
4366.00412 6.72129e-18
4367.99850 8.27880e-18
4370.00290 9.90846e-18
4371.99728 9.87327e-18
4374.00168 9.51219e-18
4375.99606 8.87950e-18
4378.00046 7.62276e-18
4380.00486 6.97436e-18
4381.99924 7.84147e-18
4384.00364 9.08561e-18
4385.99801 1.05512e-17
4388.00241 9.15110e-18
4389.99679 8.31029e-18
4392.00119 9.26170e-18
4393.99557 9.95630e-18
4395.99997 9.33118e-18
4398.00437 8.39028e-18
4399.99875 9.16193e-18
4402.00315 9.98303e-18
4403.99753 1.05960e-17
4406.00193 9.70048e-18
4407.99630 9.20201e-18
4410.00070 9.00568e-18
4411.99508 9.39205e-18
4413.99948 9.77442e-18
4416.00388 1.01875e-17
4417.99826 8.82462e-18
4420.00266 8.92269e-18
4421.99704 1.02732e-17
4424.00144 9.60904e-18
4425.99582 9.66830e-18
4428.00022 1.03716e-17
4430.00462 9.89959e-18
4431.99899 9.40358e-18
4434.00339 9.75385e-18
4435.99777 1.04121e-17
4438.00217 9.51057e-18
4439.99655 1.08073e-17
4442.00095 1.04183e-17
4443.99533 1.03129e-17
4445.99973 1.07395e-17
4448.00413 1.06488e-17
4449.99851 1.00021e-17
4452.00291 9.11127e-18
4453.99728 8.27974e-18
4456.00168 8.32983e-18
4457.99606 8.95302e-18
4460.00046 1.02959e-17
4462.00486 1.04324e-17
4463.99924 1.05294e-17
4466.00364 9.75480e-18
4467.99802 9.92058e-18
4470.00242 1.13564e-17
4471.99680 1.17478e-17
4474.00120 1.10797e-17
4475.99557 1.13432e-17
4477.99997 1.14220e-17
4480.00437 1.23343e-17
4481.99875 1.27933e-17
4484.00315 1.43384e-17
4485.99753 1.30060e-17
4488.00193 1.21657e-17
4489.99631 1.26987e-17
4492.00071 1.28650e-17
4493.99509 1.22368e-17
4495.99949 1.26776e-17
4498.00389 1.35376e-17
4499.99826 1.33648e-17
4502.00266 1.33436e-17
4503.99704 1.38162e-17
4506.00144 1.37764e-17
4507.99582 1.38132e-17
4510.00022 1.38447e-17
4512.00462 1.44116e-17
4513.99900 1.41402e-17
4516.00340 1.40935e-17
4517.99778 1.44893e-17
4520.00218 1.58090e-17
4521.99655 1.54614e-17
4524.00095 1.34847e-17
4525.99533 1.36851e-17
4527.99973 1.33112e-17
4530.00413 1.44437e-17
4531.99851 1.42920e-17
4534.00291 1.43251e-17
4535.99729 1.44782e-17
4538.00169 1.38883e-17
4539.99607 1.55496e-17
4542.00047 1.56450e-17
4543.99484 1.43007e-17
4545.99924 1.56558e-17
4548.00364 1.59336e-17
4549.99802 1.51209e-17
4552.00242 1.51916e-17
4553.99680 1.57181e-17
4556.00120 1.55981e-17
4557.99558 1.55934e-17
4559.99998 1.55389e-17
4562.00438 1.53213e-17
4563.99876 1.47363e-17
4566.00316 1.55057e-17
4567.99753 1.59969e-17
4570.00193 1.57868e-17
4571.99631 1.59194e-17
4574.00071 1.54601e-17
4576.00511 1.46899e-17
4577.99949 1.57556e-17
4580.00389 1.59426e-17
4581.99827 1.54673e-17
4584.00267 1.56237e-17
4585.99705 1.61193e-17
4588.00145 1.72867e-17
4589.99582 1.59317e-17
4592.00022 1.60376e-17
4594.00462 1.68292e-17
4595.99900 1.67696e-17
4598.00340 1.70464e-17
4599.99778 1.64065e-17
4602.00218 1.58451e-17
4603.99656 1.60447e-17
4606.00096 1.53675e-17
4607.99534 1.59603e-17
4609.99974 1.63571e-17
4612.00414 1.71079e-17
4613.99851 1.60517e-17
4616.00291 1.55747e-17
4617.99729 1.64033e-17
4620.00169 1.66006e-17
4621.99607 1.61670e-17
4624.00047 1.57230e-17
4626.00487 1.65320e-17
4627.99925 1.57566e-17
4630.00365 1.53626e-17
4631.99803 1.52860e-17
4634.00243 1.54506e-17
4635.99680 1.52049e-17
4638.00120 1.57149e-17
4639.99558 1.63424e-17
4641.99998 1.46804e-17
4644.00438 1.42093e-17
4645.99876 1.52499e-17
4648.00316 1.53706e-17
4649.99754 1.51980e-17
4652.00194 1.47728e-17
4653.99632 1.61427e-17
4656.00072 1.55387e-17
4657.99509 1.40068e-17
4659.99949 1.38828e-17
4662.00389 1.39552e-17
4663.99827 1.23966e-17
4666.00267 1.32913e-17
4667.99705 1.26904e-17
4670.00145 1.25094e-17
4671.99583 1.40474e-17
4674.00023 1.45703e-17
4676.00463 1.43509e-17
4677.99901 1.44990e-17
4680.00341 1.46243e-17
4681.99778 1.46501e-17
4684.00218 1.31084e-17
4685.99656 1.29704e-17
4688.00096 1.38345e-17
4689.99534 1.31911e-17
4691.99974 1.37661e-17
4694.00414 1.33402e-17
4695.99852 1.29809e-17
4698.00292 1.27234e-17
4699.99730 1.22045e-17
4702.00170 1.20217e-17
4703.99607 1.23615e-17
4706.00047 1.26545e-17
4708.00487 1.30541e-17
4709.99925 1.34722e-17
4712.00365 1.29992e-17
4713.99803 1.22818e-17
4716.00243 1.25098e-17
4717.99681 1.32066e-17
4720.00121 1.25894e-17
4721.99559 1.20941e-17
4723.99999 1.28428e-17
4726.00439 1.25515e-17
4727.99876 1.24889e-17
4730.00316 1.15350e-17
4731.99754 1.14808e-17
4734.00194 1.14144e-17
4735.99632 1.10131e-17
4738.00072 1.17816e-17
4739.99510 1.03205e-17
4741.99950 1.20616e-17
4744.00390 1.20695e-17
4745.99828 1.11965e-17
4748.00268 1.21886e-17
4749.99705 1.17849e-17
4752.00145 1.14230e-17
4753.99583 1.24461e-17
4756.00023 1.22230e-17
4758.00463 1.24360e-17
4759.99901 1.34218e-17
4762.00341 1.37101e-17
4763.99779 1.21869e-17
4766.00219 1.14736e-17
4767.99657 1.16817e-17
4770.00097 1.16505e-17
4771.99534 1.21172e-17
4773.99974 1.21049e-17
4776.00414 1.22644e-17
4777.99852 1.19658e-17
4780.00292 1.21466e-17
4781.99730 1.24804e-17
4784.00170 1.15960e-17
4785.99608 1.13893e-17
4788.00048 1.16956e-17
4789.99486 1.28593e-17
4791.99926 1.25185e-17
4794.00366 1.15212e-17
4795.99803 1.22464e-17
4798.00243 1.18803e-17
4799.99681 1.16777e-17
4802.00121 1.06318e-17
4803.99559 1.14073e-17
4805.99999 1.20503e-17
4808.00439 1.13167e-17
4809.99877 1.17453e-17
4812.00317 1.24973e-17
4813.99755 1.24500e-17
4816.00195 1.30012e-17
4817.99632 1.21272e-17
4820.00072 1.11266e-17
4822.00512 1.18544e-17
4823.99950 1.18637e-17
4826.00390 1.18168e-17
4827.99828 1.25272e-17
4830.00268 1.27558e-17
4831.99706 1.22153e-17
4834.00146 1.19626e-17
4835.99584 1.22529e-17
4838.00024 1.26076e-17
4840.00464 1.31483e-17
4841.99901 1.34311e-17
4844.00341 1.30234e-17
4845.99779 1.27727e-17
4848.00219 1.28191e-17
4849.99657 1.28056e-17
4852.00097 1.26892e-17
4853.99535 1.39852e-17
4855.99975 1.24062e-17
4858.00415 1.26976e-17
4859.99853 1.27314e-17
4862.00293 1.33858e-17
4863.99730 1.31189e-17
4866.00170 1.31633e-17
4867.99608 1.29455e-17
4870.00048 1.26942e-17
4872.00488 1.34867e-17
4873.99926 1.31798e-17
4876.00366 1.26048e-17
4877.99804 1.26316e-17
4880.00244 1.34119e-17
4881.99682 1.34546e-17
4884.00122 1.24959e-17
4885.99559 1.27486e-17
4887.99999 1.31041e-17
4890.00439 1.32802e-17
4891.99877 1.26516e-17
4894.00317 1.26761e-17
4895.99755 1.33695e-17
4898.00195 1.29044e-17
4899.99633 1.25478e-17
4902.00073 1.30054e-17
4903.99511 1.22580e-17
4905.99951 1.13498e-17
4908.00391 1.14361e-17
4909.99828 1.21203e-17
4912.00268 1.26590e-17
4913.99706 1.20954e-17
4916.00146 1.25513e-17
4917.99584 1.22523e-17
4920.00024 1.13912e-17
4922.00464 1.21480e-17
4923.99902 1.27277e-17
4926.00342 1.27032e-17
4927.99780 1.22948e-17
4930.00220 1.17920e-17
4931.99657 1.17384e-17
4934.00097 1.19473e-17
4935.99535 1.06717e-17
4937.99975 1.01271e-17
4940.00415 1.10836e-17
4941.99853 1.24333e-17
4944.00293 1.19847e-17
4945.99731 1.13006e-17
4948.00171 1.16048e-17
4949.99609 1.18003e-17
4952.00049 1.19462e-17
4953.99486 1.22938e-17
4955.99926 1.21061e-17
4958.00366 1.16375e-17
4959.99804 1.12930e-17
4962.00244 1.15539e-17
4963.99682 1.18816e-17
4966.00122 1.16182e-17
4967.99560 1.18974e-17
4970.00000 1.15803e-17
4972.00440 1.14900e-17
4973.99878 1.11904e-17
4976.00318 1.07410e-17
4977.99755 1.03323e-17
4980.00195 1.12606e-17
4981.99633 1.20157e-17
4984.00073 1.17298e-17
4985.99511 1.14440e-17
4987.99951 1.11582e-17
4990.00391 1.08725e-17
4991.99829 1.05869e-17
4994.00269 1.03013e-17
4995.99707 1.03000e-17
4998.00147 1.09976e-17
4999.99584 1.05208e-17
5002.00024 1.06128e-17
5004.00464 1.14042e-17
5005.99902 1.09307e-17
5008.00342 1.04807e-17
5009.99780 1.07896e-17
5012.00220 1.07586e-17
5013.99658 1.03659e-17
5016.00098 1.09625e-17
5017.99536 1.15123e-17
5019.99976 1.13265e-17
5022.00416 1.12551e-17
5023.99853 1.05178e-17
5026.00293 1.01400e-17
5027.99731 9.87686e-18
5030.00171 1.11347e-17
5031.99609 1.15840e-17
5034.00049 1.12128e-17
5036.00489 1.08950e-17
5037.99927 1.04174e-17
5040.00367 1.00975e-17
5041.99805 1.02659e-17
5044.00245 1.08875e-17
5045.99682 1.13027e-17
5048.00122 1.13177e-17
5049.99560 1.07258e-17
5052.00000 1.06948e-17
5054.00440 1.07610e-17
5055.99878 1.02982e-17
5058.00318 1.02613e-17
5059.99756 1.04283e-17
5062.00196 9.63839e-18
5063.99634 1.02872e-17
5066.00074 1.07180e-17
5068.00514 1.13430e-17
5069.99951 1.22523e-17
5072.00391 1.19137e-17
5073.99829 1.21472e-17
5076.00269 1.33556e-17
5077.99707 1.02870e-17
5080.00147 1.07614e-17
5081.99585 1.24953e-17
5084.00025 1.16839e-17
5086.00465 1.24505e-17
5087.99903 1.36221e-17
5090.00343 1.21310e-17
5091.99780 1.07850e-17
5094.00220 1.13405e-17
5095.99658 1.14438e-17
5098.00098 1.21725e-17
5099.99536 1.26444e-17
5101.99976 1.21595e-17
5104.00416 1.42456e-17
5105.99854 1.46048e-17
5108.00294 1.38069e-17
5109.99732 1.32373e-17
5112.00172 1.31882e-17
5113.99609 1.25865e-17
5116.00049 1.27518e-17
5118.00489 1.37293e-17
5119.99927 1.37486e-17
5122.00367 1.30642e-17
5123.99805 1.27461e-17
5126.00245 1.27456e-17
5127.99683 1.32464e-17
5130.00123 1.38806e-17
5131.99561 1.35534e-17
5134.00001 1.37339e-17
5136.00441 1.36213e-17
5137.99878 1.31414e-17
5140.00318 1.36000e-17
5141.99756 1.44241e-17
5144.00196 1.41207e-17
5145.99634 1.41302e-17
5148.00074 1.41960e-17
5149.99512 1.42618e-17
5151.99952 1.43276e-17
5154.00392 1.43934e-17
5155.99830 1.43917e-17
5158.00270 1.52034e-17
5159.99707 1.57449e-17
5162.00147 1.48341e-17
5163.99585 1.48232e-17
5166.00025 1.49313e-17
5168.00465 1.49592e-17
5169.99903 1.46024e-17
5172.00343 1.42069e-17
5173.99781 1.46617e-17
5176.00221 1.54039e-17
5177.99659 1.51208e-17
5180.00099 1.45089e-17
5181.99536 1.53496e-17
5183.99976 1.56649e-17
5186.00416 1.51532e-17
5187.99854 1.48128e-17
5190.00294 1.50428e-17
5191.99732 1.47320e-17
5194.00172 1.49424e-17
5195.99610 1.53706e-17
5198.00050 1.54700e-17
5199.99488 1.58528e-17
5201.99928 1.63418e-17
5204.00368 1.63645e-17
5205.99805 1.52037e-17
5208.00245 1.53920e-17
5209.99683 1.58598e-17
5212.00123 1.55554e-17
5213.99561 1.53307e-17
5216.00001 1.53393e-17
5218.00441 1.54071e-17
5219.99879 1.55844e-17
5222.00319 1.55145e-17
5223.99757 1.61164e-17
5226.00197 1.64488e-17
5227.99634 1.65076e-17
5230.00074 1.58420e-17
5231.99512 1.66232e-17
5233.99952 1.71664e-17
5236.00392 1.67998e-17
5237.99830 1.62052e-17
5240.00270 1.62472e-17
5241.99708 1.60575e-17
5244.00148 1.65878e-17
5245.99586 1.71168e-17
5248.00026 1.68741e-17
5250.00466 1.71753e-17
5251.99903 1.67612e-17
5254.00343 1.59695e-17
5255.99781 1.56707e-17
5258.00221 1.72687e-17
5259.99659 1.74117e-17
5262.00099 1.78260e-17
5263.99537 1.81157e-17
5265.99977 1.75683e-17
5268.00417 1.80428e-17
5269.99855 1.77987e-17
5272.00295 1.69982e-17
5273.99732 1.69234e-17
5276.00172 1.72182e-17
5277.99610 1.72756e-17
5280.00050 1.71767e-17
5282.00490 1.73120e-17
5283.99928 1.72009e-17
5286.00368 1.73818e-17
5287.99806 1.72122e-17
5290.00246 1.70646e-17
5291.99684 1.78764e-17
5294.00124 1.84210e-17
5295.99561 1.80814e-17
5298.00001 1.77664e-17
5300.00441 1.76947e-17
5301.99879 1.69798e-17
5304.00319 1.73040e-17
5305.99757 1.78050e-17
5308.00197 1.83122e-17
5309.99635 1.85718e-17
5312.00075 1.87992e-17
5313.99513 1.88670e-17
5315.99953 1.91185e-17
5318.00393 1.86824e-17
5319.99830 1.83195e-17
5322.00270 1.84533e-17
5323.99708 1.85560e-17
5326.00148 1.87233e-17
5327.99586 1.87766e-17
5330.00026 1.89940e-17
5332.00466 1.86927e-17
5333.99904 1.84635e-17
5336.00344 1.87145e-17
5337.99782 1.83477e-17
5340.00222 1.80118e-17
5341.99659 1.83024e-17
5344.00099 1.72973e-17
5345.99537 1.66948e-17
5347.99977 1.77203e-17
5350.00417 1.81280e-17
5351.99855 1.79249e-17
5354.00295 1.83031e-17
5355.99733 1.83862e-17
5358.00173 1.87037e-17
5359.99611 1.85526e-17
5362.00051 1.82713e-17
5364.00491 1.76851e-17
5365.99928 1.78062e-17
5368.00368 1.74645e-17
5369.99806 1.76916e-17
5372.00246 1.84580e-17
5373.99684 1.85592e-17
5376.00124 1.86047e-17
5377.99562 1.87408e-17
5380.00002 1.88148e-17
5382.00442 1.88208e-17
5383.99880 1.86922e-17
5386.00320 1.81554e-17
5387.99757 1.81856e-17
5390.00197 1.86850e-17
5391.99635 1.92807e-17
5394.00075 2.00429e-17
5395.99513 2.08113e-17
5397.99953 2.06065e-17
5400.00393 1.91974e-17
5401.99831 1.87663e-17
5404.00271 1.89360e-17
5405.99709 1.89255e-17
5408.00149 1.84804e-17
5409.99586 1.80088e-17
5412.00026 1.81229e-17
5414.00466 1.88510e-17
5415.99904 1.87663e-17
5418.00344 1.79755e-17
5419.99782 1.75034e-17
5422.00222 1.72246e-17
5423.99660 1.72253e-17
5426.00100 1.78156e-17
5427.99538 1.89905e-17
5429.99978 1.93525e-17
5432.00418 1.90607e-17
5433.99855 1.90752e-17
5436.00295 1.94428e-17
5437.99733 1.96227e-17
5440.00173 1.92051e-17
5441.99611 1.84285e-17
5444.00051 1.81888e-17
5445.99489 1.84601e-17
5447.99929 1.82837e-17
5450.00369 1.80743e-17
5451.99807 1.83949e-17
5454.00247 1.87155e-17
5455.99684 1.90359e-17
5458.00124 1.93564e-17
5459.99562 1.96767e-17
5462.00002 1.99970e-17
5464.00442 2.03173e-17
5465.99880 2.06375e-17
5468.00320 2.09576e-17
5469.99758 2.09555e-17
5472.00198 2.07143e-17
5473.99636 2.12421e-17
5476.00076 2.11372e-17
5477.99513 2.05433e-17
5479.99953 2.03769e-17
5482.00393 2.07985e-17
5483.99831 2.12298e-17
5486.00271 2.11947e-17
5487.99709 2.09032e-17
5490.00149 2.05397e-17
5491.99587 1.98507e-17
5494.00027 1.94506e-17
5496.00467 1.91817e-17
5497.99905 1.91288e-17
5500.00345 1.94413e-17
5501.99782 2.00049e-17
5504.00222 2.02147e-17
5505.99660 2.02147e-17
5508.00100 2.02447e-17
5509.99538 2.00541e-17
5511.99978 2.01420e-17
5514.00418 2.09237e-17
5515.99856 2.18427e-17
5518.00296 2.15925e-17
5519.99734 2.03127e-17
5522.00174 1.95246e-17
5523.99611 1.84973e-17
5526.00051 1.80036e-17
5528.00491 1.83403e-17
5529.99929 1.88886e-17
5532.00369 1.88730e-17
5533.99807 1.85586e-17
5536.00247 1.83635e-17
5537.99685 1.80951e-17
5540.00125 1.79331e-17
5541.99563 1.79839e-17
5544.00003 1.79490e-17
5546.00443 1.75536e-17
5547.99880 1.69116e-17
5550.00320 1.64426e-17
5551.99758 1.57870e-17
5554.00198 1.56475e-17
5555.99636 1.61528e-17
5558.00076 1.65790e-17
5559.99514 1.66202e-17
5561.99954 1.64652e-17
5564.00394 1.61547e-17
5565.99832 1.54051e-17
5568.00272 1.51275e-17
5569.99709 1.51591e-17
5572.00149 1.52064e-17
5573.99587 1.52192e-17
5576.00027 1.52431e-17
5578.00467 1.52657e-17
5579.99905 1.52833e-17
5582.00345 1.53340e-17
5583.99783 1.54183e-17
5586.00223 1.55000e-17
5587.99661 1.56242e-17
5590.00101 1.57012e-17
5591.99538 1.55915e-17
5593.99978 1.53150e-17
5596.00418 1.51854e-17
5597.99856 1.51167e-17
5600.00296 1.50596e-17
5601.99734 1.50229e-17
5604.00174 1.50034e-17
5605.99612 1.50052e-17
5608.00052 1.50279e-17
5610.00492 1.50007e-17
5611.99930 1.49801e-17
5614.00370 1.48609e-17
5615.99807 1.46128e-17
5618.00247 1.43799e-17
5619.99685 1.42080e-17
5622.00125 1.40704e-17
5623.99563 1.39996e-17
5626.00003 1.40742e-17
5628.00443 1.39699e-17
5629.99881 1.38844e-17
5632.00321 1.35343e-17
5633.99759 1.25881e-17
5636.00199 1.16035e-17
5637.99636 1.16751e-17
5640.00076 1.26775e-17
5641.99514 1.30569e-17
5643.99954 1.32289e-17
5646.00394 1.34019e-17
5647.99832 1.36373e-17
5650.00272 1.37718e-17
5651.99710 1.36551e-17
5654.00150 1.33628e-17
5655.99588 1.28194e-17
5658.00028 1.16232e-17
5660.00468 1.11181e-17
5661.99905 1.14623e-17
5664.00345 1.17098e-17
5665.99783 1.11710e-17
5668.00223 1.02191e-17
5669.99661 1.00056e-17
5672.00101 1.06017e-17
5673.99539 1.04439e-17
5675.99979 1.01164e-17
5678.00419 9.13052e-18
5679.99857 9.20410e-18
5682.00297 9.27766e-18
5683.99734 9.35121e-18
5686.00174 9.42475e-18
5687.99612 9.49828e-18
5690.00052 9.49745e-18
5691.99490 1.14758e-17
5693.99930 1.12437e-17
5696.00370 1.03339e-17
5697.99808 1.07681e-17
5700.00248 1.21659e-17
5701.99686 1.20674e-17
5704.00126 1.03465e-17
5705.99563 9.73570e-18
5708.00003 1.05796e-17
5710.00443 1.15323e-17
5711.99881 1.14456e-17
5714.00321 1.07780e-17
5715.99759 1.04012e-17
5718.00199 9.83382e-18
5719.99637 9.68367e-18
5722.00077 1.00772e-17
5723.99515 1.04100e-17
5725.99955 1.02843e-17
5728.00395 9.94329e-18
5729.99832 1.00011e-17
5732.00272 1.02799e-17
5733.99710 1.06472e-17
5736.00150 1.13685e-17
5737.99588 1.18245e-17
5740.00028 1.17774e-17
5742.00468 1.14713e-17
5743.99906 1.12636e-17
5746.00346 1.09853e-17
5747.99784 1.07694e-17
5750.00224 1.04113e-17
5751.99661 1.03857e-17
5754.00101 1.08644e-17
5755.99539 1.15053e-17
5757.99979 1.18872e-17
5760.00419 1.22009e-17
5761.99857 1.23576e-17
5764.00297 1.24030e-17
5765.99735 1.22842e-17
5768.00175 1.19627e-17
5769.99613 1.15406e-17
5772.00053 1.10018e-17
5774.00493 1.02992e-17
5775.99930 1.03762e-17
5778.00370 1.16965e-17
5779.99808 1.17408e-17
5782.00248 1.03670e-17
5783.99686 9.28931e-18
5786.00126 9.37878e-18
5787.99564 1.00703e-17
5790.00004 1.05755e-17
5792.00444 1.13698e-17
5793.99882 1.18052e-17
5796.00322 1.20651e-17
5797.99759 1.21594e-17
5800.00199 1.19689e-17
5801.99637 1.16857e-17
5804.00077 1.18300e-17
5805.99515 1.24780e-17
5807.99955 1.24092e-17
5810.00395 1.16286e-17
5811.99833 1.12222e-17
5814.00273 1.12050e-17
5815.99711 1.14666e-17
5818.00151 1.21134e-17
5819.99588 1.32784e-17
5822.00028 1.36814e-17
5824.00468 1.34860e-17
5825.99906 1.34680e-17
5828.00346 1.34237e-17
5829.99784 1.35700e-17
5832.00224 1.42477e-17
5833.99662 1.53261e-17
5836.00102 1.55925e-17
5837.99540 1.52304e-17
5839.99980 1.49932e-17
5842.00420 1.45347e-17
5843.99857 1.42998e-17
5846.00297 1.46026e-17
5847.99735 1.51765e-17
5850.00175 1.52930e-17
5851.99613 1.51626e-17
5854.00053 1.49798e-17
5856.00493 1.44597e-17
5857.99931 1.42357e-17
5860.00371 1.45652e-17
5861.99809 1.50726e-17
5864.00249 1.51313e-17
5865.99686 1.47411e-17
5868.00126 1.50887e-17
5869.99564 1.64339e-17
5872.00004 1.69092e-17
5874.00444 1.67086e-17
5875.99882 1.68951e-17
5878.00322 1.70817e-17
5879.99760 1.72683e-17
5882.00200 1.74548e-17
5883.99638 1.76413e-17
5886.00078 1.78278e-17
5887.99515 1.80142e-17
5889.99955 1.82006e-17
5892.00395 1.83870e-17
5893.99833 1.85734e-17
5896.00273 1.87597e-17
5897.99711 1.89460e-17
5900.00151 1.91323e-17
5901.99589 1.93186e-17
5904.00029 1.93171e-17
5906.00469 1.88075e-17
5907.99907 1.67325e-17
5910.00347 1.62238e-17
5911.99784 1.61122e-17
5914.00224 1.64189e-17
5915.99662 1.75380e-17
5918.00102 1.83352e-17
5919.99540 1.86763e-17
5921.99980 1.87408e-17
5924.00420 1.85534e-17
5925.99858 1.81199e-17
5928.00298 1.73582e-17
5929.99736 1.56251e-17
5932.00176 1.49334e-17
5933.99613 1.54677e-17
5936.00053 1.64456e-17
5937.99491 1.73743e-17
5939.99931 1.86002e-17
5942.00371 1.88225e-17
5943.99809 1.81721e-17
5946.00249 1.76005e-17
5947.99687 1.67856e-17
5950.00127 1.60865e-17
5951.99565 1.57901e-17
5954.00005 1.57305e-17
5956.00445 1.54978e-17
5957.99882 1.49981e-17
5960.00322 1.50233e-17
5961.99760 1.55495e-17
5964.00200 1.60774e-17
5965.99638 1.65108e-17
5968.00078 1.68963e-17
5970.00518 1.70594e-17
5971.99956 1.70286e-17
5974.00396 1.69520e-17
5975.99834 1.65506e-17
5978.00274 1.64971e-17
5979.99711 1.70958e-17
5982.00151 1.77709e-17
5983.99589 1.76978e-17
5986.00029 1.70809e-17
5988.00469 1.67300e-17
5989.99907 1.62605e-17
5992.00347 1.60596e-17
5993.99785 1.61272e-17
5996.00225 1.63669e-17
5997.99663 1.68396e-17
6000.00103 1.75988e-17
6001.99540 1.74536e-17
6003.99980 1.63196e-17
6006.00420 1.57498e-17
6007.99858 1.54385e-17
6010.00298 1.53565e-17
6011.99736 1.56840e-17
6014.00176 1.62636e-17
6015.99614 1.60599e-17
6018.00054 1.49035e-17
6020.00494 1.46060e-17
6021.99932 1.47708e-17
6024.00372 1.50879e-17
6025.99809 1.56123e-17
6028.00249 1.62114e-17
6029.99687 1.63815e-17
6032.00127 1.63352e-17
6033.99565 1.59945e-17
6036.00005 1.51007e-17
6038.00445 1.44773e-17
6039.99883 1.41801e-17
6042.00323 1.40572e-17
6043.99761 1.40581e-17
6046.00201 1.42592e-17
6047.99638 1.42921e-17
6050.00078 1.42868e-17
6051.99516 1.42082e-17
6053.99956 1.40260e-17
6056.00396 1.38213e-17
6057.99834 1.36184e-17
6060.00274 1.33909e-17
6061.99712 1.34757e-17
6064.00152 1.37962e-17
6065.99590 1.42295e-17
6068.00030 1.49460e-17
6070.00470 1.55790e-17
6071.99907 1.60716e-17
6074.00347 1.64136e-17
6075.99785 1.60450e-17
6078.00225 1.47059e-17
6079.99663 1.39792e-17
6082.00103 1.32110e-17
6083.99541 1.29168e-17
6085.99981 1.33810e-17
6088.00421 1.41922e-17
6089.99859 1.46225e-17
6092.00299 1.50378e-17
6093.99736 1.50712e-17
6096.00176 1.44804e-17
6097.99614 1.43163e-17
6100.00054 1.47517e-17
6101.99492 1.53179e-17
6103.99932 1.55292e-17
6106.00372 1.55110e-17
6107.99810 1.59466e-17
6110.00250 1.71448e-17
6111.99688 1.74482e-17
6114.00128 1.66311e-17
6115.99565 1.58384e-17
6118.00005 1.59541e-17
6120.00445 1.65505e-17
6121.99883 1.62684e-17
6124.00323 1.49798e-17
6125.99761 1.46396e-17
6128.00201 1.51037e-17
6129.99639 1.55180e-17
6132.00079 1.55122e-17
6133.99517 1.53787e-17
6135.99957 1.55607e-17
6138.00397 1.60800e-17
6139.99834 1.62675e-17
6142.00274 1.61939e-17
6143.99712 1.62224e-17
6146.00152 1.65359e-17
6147.99590 1.68388e-17
6150.00030 1.66211e-17
6152.00470 1.59037e-17
6153.99908 1.56135e-17
6156.00348 1.52791e-17
6157.99786 1.54431e-17
6160.00226 1.64560e-17
6161.99663 1.74775e-17
6164.00103 1.75326e-17
6165.99541 1.69035e-17
6167.99981 1.70974e-17
6170.00421 1.81277e-17
6171.99859 1.83846e-17
6174.00299 1.77067e-17
6175.99737 1.71750e-17
6178.00177 1.75459e-17
6179.99615 1.84033e-17
6182.00055 1.85828e-17
6183.99492 1.82654e-17
6185.99932 1.81998e-17
6188.00372 1.81029e-17
6189.99810 1.82129e-17
6192.00250 1.87007e-17
6193.99688 1.93798e-17
6196.00128 1.97964e-17
6197.99566 2.02350e-17
6200.00006 2.02572e-17
6202.00446 1.96085e-17
6203.99884 1.93933e-17
6206.00324 2.00198e-17
6207.99761 2.07571e-17
6210.00201 2.05302e-17
6211.99639 1.94530e-17
6214.00079 1.93583e-17
6215.99517 2.00495e-17
6217.99957 2.03646e-17
6220.00397 2.03429e-17
6221.99835 2.01565e-17
6224.00275 1.97550e-17
6225.99713 1.90615e-17
6228.00153 1.93328e-17
6229.99590 2.08258e-17
6232.00030 2.13817e-17
6234.00470 2.11701e-17
6235.99908 2.08216e-17
6238.00348 2.05568e-17
6239.99786 2.02669e-17
6242.00226 2.03288e-17
6243.99664 2.10332e-17
6246.00104 2.09603e-17
6247.99542 2.00197e-17
6249.99982 1.95121e-17
6252.00422 2.00017e-17
6253.99859 2.08612e-17
6256.00299 2.09822e-17
6257.99737 2.05634e-17
6260.00177 2.05296e-17
6261.99615 2.07349e-17
6264.00055 2.07847e-17
6266.00495 2.05706e-17
6267.99933 2.03145e-17
6270.00373 2.02871e-17
6271.99811 2.04147e-17
6274.00251 2.04422e-17
6275.99688 2.05486e-17
6278.00128 2.04357e-17
6279.99566 1.99515e-17
6282.00006 1.95269e-17
6284.00446 1.95936e-17
6285.99884 1.99915e-17
6288.00324 1.98441e-17
6289.99762 1.91432e-17
6292.00202 1.88720e-17
6293.99640 1.89769e-17
6296.00080 1.90574e-17
6297.99517 1.88478e-17
6299.99957 1.85483e-17
6302.00397 1.87684e-17
6303.99835 1.96827e-17
6306.00275 1.99590e-17
6307.99713 1.98482e-17
6310.00153 1.97259e-17
6311.99591 1.96602e-17
6314.00031 1.95922e-17
6316.00471 1.95427e-17
6317.99909 1.95259e-17
6320.00349 1.94430e-17
6321.99786 1.91519e-17
6324.00226 1.91588e-17
6325.99664 1.96961e-17
6328.00104 2.02495e-17
6329.99542 2.01655e-17
6331.99982 1.96068e-17
6334.00422 1.94497e-17
6335.99860 1.95079e-17
6338.00300 1.94789e-17
6339.99738 1.93958e-17
6342.00178 1.92849e-17
6343.99615 1.91294e-17
6346.00055 1.89324e-17
6347.99493 1.88787e-17
6349.99933 1.89462e-17
6352.00373 1.90001e-17
6353.99811 1.92200e-17
6356.00251 1.92223e-17
6357.99689 1.87353e-17
6360.00129 1.79983e-17
6361.99567 1.76857e-17
6364.00007 1.75990e-17
6366.00447 1.75676e-17
6367.99884 1.77594e-17
6370.00324 1.78470e-17
6371.99762 1.76768e-17
6374.00202 1.74824e-17
6375.99640 1.76641e-17
6378.00080 1.81766e-17
6379.99518 1.84684e-17
6381.99958 1.87512e-17
6384.00398 1.89066e-17
6385.99836 1.88743e-17
6388.00276 1.87982e-17
6389.99713 1.88560e-17
6392.00153 1.90090e-17
6393.99591 1.89038e-17
6396.00031 1.85105e-17
6398.00471 1.82866e-17
6399.99909 1.82066e-17
6402.00349 1.81479e-17
6403.99787 1.80496e-17
6406.00227 1.79437e-17
6407.99665 1.78242e-17
6410.00105 1.75638e-17
6411.99542 1.75890e-17
6413.99982 1.79028e-17
6416.00422 1.82150e-17
6417.99860 1.84735e-17
6420.00300 1.86905e-17
6421.99738 1.86727e-17
6424.00178 1.83942e-17
6425.99616 1.82210e-17
6428.00056 1.79396e-17
6429.99494 1.78438e-17
6431.99934 1.80624e-17
6434.00374 1.83747e-17
6435.99811 1.84524e-17
6438.00251 1.84030e-17
6439.99689 1.83655e-17
6442.00129 1.82446e-17
6443.99567 1.81951e-17
6446.00007 1.82879e-17
6448.00447 1.83370e-17
6449.99885 1.81222e-17
6452.00325 1.76963e-17
6453.99763 1.75940e-17
6456.00203 1.76964e-17
6457.99640 1.78176e-17
6460.00080 1.80642e-17
6461.99518 1.82594e-17
6463.99958 1.83046e-17
6466.00398 1.82532e-17
6467.99836 1.80780e-17
6470.00276 1.75602e-17
6471.99714 1.74604e-17
6474.00154 1.77553e-17
6475.99592 1.79604e-17
6478.00032 1.79181e-17
6480.00472 1.77701e-17
6481.99909 1.76543e-17
6484.00349 1.74746e-17
6485.99787 1.74056e-17
6488.00227 1.75125e-17
6489.99665 1.74553e-17
6492.00105 1.71333e-17
6493.99543 1.67404e-17
6495.99983 1.65071e-17
6498.00423 1.63260e-17
6499.99861 1.62664e-17
6502.00301 1.62660e-17
6503.99738 1.64474e-17
6506.00178 1.69407e-17
6507.99616 1.74213e-17
6510.00056 1.76334e-17
6512.00496 1.77112e-17
6513.99934 1.74563e-17
6516.00374 1.65192e-17
6517.99812 1.62367e-17
6520.00252 1.66048e-17
6521.99690 1.69369e-17
6524.00130 1.69231e-17
6525.99567 1.67459e-17
6528.00007 1.64533e-17
6530.00447 1.56808e-17
6531.99885 1.55974e-17
6534.00325 1.61492e-17
6535.99763 1.65761e-17
6538.00203 1.66936e-17
6539.99641 1.66759e-17
6542.00081 1.66027e-17
6543.99519 1.63377e-17
6545.99959 1.63330e-17
6548.00399 1.65452e-17
6549.99836 1.66965e-17
6552.00276 1.68240e-17
6553.99714 1.68699e-17
6556.00154 1.66588e-17
6557.99592 1.61536e-17
6560.00032 1.61242e-17
6562.00472 1.65596e-17
6563.99910 1.67274e-17
6566.00350 1.66325e-17
6567.99788 1.64957e-17
6570.00228 1.64583e-17
6571.99665 1.64545e-17
6574.00105 1.63903e-17
6575.99543 1.62482e-17
6577.99983 1.61894e-17
6580.00423 1.62326e-17
6581.99861 1.62364e-17
6584.00301 1.61166e-17
6585.99739 1.59391e-17
6588.00179 1.58653e-17
6589.99617 1.58217e-17
6592.00057 1.58592e-17
6593.99494 1.60402e-17
6595.99934 1.61493e-17
6598.00374 1.61520e-17
6599.99812 1.60816e-17
6602.00252 1.59196e-17
6603.99690 1.55963e-17
6606.00130 1.54694e-17
6607.99568 1.54437e-17
6610.00008 1.54723e-17
6612.00448 1.55687e-17
6613.99886 1.57102e-17
6616.00326 1.58956e-17
6617.99763 1.61780e-17
6620.00203 1.61308e-17
6621.99641 1.58015e-17
6624.00081 1.54762e-17
6625.99519 1.49566e-17
6627.99959 1.46069e-17
6630.00399 1.47845e-17
6631.99837 1.53161e-17
6634.00277 1.54014e-17
6635.99715 1.52576e-17
6638.00155 1.50786e-17
6639.99592 1.47227e-17
6642.00032 1.44372e-17
6644.00472 1.43210e-17
6645.99910 1.43014e-17
6648.00350 1.43197e-17
6649.99788 1.44289e-17
6652.00228 1.45149e-17
6653.99666 1.46606e-17
6656.00106 1.47282e-17
6657.99544 1.46416e-17
6659.99984 1.45268e-17
6662.00424 1.46167e-17
6663.99861 1.49560e-17
6666.00301 1.48373e-17
6667.99739 1.42007e-17
6670.00179 1.38907e-17
6671.99617 1.39817e-17
6674.00057 1.41678e-17
6676.00497 1.42118e-17
6677.99935 1.42219e-17
6680.00375 1.41887e-17
6681.99813 1.40823e-17
6684.00253 1.40069e-17
6685.99690 1.39224e-17
6688.00130 1.38811e-17
6689.99568 1.39528e-17
6692.00008 1.40961e-17
6694.00448 1.40522e-17
6695.99886 1.38766e-17
6698.00326 1.36863e-17
6699.99764 1.33349e-17
6702.00204 1.31311e-17
6703.99642 1.32809e-17
6706.00082 1.35567e-17
6707.99519 1.33984e-17
6709.99959 1.27829e-17
6712.00399 1.26162e-17
6713.99837 1.27409e-17
6716.00277 1.28243e-17
6717.99715 1.28532e-17
6720.00155 1.28460e-17
6721.99593 1.27371e-17
6724.00033 1.24873e-17
6726.00473 1.24734e-17
6727.99911 1.26631e-17
6730.00351 1.27916e-17
6731.99788 1.29170e-17
6734.00228 1.29717e-17
6735.99666 1.28347e-17
6738.00106 1.25326e-17
6739.99544 1.24587e-17
6741.99984 1.25467e-17
6744.00424 1.25877e-17
6745.99862 1.26518e-17
6748.00302 1.26680e-17
6749.99740 1.25998e-17
6752.00180 1.24669e-17
6753.99617 1.22435e-17
6756.00057 1.17179e-17
6758.00497 1.16303e-17
6759.99935 1.19519e-17
6762.00375 1.22043e-17
6763.99813 1.22368e-17
6766.00253 1.21997e-17
6767.99691 1.22713e-17
6770.00131 1.24941e-17
6771.99569 1.24076e-17
6774.00009 1.20221e-17
6776.00449 1.17161e-17
6777.99886 1.14504e-17
6780.00326 1.12890e-17
6781.99764 1.14422e-17
6784.00204 1.19442e-17
6785.99642 1.20016e-17
6788.00082 1.16709e-17
6789.99520 1.15603e-17
6791.99960 1.16923e-17
6794.00400 1.18379e-17
6795.99838 1.18277e-17
6798.00278 1.17343e-17
6799.99715 1.17394e-17
6802.00155 1.18457e-17
6803.99593 1.18455e-17
6806.00033 1.16976e-17
6808.00473 1.16224e-17
6809.99911 1.17739e-17
6812.00351 1.20333e-17
6813.99789 1.20419e-17
6816.00229 1.18390e-17
6817.99667 1.17303e-17
6820.00107 1.16220e-17
6821.99544 1.15257e-17
6823.99984 1.14496e-17
6826.00424 1.13819e-17
6827.99862 1.13002e-17
6830.00302 1.12158e-17
6831.99740 1.11175e-17
6834.00180 1.09162e-17
6835.99618 1.08844e-17
6838.00058 1.11353e-17
6839.99496 1.14128e-17
6841.99936 1.14098e-17
6844.00376 1.12224e-17
6845.99813 1.12516e-17
6848.00253 1.12807e-17
6849.99691 1.13099e-17
6852.00131 1.13390e-17
6853.99569 1.13682e-17
6856.00009 1.13973e-17
6858.00449 1.14265e-17
6859.99887 1.14556e-17
6862.00327 1.14847e-17
6863.99765 1.15138e-17
6866.00205 1.15430e-17
6867.99642 1.15721e-17
6870.00082 1.16012e-17
6871.99520 1.16303e-17
6873.99960 1.16594e-17
6876.00400 1.16885e-17
6877.99838 1.17176e-17
6880.00278 1.17467e-17
6881.99716 1.17758e-17
6884.00156 1.18049e-17
6885.99594 1.18340e-17
6888.00034 1.18631e-17
6890.00474 1.18922e-17
6891.99911 1.19213e-17
6894.00351 1.19503e-17
6895.99789 1.19794e-17
6898.00229 1.20085e-17
6899.99667 1.20376e-17
6902.00107 1.20666e-17
6903.99545 1.20957e-17
6905.99985 1.21247e-17
6908.00425 1.21538e-17
6909.99863 1.21828e-17
6912.00303 1.22119e-17
6913.99740 1.22409e-17
6916.00180 1.22700e-17
6917.99618 1.22990e-17
6920.00058 1.23280e-17
6922.00498 1.23570e-17
6923.99936 1.23861e-17
6926.00376 1.24151e-17
6927.99814 1.24441e-17
6930.00254 1.24731e-17
6931.99692 1.25021e-17
6934.00132 1.25312e-17
6935.99569 1.25602e-17
6938.00009 1.26156e-17
6940.00449 1.26632e-17
6941.99887 1.26826e-17
6944.00327 1.26614e-17
6945.99765 1.26214e-17
6948.00205 1.25937e-17
6949.99643 1.25594e-17
6952.00083 1.25533e-17
6953.99521 1.25498e-17
6955.99961 1.25933e-17
6958.00401 1.27070e-17
6959.99838 1.28305e-17
6962.00278 1.29155e-17
6963.99716 1.29906e-17
6966.00156 1.29806e-17
6967.99594 1.28730e-17
6970.00034 1.27870e-17
6972.00474 1.26581e-17
6973.99912 1.25894e-17
6976.00352 1.26845e-17
6977.99790 1.28765e-17
6980.00230 1.28614e-17
6981.99667 1.26452e-17
6984.00107 1.25664e-17
6985.99545 1.25487e-17
6987.99985 1.25514e-17
6990.00425 1.25725e-17
6991.99863 1.26086e-17
6994.00303 1.26297e-17
6995.99741 1.26892e-17
6998.00181 1.26177e-17
6999.99619 1.22826e-17
7002.00059 1.22149e-17
7003.99496 1.26168e-17
7005.99936 1.30925e-17
7008.00376 1.31052e-17
7009.99814 1.27844e-17
7012.00254 1.27083e-17
7013.99692 1.27041e-17
7016.00132 1.27357e-17
7017.99570 1.28609e-17
7020.00010 1.29582e-17
7022.00450 1.28883e-17
7023.99888 1.26979e-17
7026.00328 1.27050e-17
7027.99765 1.28953e-17
7030.00205 1.29704e-17
7031.99643 1.29326e-17
7034.00083 1.29339e-17
7035.99521 1.30878e-17
7037.99961 1.33101e-17
7040.00401 1.33067e-17
7041.99839 1.30845e-17
7044.00279 1.29760e-17
7045.99717 1.28786e-17
7048.00157 1.28126e-17
7049.99594 1.27774e-17
7052.00034 1.27773e-17
7054.00474 1.28393e-17
7055.99912 1.30029e-17
7058.00352 1.30521e-17
7059.99790 1.29925e-17
7062.00230 1.30020e-17
7063.99668 1.30941e-17
7066.00108 1.32299e-17
7067.99546 1.33860e-17
7069.99986 1.35757e-17
7072.00426 1.37759e-17
7073.99863 1.41217e-17
7076.00303 1.42187e-17
7077.99741 1.40313e-17
7080.00181 1.37711e-17
7081.99619 1.35516e-17
7084.00059 1.33088e-17
7085.99497 1.32642e-17
7087.99937 1.34561e-17
7090.00377 1.35140e-17
7091.99815 1.34801e-17
7094.00255 1.34640e-17
7095.99692 1.34987e-17
7098.00132 1.35669e-17
7099.99570 1.37036e-17
7102.00010 1.39672e-17
7104.00450 1.41113e-17
7105.99888 1.41898e-17
7108.00328 1.42561e-17
7109.99766 1.43435e-17
7112.00206 1.44013e-17
7113.99644 1.43360e-17
7116.00084 1.41735e-17
7117.99521 1.39661e-17
7119.99961 1.35434e-17
7122.00401 1.33625e-17
7123.99839 1.34965e-17
7126.00279 1.37360e-17
7127.99717 1.38875e-17
7130.00157 1.40321e-17
7131.99595 1.42047e-17
7134.00035 1.44414e-17
7136.00475 1.45938e-17
7137.99913 1.47154e-17
7140.00353 1.47357e-17
7141.99790 1.45312e-17
7144.00230 1.41609e-17
7145.99668 1.41795e-17
7148.00108 1.46504e-17
7149.99546 1.47342e-17
7151.99986 1.44282e-17
7154.00426 1.42820e-17
7155.99864 1.45274e-17
7158.00304 1.49760e-17
7159.99742 1.53654e-17
7162.00182 1.59306e-17
7163.99619 1.61652e-17
7166.00059 1.61707e-17
7168.00499 1.60890e-17
7169.99937 1.58557e-17
7172.00377 1.55952e-17
7173.99815 1.56049e-17
7176.00255 1.58618e-17
7177.99693 1.58622e-17
7180.00133 1.56835e-17
7181.99571 1.55680e-17
7184.00011 1.54797e-17
7186.00451 1.54527e-17
7187.99888 1.55996e-17
7190.00328 1.59284e-17
7191.99766 1.58271e-17
7194.00206 1.51785e-17
7195.99644 1.49944e-17
7198.00084 1.51946e-17
7199.99522 1.55244e-17
7201.99962 1.59358e-17
7204.00402 1.64454e-17
7205.99840 1.65665e-17
7208.00280 1.61996e-17
7209.99717 1.62425e-17
7212.00157 1.66306e-17
7213.99595 1.69049e-17
7216.00035 1.69001e-17
7218.00475 1.67654e-17
7219.99913 1.66807e-17
7222.00353 1.64959e-17
7223.99791 1.65334e-17
7226.00231 1.68862e-17
7227.99669 1.70075e-17
7230.00109 1.67596e-17
7231.99546 1.63965e-17
7233.99986 1.61864e-17
7236.00426 1.59340e-17
7237.99864 1.61276e-17
7240.00304 1.69398e-17
7241.99742 1.73743e-17
7244.00182 1.74171e-17
7245.99620 1.73389e-17
7248.00060 1.73008e-17
7249.99498 1.72193e-17
7251.99938 1.72038e-17
7254.00378 1.72427e-17
7255.99815 1.72557e-17
7258.00255 1.72408e-17
7259.99693 1.72435e-17
7262.00133 1.72902e-17
7263.99571 1.73640e-17
7266.00011 1.74301e-17
7268.00451 1.74784e-17
7269.99889 1.75845e-17
7272.00329 1.77963e-17
7273.99767 1.79259e-17
7276.00207 1.79008e-17
7277.99644 1.78019e-17
7280.00084 1.77600e-17
7281.99522 1.77907e-17
7283.99962 1.76169e-17
7286.00402 1.72400e-17
7287.99840 1.69022e-17
7290.00280 1.65608e-17
7291.99718 1.62902e-17
7294.00158 1.62607e-17
7295.99596 1.64530e-17
7298.00036 1.65195e-17
7300.00476 1.65666e-17
7301.99913 1.66106e-17
7304.00353 1.66443e-17
7305.99791 1.66791e-17
7308.00231 1.67313e-17
7309.99669 1.67955e-17
7312.00109 1.68175e-17
7313.99547 1.69196e-17
7315.99987 1.67657e-17
7318.00427 1.62542e-17
7319.99865 1.58338e-17
7322.00305 1.57415e-17
7323.99742 1.58108e-17
7326.00182 1.57499e-17
7327.99620 1.57026e-17
7330.00060 1.55396e-17
7331.99498 1.51761e-17
7333.99938 1.49522e-17
7336.00378 1.49576e-17
7337.99816 1.50871e-17
7340.00256 1.52389e-17
7341.99694 1.54973e-17
7344.00134 1.56604e-17
7345.99571 1.58694e-17
7348.00011 1.58920e-17
7350.00451 1.56348e-17
7351.99889 1.53129e-17
7354.00329 1.51611e-17
7355.99767 1.50738e-17
7358.00207 1.50763e-17
7359.99645 1.53589e-17
7362.00085 1.53035e-17
7363.99523 1.48515e-17
7365.99963 1.43641e-17
7368.00403 1.40541e-17
7369.99840 1.38115e-17
7372.00280 1.37375e-17
7373.99718 1.39327e-17
7376.00158 1.39538e-17
7377.99596 1.38908e-17
7380.00036 1.37853e-17
7382.00476 1.35985e-17
7383.99914 1.33837e-17
7386.00354 1.34052e-17
7387.99792 1.36548e-17
7390.00232 1.38131e-17
7391.99669 1.40148e-17
7394.00109 1.41492e-17
7395.99547 1.42272e-17
7397.99987 1.42203e-17
7400.00427 1.40190e-17
7401.99865 1.35810e-17
7404.00305 1.33346e-17
7405.99743 1.32025e-17
7408.00183 1.30160e-17
7409.99621 1.27522e-17
7412.00061 1.24864e-17
7414.00501 1.22920e-17
7415.99938 1.21481e-17
7418.00378 1.19429e-17
7419.99816 1.16132e-17
7422.00256 1.14738e-17
7423.99694 1.15414e-17
7426.00134 1.16436e-17
7427.99572 1.17012e-17
7430.00012 1.17553e-17
7432.00452 1.16951e-17
7433.99890 1.14217e-17
7436.00330 1.13900e-17
7437.99767 1.16073e-17
7440.00207 1.17451e-17
7441.99645 1.17178e-17
7444.00085 1.15784e-17
7445.99523 1.12619e-17
7447.99963 1.06463e-17
7450.00403 1.02888e-17
7451.99841 1.00105e-17
7454.00281 9.84258e-18
7455.99719 9.85022e-18
7458.00159 9.91376e-18
7459.99596 9.81401e-18
7462.00036 9.57173e-18
7464.00476 9.56751e-18
7465.99914 9.71654e-18
7468.00354 9.91129e-18
7469.99792 1.02510e-17
7472.00232 1.05401e-17
7473.99670 1.05487e-17
7476.00110 1.03541e-17
7477.99548 1.03080e-17
7479.99988 1.03249e-17
7482.00428 1.03035e-17
7483.99865 1.03087e-17
7486.00305 1.02280e-17
7487.99743 9.97244e-18
7490.00183 9.59826e-18
7491.99621 9.28634e-18
7494.00061 8.96567e-18
7495.99499 8.65924e-18
7497.99939 8.32437e-18
7500.00379 8.05957e-18
7501.99817 7.85675e-18
7504.00257 7.74526e-18
7505.99694 7.88268e-18
7508.00134 8.36218e-18
7509.99572 8.55943e-18
7512.00012 8.60937e-18
7514.00452 8.67153e-18
7515.99890 8.76719e-18
7518.00330 8.85208e-18
7519.99768 8.90390e-18
7522.00208 8.96991e-18
7523.99646 8.81385e-18
7526.00086 8.36908e-18
7527.99523 8.07126e-18
7529.99963 7.92604e-18
7532.00403 7.80096e-18
7533.99841 7.58739e-18
7536.00281 7.32331e-18
7537.99719 7.24979e-18
7540.00159 7.41039e-18
7541.99597 7.40255e-18
7544.00037 7.32280e-18
7546.00477 7.14352e-18
7547.99915 6.78054e-18
7550.00355 6.30897e-18
7551.99792 6.37827e-18
7554.00232 6.44756e-18
7555.99670 6.51684e-18
7558.00110 6.58611e-18
7559.99548 6.65538e-18
7561.99988 6.72463e-18
7564.00428 6.79388e-18
7565.99866 6.86312e-18
7568.00306 6.93235e-18
7569.99744 7.00157e-18
7572.00184 7.07079e-18
7573.99621 7.13999e-18
7576.00061 7.20919e-18
7577.99499 7.27837e-18
7579.99939 7.34755e-18
7582.00379 7.41672e-18
7583.99817 7.48589e-18
7586.00257 7.55504e-18
7587.99695 7.62418e-18
7590.00135 7.69332e-18
7591.99573 7.76245e-18
7594.00013 7.83156e-18
7596.00453 7.90068e-18
7597.99890 7.96978e-18
7600.00330 8.03887e-18
7601.99768 8.10795e-18
7604.00208 8.17703e-18
7605.99646 8.24610e-18
7608.00086 8.31515e-18
7609.99524 8.38420e-18
7611.99964 8.45325e-18
7614.00404 8.52228e-18
7615.99842 8.59130e-18
7618.00282 8.66032e-18
7619.99719 8.72932e-18
7622.00159 8.79832e-18
7623.99597 8.86731e-18
7626.00037 8.93629e-18
7628.00477 9.00527e-18
7629.99915 9.07423e-18
7632.00355 9.14318e-18
7633.99793 9.21213e-18
7636.00233 9.28107e-18
7637.99671 9.35000e-18
7640.00111 9.41892e-18
7641.99548 9.48783e-18
7643.99988 9.55673e-18
7646.00428 9.62563e-18
7647.99866 9.69451e-18
7650.00306 9.76339e-18
7651.99744 9.83226e-18
7654.00184 9.90112e-18
7655.99622 9.96997e-18
7658.00062 1.00388e-17
7660.00502 1.01076e-17
7661.99940 1.01765e-17
7664.00380 1.02453e-17
7665.99817 1.03141e-17
7668.00257 1.03829e-17
7669.99695 1.04517e-17
7672.00135 1.05205e-17
7673.99573 1.05892e-17
7676.00013 1.06580e-17
7678.00453 1.07268e-17
7679.99891 1.07955e-17
7682.00331 1.08348e-17
7683.99769 1.07641e-17
7686.00209 1.07549e-17
7687.99646 1.08633e-17
7690.00086 1.04277e-17
7691.99524 9.13085e-18
7693.99964 8.55326e-18
7696.00404 8.68633e-18
7697.99842 9.24837e-18
7700.00282 1.02392e-17
7701.99720 1.18049e-17
7704.00160 1.23795e-17
7705.99598 1.21348e-17
7708.00038 1.21716e-17
7710.00478 1.23655e-17
7711.99915 1.25218e-17
7714.00355 1.25586e-17
7715.99793 1.25209e-17
7718.00233 1.24223e-17
7719.99671 1.23440e-17
7722.00111 1.20003e-17
7723.99549 1.12612e-17
7725.99989 1.06788e-17
7728.00429 1.04105e-17
7729.99867 1.03325e-17
7732.00307 1.04202e-17
7733.99744 1.08534e-17
7736.00184 1.09578e-17
7737.99622 1.08420e-17
7740.00062 1.07816e-17
7741.99500 1.07748e-17
7743.99940 1.08264e-17
7746.00380 1.10271e-17
7747.99818 1.14150e-17
7750.00258 1.15440e-17
7751.99696 1.15419e-17
7754.00136 1.14515e-17
7755.99573 1.11872e-17
7758.00013 1.09301e-17
7760.00453 1.08276e-17
7761.99891 1.07987e-17
7764.00331 1.10100e-17
7765.99769 1.17376e-17
7768.00209 1.19171e-17
7769.99647 1.15542e-17
7772.00087 1.11809e-17
7773.99525 1.10824e-17
7775.99965 1.10788e-17
7778.00405 1.08723e-17
7779.99842 1.04157e-17
7782.00282 1.02256e-17
7783.99720 1.01141e-17
7786.00160 1.01965e-17
7787.99598 1.05870e-17
7790.00038 1.11266e-17
7792.00478 1.14478e-17
7793.99916 1.16870e-17
7796.00356 1.18667e-17
7797.99794 1.19273e-17
7800.00234 1.20222e-17
7801.99671 1.21655e-17
7804.00111 1.23217e-17
7805.99549 1.24842e-17
7807.99989 1.26955e-17
7810.00429 1.26878e-17
7811.99867 1.24220e-17
7814.00307 1.22848e-17
7815.99745 1.23227e-17
7818.00185 1.23090e-17
7819.99623 1.20661e-17
7822.00063 1.16725e-17
7823.99500 1.13222e-17
7825.99940 1.07862e-17
7828.00380 1.05929e-17
7829.99818 1.06988e-17
7832.00258 1.09132e-17
7833.99696 1.12173e-17
7836.00136 1.15974e-17
7837.99574 1.17457e-17
7840.00014 1.16274e-17
7842.00454 1.17435e-17
7843.99892 1.20873e-17
7846.00332 1.22670e-17
7847.99769 1.21555e-17
7850.00209 1.19179e-17
7851.99647 1.17874e-17
7854.00087 1.17218e-17
7855.99525 1.14932e-17
7857.99965 1.11087e-17
7860.00405 1.07559e-17
7861.99843 1.03754e-17
7864.00283 1.00699e-17
7865.99721 1.00237e-17
7868.00161 1.02135e-17
7869.99598 1.01856e-17
7872.00038 1.00688e-17
7874.00478 9.92207e-18
7875.99916 9.64420e-18
7878.00356 9.45343e-18
7879.99794 9.52994e-18
7882.00234 9.78563e-18
7883.99672 9.99292e-18
7886.00112 1.03036e-17
7887.99550 1.04774e-17
7889.99990 1.05333e-17
7892.00430 1.05734e-17
7893.99867 1.06437e-17
7896.00307 1.07070e-17
7897.99745 1.07006e-17
7900.00185 1.06100e-17
7901.99623 1.05716e-17
7904.00063 1.06073e-17
7906.00503 1.05413e-17
7907.99941 1.02977e-17
7910.00381 9.99748e-18
7911.99819 9.83319e-18
7914.00259 9.76657e-18
7915.99696 9.60080e-18
7918.00136 9.38869e-18
7919.99574 9.15647e-18
7922.00014 8.82438e-18
7924.00454 8.55920e-18
7925.99892 8.56037e-18
7928.00332 8.75965e-18
7929.99770 8.94891e-18
7932.00210 9.33171e-18
7933.99648 9.48218e-18
7936.00088 9.31603e-18
7937.99525 9.22069e-18
7939.99965 9.46859e-18
7942.00405 9.90977e-18
7943.99843 1.01488e-17
7946.00283 1.04598e-17
7947.99721 1.03932e-17
7950.00161 9.92019e-18
7951.99599 9.42710e-18
7954.00039 9.00898e-18
7956.00479 8.60869e-18
7957.99917 8.30686e-18
7960.00357 8.06614e-18
7961.99794 7.91397e-18
7964.00234 7.88652e-18
7965.99672 7.85676e-18
7968.00112 7.79565e-18
7969.99550 7.75396e-18
7971.99990 7.80310e-18
7974.00430 7.96748e-18
7975.99868 7.94570e-18
7978.00308 7.69200e-18
7979.99746 7.63420e-18
7982.00186 7.74367e-18
7983.99623 7.98792e-18
7986.00063 8.43355e-18
7987.99501 9.10217e-18
7989.99941 9.33174e-18
7992.00381 9.33292e-18
7993.99819 9.13896e-18
7996.00259 8.62807e-18
7997.99697 8.08707e-18
8000.00137 7.63668e-18
8001.99575 7.21647e-18
8004.00015 7.01090e-18
8006.00455 7.03073e-18
8007.99892 7.02095e-18
8010.00332 7.02372e-18
8011.99770 7.11468e-18
8014.00210 7.34426e-18
8015.99648 7.64914e-18
8018.00088 7.89315e-18
8019.99526 8.17989e-18
8021.99966 8.29735e-18
8024.00406 8.31966e-18
8025.99844 8.21926e-18
8028.00284 7.98143e-18
8029.99721 7.63592e-18
8032.00161 7.19216e-18
8033.99599 6.56777e-18
8036.00039 6.25997e-18
8037.99477 6.20852e-18
8039.99917 6.10962e-18
8042.00357 5.98191e-18
8043.99795 5.86899e-18
8046.00235 5.78445e-18
8047.99673 5.71988e-18
8050.00113 5.70969e-18
8051.99550 5.82424e-18
8053.99990 5.79896e-18
8056.00430 5.57504e-18
8057.99868 5.44654e-18
8060.00308 5.58450e-18
8061.99746 5.86874e-18
8064.00186 6.03613e-18
8065.99624 6.29707e-18
8068.00064 6.26093e-18
8070.00504 5.87344e-18
8071.99942 5.59693e-18
8074.00382 5.53646e-18
8075.99819 5.58499e-18
8078.00259 5.68900e-18
8079.99697 5.93123e-18
8082.00137 6.03674e-18
8083.99575 6.08993e-18
8086.00015 6.09178e-18
8088.00455 6.03305e-18
8089.99893 5.93251e-18
8092.00333 5.81457e-18
8093.99771 5.66859e-18
8096.00211 5.49539e-18
8097.99648 5.24944e-18
8100.00088 5.07130e-18
8101.99526 4.89784e-18
8103.99966 4.82879e-18
8106.00406 4.99689e-18
8107.99844 5.34827e-18
8110.00284 5.43088e-18
8111.99722 5.33017e-18
8114.00162 5.27283e-18
8115.99600 5.15411e-18
8118.00040 5.10809e-18
8120.00480 5.21182e-18
8121.99917 5.40337e-18
8124.00357 5.55494e-18
8125.99795 5.78184e-18
8128.00235 5.84241e-18
8129.99673 5.72192e-18
8132.00113 5.66244e-18
8133.99551 5.74206e-18
8135.99991 5.84903e-18
8138.00431 5.81102e-18
8139.99869 5.58918e-18
8142.00309 5.70374e-18
8143.99746 6.07749e-18
8146.00186 6.07654e-18
8147.99624 6.07558e-18
8150.00064 6.07463e-18
8151.99502 6.07368e-18
8153.99942 6.07273e-18
8156.00382 6.07178e-18
8157.99820 6.07083e-18
8160.00260 6.06988e-18
8161.99698 6.06893e-18
8164.00138 6.06798e-18
8165.99575 6.06703e-18
8168.00015 6.06608e-18
8170.00455 6.06513e-18
8171.99893 6.06418e-18
8174.00333 6.06323e-18
8175.99771 6.06228e-18
8178.00211 6.06133e-18
8179.99649 6.06039e-18
8182.00089 6.05944e-18
8183.99527 6.05907e-18
8185.99967 6.01368e-18
8188.00407 5.96831e-18
8189.99844 5.92294e-18
8192.00284 5.87757e-18
8193.99722 5.83221e-18
8196.00162 5.78686e-18
8197.99600 5.74151e-18
8200.00040 5.69616e-18
8202.00480 5.65083e-18
8203.99918 5.60550e-18
8206.00358 5.56017e-18
8207.99796 5.51485e-18
8210.00236 5.46953e-18
8211.99673 5.42422e-18
8214.00113 5.83309e-18
8215.99551 5.59625e-18
8217.99991 5.68744e-18
8220.00431 5.63825e-18
8221.99869 5.61807e-18
8224.00309 5.42662e-18
8225.99747 4.84380e-18
8228.00187 4.00901e-18
8229.99625 3.59185e-18
8232.00065 3.36679e-18
8233.99502 3.29849e-18
8235.99942 3.39138e-18
8238.00382 3.65886e-18
8239.99820 4.18417e-18
8242.00260 4.84890e-18
8243.99698 5.29571e-18
8246.00138 5.68334e-18
8247.99576 5.91912e-18
8250.00016 5.96082e-18
8252.00456 6.01112e-18
8253.99894 6.13544e-18
8256.00334 6.20766e-18
8257.99771 6.03775e-18
8260.00211 5.60400e-18
8261.99649 5.51150e-18
8264.00089 5.80022e-18
8265.99527 5.75979e-18
8267.99967 5.39645e-18
8270.00407 4.87955e-18
8271.99845 4.20824e-18
8274.00285 3.31922e-18
8275.99723 3.19259e-18
8278.00163 3.86093e-18
8279.99600 4.16082e-18
8282.00040 4.14847e-18
8284.00480 4.28953e-18
8285.99918 4.84361e-18
8288.00358 5.63900e-18
8289.99796 6.30658e-18
8292.00236 7.14851e-18
8293.99674 7.59247e-18
8296.00114 7.74788e-18
8297.99552 7.76054e-18
8299.99992 7.58416e-18
8302.00432 7.31335e-18
8303.99869 7.27680e-18
8306.00309 7.45307e-18
8307.99747 7.38872e-18
8310.00187 7.22746e-18
8311.99625 6.95582e-18
8314.00065 6.46858e-18
8316.00505 5.97710e-18
8317.99943 5.77191e-18
8320.00383 5.73454e-18
8321.99821 5.82621e-18
8324.00261 6.23564e-18
8325.99698 6.41840e-18
8328.00138 6.38068e-18
8329.99576 6.28121e-18
8332.00016 6.18612e-18
8334.00456 6.05374e-18
8335.99894 6.11711e-18
8338.00334 6.26440e-18
8339.99772 6.60074e-18
8342.00212 7.23460e-18
8343.99650 7.82641e-18
8346.00090 8.23334e-18
8347.99527 8.54689e-18
8349.99967 8.80110e-18
8352.00407 8.89024e-18
8353.99845 9.13590e-18
8356.00285 9.54145e-18
8357.99723 9.83305e-18
8360.00163 9.98779e-18
8361.99601 1.00132e-17
8364.00041 9.80068e-18
8365.99479 9.25152e-18
8367.99919 9.02502e-18
8370.00359 8.95934e-18
8371.99796 8.92854e-18
8374.00236 8.96451e-18
8375.99674 9.01537e-18
8378.00114 8.96502e-18
8379.99552 8.80271e-18
8381.99992 9.02863e-18
8384.00432 9.63182e-18
8385.99870 1.01365e-17
8388.00310 1.05987e-17
8389.99748 1.10648e-17
8392.00188 1.15568e-17
8393.99625 1.20643e-17
8396.00065 1.25069e-17
8397.99503 1.29465e-17
8399.99943 1.32712e-17
8402.00383 1.34757e-17
8403.99821 1.36452e-17
8406.00261 1.38847e-17
8407.99699 1.40792e-17
8410.00139 1.38290e-17
8411.99577 1.30115e-17
8414.00017 1.26121e-17
8416.00457 1.23389e-17
8417.99894 1.21841e-17
8420.00334 1.22005e-17
8421.99772 1.22935e-17
8424.00212 1.22551e-17
8425.99650 1.20605e-17
8428.00090 1.22660e-17
8430.00530 1.27866e-17
8431.99968 1.33543e-17
8434.00408 1.40937e-17
8435.99846 1.47826e-17
8438.00286 1.51103e-17
8439.99723 1.51592e-17
8442.00163 1.55096e-17
8443.99601 1.59984e-17
8446.00041 1.65351e-17
8448.00481 1.72279e-17
8449.99919 1.78525e-17
8452.00359 1.82867e-17
8453.99797 1.85949e-17
8456.00237 1.86953e-17
8457.99675 1.83587e-17
8460.00115 1.84403e-17
8461.99552 1.88588e-17
8463.99992 1.92356e-17
8466.00432 1.94919e-17
8467.99870 1.96676e-17
8470.00310 1.96303e-17
8471.99748 1.92997e-17
8474.00188 1.91813e-17
8475.99626 1.91815e-17
8478.00066 1.91310e-17
8479.99504 1.89679e-17
8481.99944 1.88051e-17
8484.00384 1.88099e-17
8485.99821 1.89741e-17
8488.00261 1.89525e-17
8489.99699 1.88107e-17
8492.00139 1.86819e-17
8493.99577 1.83914e-17
8496.00017 1.82972e-17
8498.00457 1.87914e-17
8499.99895 1.97304e-17
8502.00335 2.05924e-17
8503.99773 2.16848e-17
8506.00213 2.25827e-17
8507.99650 2.34261e-17
8510.00090 2.40773e-17
8511.99528 2.44482e-17
8513.99968 2.45914e-17
8516.00408 2.45691e-17
8517.99846 2.42874e-17
8520.00286 2.39867e-17
8521.99724 2.34102e-17
8524.00164 2.30735e-17
8525.99602 2.31961e-17
8528.00042 2.35300e-17
8530.00482 2.36527e-17
8531.99919 2.36720e-17
8534.00359 2.38130e-17
8535.99797 2.39397e-17
8538.00237 2.42475e-17
8539.99675 2.47456e-17
8542.00115 2.54089e-17
8543.99553 2.62632e-17
8545.99993 2.73666e-17
8548.00433 2.82731e-17
8549.99871 2.91802e-17
8552.00311 2.99210e-17
8553.99748 3.05076e-17
8556.00188 3.09614e-17
8557.99626 3.13151e-17
8560.00066 3.15645e-17
8562.00506 3.14786e-17
8563.99944 3.08761e-17
8566.00384 3.05961e-17
8567.99822 3.04966e-17
8570.00262 3.04729e-17
8571.99700 3.04590e-17
8574.00140 3.05088e-17
8575.99577 3.08139e-17
8578.00017 3.16462e-17
8580.00457 3.18510e-17
8581.99895 3.14558e-17
8584.00335 3.13187e-17
8585.99773 3.17163e-17
8588.00213 3.23084e-17
8589.99651 3.26153e-17
8592.00091 3.26485e-17
8593.99529 3.31993e-17
8595.99969 3.44507e-17
8598.00409 3.51457e-17
8599.99846 3.52086e-17
8602.00286 3.49085e-17
8603.99724 3.43805e-17
8606.00164 3.35119e-17
8607.99602 3.27095e-17
8610.00042 3.14800e-17
8611.99480 3.09468e-17
8613.99920 3.12287e-17
8616.00360 3.16502e-17
8617.99798 3.17836e-17
8620.00238 3.18447e-17
8621.99675 3.18228e-17
8624.00115 3.15469e-17
8625.99553 3.15880e-17
8627.99993 3.18788e-17
8630.00433 3.22435e-17
8631.99871 3.26456e-17
8634.00311 3.30960e-17
8635.99749 3.34753e-17
8638.00189 3.40648e-17
8639.99627 3.40198e-17
8642.00067 3.34326e-17
8643.99504 3.27498e-17
8645.99944 3.19929e-17
8648.00384 3.11637e-17
8649.99822 3.03932e-17
8652.00262 2.95425e-17
8653.99700 2.90369e-17
8656.00140 2.86934e-17
8657.99578 2.86624e-17
8660.00018 2.91141e-17
8662.00458 2.96647e-17
8663.99896 2.98985e-17
8666.00336 2.99957e-17
8667.99773 3.00060e-17
8670.00213 2.98830e-17
8671.99651 2.97213e-17
8674.00091 2.94383e-17
8676.00531 2.91942e-17
8677.99969 2.91430e-17
8680.00409 2.92023e-17
8681.99847 2.89886e-17
8684.00287 2.83948e-17
8685.99725 2.82155e-17
8688.00165 2.83388e-17
8689.99602 2.85270e-17
8692.00042 2.87011e-17
8694.00482 2.89225e-17
8695.99920 2.92442e-17
8698.00360 2.97872e-17
8699.99798 3.00198e-17
8702.00238 3.01140e-17
8703.99676 3.00357e-17
8706.00116 2.97111e-17
8707.99554 2.92747e-17
8709.99994 2.89603e-17
8712.00434 2.86911e-17
8713.99871 2.83664e-17
8716.00311 2.79594e-17
8717.99749 2.76469e-17
8720.00189 2.74506e-17
8721.99627 2.72860e-17
8724.00067 2.71050e-17
8725.99505 2.69479e-17
8727.99945 2.66039e-17
8730.00385 2.59060e-17
8731.99823 2.56087e-17
8734.00263 2.57205e-17
8735.99700 2.58645e-17
8738.00140 2.58943e-17
8739.99578 2.58828e-17
8742.00018 2.55744e-17
8744.00458 2.48315e-17
8745.99896 2.44153e-17
8748.00336 2.41710e-17
8749.99774 2.39613e-17
8752.00214 2.37600e-17
8753.99652 2.35823e-17
8756.00092 2.33999e-17
8757.99529 2.32704e-17
8759.99969 2.30051e-17
8762.00409 2.25424e-17
8763.99847 2.22256e-17
8766.00287 2.20572e-17
8767.99725 2.20282e-17
8770.00165 2.22187e-17
8771.99603 2.26663e-17
8774.00043 2.29360e-17
8776.00483 2.33246e-17
8777.99921 2.33491e-17
8780.00361 2.29371e-17
8781.99798 2.23814e-17
8784.00238 2.18760e-17
8785.99676 2.13135e-17
8788.00116 2.09372e-17
8789.99554 2.07537e-17
8791.99994 2.04778e-17
8794.00434 2.00928e-17
8795.99872 1.97920e-17
8798.00312 1.96804e-17
8799.99750 1.96891e-17
8802.00190 1.96976e-17
8803.99627 1.97759e-17
8806.00067 1.98335e-17
8808.00507 2.00100e-17
8809.99945 1.99939e-17
8812.00385 1.96266e-17
8813.99823 1.91143e-17
8816.00263 1.88407e-17
8817.99701 1.86631e-17
8820.00141 1.85560e-17
8821.99579 1.86731e-17
8824.00019 1.85875e-17
8825.99456 1.82101e-17
8827.99896 1.77487e-17
8830.00336 1.73853e-17
8831.99774 1.69758e-17
8834.00214 1.69840e-17
8835.99652 1.74251e-17
8838.00092 1.77886e-17
8839.99530 1.81920e-17
8841.99970 1.85285e-17
8844.00410 1.86819e-17
8845.99848 1.87066e-17
8848.00288 1.86875e-17
8849.99725 1.84736e-17
8852.00165 1.84616e-17
8853.99603 1.86497e-17
8856.00043 1.88083e-17
8857.99481 1.88937e-17
8859.99921 1.89117e-17
8862.00361 1.86195e-17
8863.99799 1.79036e-17
8866.00239 1.74656e-17
8867.99677 1.70613e-17
8870.00117 1.67918e-17
8871.99554 1.67371e-17
8873.99994 1.67726e-17
8876.00434 1.66559e-17
8877.99872 1.64417e-17
8880.00312 1.63247e-17
8881.99750 1.62516e-17
8884.00190 1.62009e-17
8885.99628 1.61747e-17
8888.00068 1.61715e-17
8890.00508 1.61594e-17
8891.99946 1.61105e-17
8894.00386 1.63758e-17
8895.99823 1.70966e-17
8898.00263 1.74718e-17
8899.99701 1.75696e-17
8902.00141 1.75363e-17
8903.99579 1.73557e-17
8906.00019 1.70309e-17
8908.00459 1.71968e-17
8909.99897 1.78689e-17
8912.00337 1.82735e-17
8913.99775 1.86506e-17
8916.00215 1.88707e-17
8917.99652 1.88956e-17
8920.00092 1.87448e-17
8922.00532 1.83606e-17
8923.99970 1.76453e-17
8926.00410 1.70372e-17
8927.99848 1.62582e-17
8930.00288 1.57231e-17
8931.99726 1.55993e-17
8934.00166 1.56114e-17
8935.99604 1.53503e-17
8938.00044 1.49469e-17
8940.00484 1.45799e-17
8941.99921 1.40043e-17
8944.00361 1.37879e-17
8945.99799 1.41815e-17
8948.00239 1.45387e-17
8949.99677 1.41341e-17
8952.00117 1.31742e-17
8953.99555 1.29336e-17
8955.99995 1.31467e-17
8958.00435 1.33192e-17
8959.99873 1.36953e-17
8962.00313 1.38984e-17
8963.99750 1.35214e-17
8966.00190 1.28091e-17
8967.99628 1.30095e-17
8970.00068 1.41310e-17
8971.99506 1.46899e-17
8973.99946 1.49278e-17
8976.00386 1.52436e-17
8977.99824 1.59254e-17
8980.00264 1.66368e-17
8981.99702 1.65209e-17
8984.00142 1.56719e-17
8985.99579 1.49875e-17
8988.00019 1.38972e-17
8990.00459 1.32581e-17
8991.99897 1.32883e-17
8994.00337 1.35848e-17
8995.99775 1.36867e-17
8998.00215 1.38092e-17
8999.99653 1.38093e-17
9002.00093 1.36611e-17
9003.99531 1.35815e-17
9005.99971 1.36763e-17
9008.00411 1.36569e-17
9009.99848 1.31875e-17
9012.00288 1.23598e-17
9013.99726 1.20873e-17
9016.00166 1.22726e-17
9017.99604 1.22473e-17
9020.00044 1.21492e-17
9022.00484 1.19716e-17
9023.99922 1.16020e-17
9026.00362 1.11341e-17
9027.99800 1.11771e-17
9030.00240 1.16641e-17
9031.99677 1.20911e-17
9034.00117 1.27132e-17
9035.99555 1.32197e-17
9037.99995 1.34659e-17
9040.00435 1.36239e-17
9041.99873 1.40345e-17
9044.00313 1.48745e-17
9045.99751 1.48506e-17
9048.00191 1.40110e-17
9049.99629 1.33662e-17
9052.00069 1.29920e-17
9053.99506 1.26954e-17
9055.99946 1.23797e-17
9058.00386 1.20918e-17
9059.99824 1.17926e-17
9062.00264 1.13584e-17
9063.99702 1.12087e-17
9066.00142 1.15203e-17
9067.99580 1.17599e-17
9070.00020 1.14176e-17
9071.99458 1.06952e-17
9073.99898 1.05868e-17
9076.00338 1.10664e-17
9077.99775 1.11259e-17
9080.00215 1.07763e-17
9081.99653 1.05582e-17
9084.00093 1.07359e-17
9085.99531 1.11271e-17
9087.99971 1.14508e-17
9090.00411 1.19895e-17
9091.99849 1.21285e-17
9094.00289 1.19208e-17
9095.99727 1.17240e-17
9098.00167 1.15940e-17
9099.99604 1.14837e-17
9102.00044 1.14335e-17
9103.99482 1.14667e-17
9105.99922 1.14049e-17
9108.00362 1.12589e-17
9109.99800 1.11592e-17
9112.00240 1.11744e-17
9113.99678 1.11505e-17
9116.00118 1.08406e-17
9117.99556 1.02222e-17
9119.99996 1.03002e-17
9122.00436 1.10481e-17
9123.99873 1.15309e-17
9126.00313 1.19549e-17
9127.99751 1.21703e-17
9130.00191 1.19590e-17
9131.99629 1.14198e-17
9134.00069 1.11466e-17
9136.00509 1.08708e-17
9137.99947 1.08024e-17
9140.00387 1.09459e-17
9141.99825 1.11589e-17
9144.00265 1.14614e-17
9145.99702 1.18014e-17
9148.00142 1.18055e-17
9149.99580 1.13372e-17
9152.00020 1.13790e-17
9154.00460 1.17601e-17
9155.99898 1.21373e-17
9158.00338 1.24965e-17
9159.99776 1.28343e-17
9162.00216 1.30160e-17
9163.99654 1.29992e-17
9166.00094 1.32642e-17
9168.00534 1.38473e-17
9169.99971 1.41915e-17
9172.00411 1.42171e-17
9173.99849 1.41815e-17
9176.00289 1.43291e-17
9177.99727 1.45797e-17
9180.00167 1.46571e-17
9181.99605 1.47564e-17
9184.00045 1.45495e-17
9185.99483 1.39034e-17
9187.99923 1.32780e-17
9190.00363 1.29620e-17
9191.99800 1.28012e-17
9194.00240 1.26478e-17
9195.99678 1.24770e-17
9198.00118 1.25416e-17
9199.99556 1.29536e-17
9201.99996 1.32441e-17
9204.00436 1.32611e-17
9205.99874 1.31199e-17
9208.00314 1.28628e-17
9209.99752 1.22882e-17
9212.00192 1.21043e-17
9213.99629 1.20288e-17
9216.00069 1.22578e-17
9217.99507 1.29660e-17
9219.99947 1.38362e-17
9222.00387 1.43685e-17
9223.99825 1.47771e-17
9226.00265 1.50101e-17
9227.99703 1.49992e-17
9230.00143 1.50010e-17
9231.99581 1.50006e-17
9234.00021 1.49754e-17
9236.00461 1.49568e-17
9237.99898 1.49584e-17
9240.00338 1.46408e-17
9241.99776 1.39957e-17
9244.00216 1.34098e-17
9245.99654 1.26807e-17
9248.00094 1.21244e-17
9249.99532 1.20002e-17
9251.99972 1.21433e-17
9254.00412 1.19966e-17
9255.99850 1.17522e-17
9258.00290 1.14271e-17
9259.99727 1.07288e-17
9262.00167 1.04346e-17
9263.99605 1.08249e-17
9266.00045 1.16182e-17
9268.00485 1.24664e-17
9269.99923 1.38544e-17
9272.00363 1.43463e-17
9273.99801 1.42059e-17
9276.00241 1.39348e-17
9277.99679 1.34464e-17
9280.00119 1.28991e-17
9281.99556 1.26501e-17
9283.99996 1.26094e-17
9286.00436 1.24049e-17
9287.99874 1.21277e-17
9290.00314 1.18632e-17
9291.99752 1.16020e-17
9294.00192 1.13420e-17
9295.99630 1.10499e-17
9298.00070 1.07214e-17
9299.99508 1.07080e-17
9301.99948 1.11363e-17
9304.00388 1.12162e-17
9305.99825 1.09824e-17
9308.00265 1.07728e-17
9309.99703 1.06460e-17
9312.00143 1.05996e-17
9313.99581 1.11279e-17
9316.00021 1.30221e-17
9317.99459 1.30114e-17
9319.99899 1.10723e-17
9322.00339 9.86364e-18
9323.99777 1.00749e-17
9326.00217 1.09757e-17
9327.99654 1.19600e-17
9330.00094 1.35084e-17
9331.99532 1.45440e-17
9333.99972 1.58384e-17
9336.00412 1.61013e-17
9337.99850 1.49375e-17
9340.00290 1.32438e-17
9341.99728 1.19359e-17
9344.00168 1.04730e-17
9345.99606 9.91113e-18
9348.00046 1.04678e-17
9349.99483 1.04096e-17
9351.99923 9.72586e-18
9354.00363 9.02307e-18
9355.99801 8.59806e-18
9358.00241 8.28538e-18
9359.99679 8.64586e-18
9362.00119 9.96515e-18
9363.99557 1.06877e-17
9365.99997 1.07792e-17
9368.00437 1.12577e-17
9369.99875 1.29687e-17
9372.00315 1.51359e-17
9373.99752 1.51908e-17
9376.00192 1.33941e-17
9377.99630 1.21195e-17
9380.00070 1.02009e-17
9382.00510 8.92532e-18
9383.99948 8.68016e-18
9386.00388 8.93161e-18
9387.99826 8.99745e-18
9390.00266 9.20298e-18
9391.99704 9.28678e-18
9394.00144 9.26123e-18
9395.99581 9.33112e-18
9398.00021 9.57279e-18
9400.00461 9.79861e-18
9401.99899 9.80577e-18
9404.00339 9.66931e-18
9405.99777 9.51538e-18
9408.00217 9.45779e-18
9409.99655 9.01012e-18
9412.00095 7.83078e-18
9413.99533 6.93087e-18
9415.99973 7.06283e-18
9418.00413 7.83951e-18
9419.99850 8.34907e-18
9422.00290 9.14266e-18
9423.99728 9.44717e-18
9426.00168 9.05586e-18
9427.99606 9.01984e-18
9430.00046 9.87725e-18
9431.99484 1.11374e-17
9433.99924 1.18301e-17
9436.00364 1.28774e-17
9437.99802 1.21961e-17
9440.00242 9.17145e-18
9441.99679 7.31506e-18
9444.00119 7.39879e-18
9445.99557 8.21516e-18
9447.99997 8.51455e-18
9450.00437 8.88131e-18
9451.99875 8.90584e-18
9454.00315 8.53978e-18
9455.99753 8.31668e-18
9458.00193 8.17888e-18
9459.99631 8.15000e-18
9462.00071 8.27649e-18
9463.99508 8.50868e-18
9465.99948 9.15187e-18
9468.00388 1.08710e-17
9469.99826 1.12361e-17
9472.00266 1.01340e-17
9473.99704 8.94750e-18
9476.00144 8.38857e-18
9477.99582 8.06849e-18
9480.00022 7.96979e-18
9482.00462 8.06794e-18
9483.99900 8.46484e-18
9486.00340 9.45277e-18
9487.99777 1.01755e-17
9490.00217 1.05675e-17
9491.99655 1.05647e-17
9494.00095 9.32863e-18
9495.99533 6.08290e-18
9497.99973 5.15445e-18
9500.00413 5.83892e-18
9501.99851 6.39119e-18
9504.00291 6.68293e-18
9505.99729 6.95248e-18
9508.00169 7.20946e-18
9509.99606 7.45388e-18
9512.00046 7.66211e-18
9514.00486 8.14337e-18
9515.99924 7.97830e-18
9518.00364 6.70144e-18
9519.99802 5.58772e-18
9522.00242 5.89416e-18
9523.99680 7.15578e-18
9526.00120 7.49817e-18
9527.99558 7.12657e-18
9529.99998 7.40036e-18
9532.00438 8.34057e-18
9533.99875 9.19579e-18
9536.00315 9.54334e-18
9537.99753 9.65469e-18
9540.00193 1.00601e-17
9541.99631 1.09371e-17
9544.00071 1.10523e-17
9545.99509 1.04809e-17
9547.99949 9.96659e-18
9550.00389 9.66166e-18
9551.99827 9.44486e-18
9554.00267 9.36282e-18
9555.99704 9.42425e-18
9558.00144 9.51577e-18
9559.99582 1.02341e-17
9562.00022 9.94130e-18
9563.99460 7.88890e-18
9565.99900 5.64995e-18
9568.00340 5.24583e-18
9569.99778 6.04638e-18
9572.00218 6.50024e-18
9573.99656 7.59288e-18
9576.00096 7.82464e-18
9577.99533 6.77886e-18
9579.99973 5.88243e-18
9582.00413 6.31483e-18
9583.99851 7.55500e-18
9586.00291 8.28168e-18
9587.99729 9.10474e-18
9590.00169 9.50394e-18
9591.99607 9.47104e-18
9594.00047 9.32526e-18
9596.00487 9.16986e-18
9597.99925 8.95220e-18
9600.00365 8.80325e-18
9601.99802 8.72528e-18
9604.00242 8.54796e-18
9605.99680 8.16030e-18
9608.00120 8.00927e-18
9609.99558 8.32598e-18
9611.99998 8.77838e-18
9614.00438 8.73359e-18
9615.99876 8.12183e-18
9618.00316 8.41114e-18
9619.99754 9.73094e-18
9622.00194 1.03560e-17
9623.99631 1.00621e-17
9626.00071 9.49880e-18
9628.00511 9.21620e-18
9629.99949 8.94475e-18
9632.00389 8.91419e-18
9633.99827 9.27733e-18
9636.00267 9.32363e-18
9637.99705 9.06170e-18
9640.00145 8.73399e-18
9641.99583 8.48213e-18
9644.00023 8.23471e-18
9646.00463 7.94569e-18
9647.99900 7.56272e-18
9650.00340 7.30941e-18
9651.99778 7.30327e-18
9654.00218 7.09631e-18
9655.99656 6.36463e-18
9658.00096 5.41878e-18
9659.99534 5.13088e-18
9661.99974 5.23730e-18
9664.00414 5.52761e-18
9665.99852 6.30137e-18
9668.00292 6.89227e-18
9669.99729 7.22626e-18
9672.00169 7.38444e-18
9673.99607 7.29294e-18
9676.00047 6.83404e-18
9677.99485 6.75199e-18
9679.99925 6.97944e-18
9682.00365 7.02052e-18
9683.99803 6.84140e-18
9686.00243 6.59672e-18
9687.99681 6.38475e-18
9690.00121 6.14142e-18
9691.99558 6.05960e-18
9693.99998 6.01768e-18
9696.00438 6.19878e-18
9697.99876 6.71087e-18
9700.00316 7.21284e-18
9701.99754 7.45942e-18
9704.00194 7.58561e-18
9705.99632 7.93772e-18
9708.00072 8.62769e-18
9709.99510 8.88368e-18
9711.99950 8.82047e-18
9714.00390 8.66391e-18
9715.99827 8.45958e-18
9718.00267 8.18615e-18
9719.99705 7.92645e-18
9722.00145 7.65087e-18
9723.99583 7.35345e-18
9726.00023 6.90653e-18
9728.00463 6.67970e-18
9729.99901 6.88934e-18
9732.00341 7.14114e-18
9733.99779 6.80819e-18
9736.00219 5.99163e-18
9737.99656 5.56933e-18
9740.00096 5.20646e-18
9741.99534 5.07558e-18
9743.99974 5.18242e-18
9746.00414 5.47547e-18
9747.99852 5.95005e-18
9750.00292 6.63315e-18
9751.99730 7.21035e-18
9754.00170 7.90985e-18
9755.99608 8.33832e-18
9758.00048 8.55357e-18
9760.00488 8.60423e-18
9761.99925 8.46850e-18
9764.00365 8.16869e-18
9765.99803 7.95540e-18
9768.00243 7.77558e-18
9769.99681 7.50925e-18
9772.00121 7.02436e-18
9773.99559 6.76767e-18
9775.99999 6.88361e-18
9778.00439 7.23068e-18
9779.99877 7.67918e-18
9782.00317 8.57927e-18
9783.99754 8.69297e-18
9786.00194 8.04283e-18
9787.99632 7.65725e-18
9790.00072 7.63567e-18
9791.99510 7.75573e-18
9793.99950 7.91115e-18
9796.00390 8.22816e-18
9797.99828 8.18883e-18
9800.00268 7.65052e-18
9801.99706 7.55962e-18
9804.00146 8.09322e-18
9805.99583 8.57792e-18
9808.00023 8.48603e-18
9809.99461 8.05670e-18
9811.99901 7.57056e-18
9814.00341 6.43939e-18
9815.99779 6.25520e-18
9818.00219 7.06311e-18
9819.99657 7.87664e-18
9822.00097 8.28874e-18
9823.99535 8.53963e-18
9825.99975 8.59162e-18
9828.00415 8.40928e-18
9829.99852 8.15855e-18
9832.00292 7.60704e-18
9833.99730 7.26153e-18
9836.00170 7.31518e-18
9837.99608 7.52402e-18
9840.00048 7.50927e-18
9842.00488 7.39755e-18
9843.99926 7.28229e-18
9846.00366 7.01054e-18
9847.99804 6.94684e-18
9850.00244 7.16674e-18
9851.99681 7.48595e-18
9854.00121 7.77969e-18
9855.99559 8.21993e-18
9857.99999 7.93722e-18
9860.00439 6.73961e-18
9861.99877 6.09793e-18
9864.00317 5.77716e-18
9865.99755 5.82222e-18
9868.00195 6.51454e-18
9869.99633 7.75463e-18
9872.00073 8.03394e-18
9874.00513 7.65998e-18
9875.99950 7.31631e-18
9878.00390 6.61671e-18
9879.99828 6.14747e-18
9882.00268 6.24241e-18
9883.99706 6.63220e-18
9886.00146 6.74876e-18
9887.99584 6.71988e-18
9890.00024 6.82908e-18
9892.00464 6.95647e-18
9893.99902 7.20156e-18
9896.00342 7.76565e-18
9897.99779 8.31037e-18
9900.00219 8.11267e-18
9901.99657 7.19281e-18
9904.00097 6.84777e-18
9905.99535 6.66688e-18
9907.99975 6.66965e-18
9910.00415 6.92867e-18
9911.99853 7.28768e-18
9914.00293 7.57920e-18
9915.99731 7.88835e-18
9918.00171 8.12116e-18
9919.99608 8.45480e-18
9922.00048 8.42969e-18
9923.99486 7.94351e-18
9925.99926 7.42821e-18
9928.00366 7.13327e-18
9929.99804 6.92822e-18
9932.00244 6.86581e-18
9933.99682 7.20244e-18
9936.00122 7.03245e-18
9937.99560 6.31628e-18
9940.00000 5.75967e-18
9942.00440 5.63668e-18
9943.99877 5.72315e-18
9946.00317 5.75452e-18
9947.99755 5.91387e-18
9950.00195 5.88486e-18
9951.99633 5.60260e-18
9954.00073 5.52106e-18
9955.99511 5.77329e-18
9957.99951 6.13773e-18
9960.00391 6.32704e-18
9961.99829 6.43097e-18
9964.00269 6.59462e-18
9965.99706 6.83797e-18
9968.00146 6.96300e-18
9969.99584 6.99310e-18
9972.00024 6.91663e-18
9974.00464 6.68505e-18
9975.99902 6.30184e-18
9978.00342 5.97778e-18
9979.99780 5.52928e-18
9982.00220 5.31742e-18
9983.99658 5.36030e-18
9986.00098 5.44599e-18
9987.99535 5.45837e-18
9989.99975 5.46299e-18
9992.00415 5.52158e-18
9993.99853 5.50245e-18
9996.00293 5.77175e-18
9997.99731 6.51668e-18
10000.00171 6.97012e-18
