# wavelength flux
3650.00382 9.47999e-18
3652.00067 9.45075e-18
3653.99752 7.67671e-18
3656.00455 7.71667e-18
3658.00140 9.03685e-18
3659.99825 9.02977e-18
3661.99510 9.38053e-18
3664.00213 9.55091e-18
3665.99898 9.72133e-18
3667.99583 9.72037e-18
3670.00286 8.72441e-18
3671.99971 9.04587e-18
3673.99656 8.97040e-18
3676.00360 8.08006e-18
3678.00044 8.46525e-18
3679.99729 8.67302e-18
3682.00433 9.49627e-18
3684.00118 9.53262e-18
3685.99802 9.01134e-18
3688.00506 8.14058e-18
3690.00191 8.58187e-18
3691.99876 8.79241e-18
3693.99560 9.17988e-18
3696.00264 8.86203e-18
3697.99949 9.21656e-18
3699.99634 1.02496e-17
3702.00337 1.00214e-17
3704.00022 9.88719e-18
3705.99707 9.88215e-18
3708.00410 9.41375e-18
3710.00095 9.57532e-18
3711.99780 9.59163e-18
3714.00484 9.78305e-18
3716.00168 9.73199e-18
3717.99853 9.89478e-18
3719.99538 1.02019e-17
3722.00242 9.81132e-18
3723.99926 1.02621e-17
3725.99611 9.67141e-18
3728.00315 9.19054e-18
3730.00000 9.60933e-18
3731.99684 9.01008e-18
3734.00388 8.69514e-18
3736.00073 9.44687e-18
3737.99758 9.65681e-18
3740.00461 8.43941e-18
3742.00146 9.03496e-18
3743.99831 9.23699e-18
3745.99516 8.63470e-18
3748.00219 8.78552e-18
3749.99904 9.34742e-18
3751.99589 9.02717e-18
3754.00292 9.43649e-18
3755.99977 9.36811e-18
3757.99662 7.73430e-18
3760.00366 7.70270e-18
3762.00050 8.56621e-18
3763.99735 8.67943e-18
3766.00439 9.04806e-18
3768.00124 8.52208e-18
3769.99808 8.35061e-18
3772.00512 9.34132e-18
3774.00197 9.70580e-18
3775.99882 7.59991e-18
3777.99566 7.50132e-18
3780.00270 7.40274e-18
3781.99955 7.32840e-18
3783.99640 7.25408e-18
3786.00343 7.17978e-18
3788.00028 7.10548e-18
3789.99713 7.03121e-18
3792.00416 6.95694e-18
3794.00101 6.88269e-18
3795.99786 6.80845e-18
3798.00490 6.73423e-18
3800.00174 6.66002e-18
3801.99859 6.58582e-18
3803.99544 6.51164e-18
3806.00248 6.43746e-18
3807.99932 6.36332e-18
3809.99617 6.28917e-18
3812.00321 6.21504e-18
3814.00006 6.14092e-18
3815.99690 6.06681e-18
3818.00394 5.99272e-18
3820.00079 6.15770e-18
3821.99764 6.51167e-18
3824.00467 6.79425e-18
3826.00152 6.11193e-18
3827.99837 6.40265e-18
3829.99522 6.55321e-18
3832.00225 6.69160e-18
3833.99910 6.05869e-18
3835.99595 6.72383e-18
3838.00298 6.73496e-18
3839.99983 7.46553e-18
3841.99668 7.22646e-18
3844.00372 6.91306e-18
3846.00056 7.10619e-18
3847.99741 7.49008e-18
3850.00445 7.23417e-18
3852.00130 6.96893e-18
3853.99814 7.11545e-18
3855.99499 7.24966e-18
3858.00203 6.71041e-18
3859.99888 7.33721e-18
3861.99572 7.68942e-18
3864.00276 7.63581e-18
3865.99961 8.31668e-18
3867.99646 8.15331e-18
3870.00349 7.29390e-18
3872.00034 7.68057e-18
3873.99719 8.29664e-18
3876.00422 8.14796e-18
3878.00107 8.60479e-18
3879.99792 8.66953e-18
3881.99477 8.33343e-18
3884.00180 8.38531e-18
3885.99865 8.26072e-18
3887.99550 8.11158e-18
3890.00254 8.56297e-18
3891.99938 8.36455e-18
3893.99623 8.56701e-18
3896.00327 9.65416e-18
3898.00012 9.46000e-18
3899.99696 9.39343e-18
3902.00400 8.69878e-18
3904.00085 9.84275e-18
3905.99770 1.03650e-17
3908.00473 1.03979e-17
3910.00158 1.00995e-17
3911.99843 9.92411e-18
3913.99528 1.04915e-17
3916.00231 9.90489e-18
3917.99916 1.03095e-17
3919.99601 1.06265e-17
3922.00304 1.05270e-17
3923.99989 1.00213e-17
3925.99674 1.06236e-17
3928.00378 1.11474e-17
3930.00062 1.03382e-17
3931.99747 1.02059e-17
3934.00451 1.08220e-17
3936.00136 1.04777e-17
3937.99820 1.12340e-17
3939.99505 1.29496e-17
3942.00209 1.31148e-17
3943.99894 1.23831e-17
3945.99578 1.16228e-17
3948.00282 1.14861e-17
3949.99967 1.19347e-17
3951.99652 1.19071e-17
3954.00355 1.20798e-17
3956.00040 1.17409e-17
3957.99725 1.23054e-17
3960.00428 1.44706e-17
3962.00113 1.50068e-17
3963.99798 1.36217e-17
3965.99483 1.27548e-17
3968.00186 1.25879e-17
3969.99871 1.21023e-17
3971.99556 1.19911e-17
3974.00260 1.23330e-17
3975.99944 1.31087e-17
3977.99629 1.28005e-17
3980.00333 1.22787e-17
3982.00018 1.26987e-17
3983.99702 1.29980e-17
3986.00406 1.29968e-17
3988.00091 1.31675e-17
3989.99776 1.35431e-17
3992.00479 1.39306e-17
3994.00164 1.30527e-17
3995.99849 1.26414e-17
3997.99534 1.32273e-17
4000.00237 1.29051e-17
4001.99922 1.31198e-17
4003.99607 1.32972e-17
4006.00310 1.29564e-17
4007.99995 1.27025e-17
4009.99680 1.28817e-17
4012.00384 1.42570e-17
4014.00068 1.33538e-17
4015.99753 1.27395e-17
4018.00457 1.37726e-17
4020.00142 1.44657e-17
4021.99826 1.41932e-17
4023.99511 1.41484e-17
4026.00215 1.39924e-17
4027.99900 1.28641e-17
4029.99584 1.27473e-17
4032.00288 1.30173e-17
4033.99973 1.31261e-17
4035.99658 1.29643e-17
4038.00361 1.32063e-17
4040.00046 1.36290e-17
4041.99731 1.48411e-17
4044.00434 1.55022e-17
4046.00119 1.52651e-17
4047.99804 1.38623e-17
4049.99489 1.26720e-17
4052.00192 1.27233e-17
4053.99877 1.24885e-17
4055.99562 1.26855e-17
4058.00266 1.16414e-17
4059.99950 1.14514e-17
4061.99635 1.27620e-17
4064.00339 1.25157e-17
4066.00024 1.25173e-17
4067.99708 1.19804e-17
4070.00412 1.27113e-17
4072.00097 1.19625e-17
4073.99782 1.27405e-17
4076.00485 1.24070e-17
4078.00170 1.19412e-17
4079.99855 1.17513e-17
4081.99540 1.19300e-17
4084.00243 1.20556e-17
4085.99928 1.17518e-17
4087.99613 1.17360e-17
4090.00316 1.24470e-17
4092.00001 1.24513e-17
4093.99686 1.16139e-17
4096.00390 1.16193e-17
4098.00074 1.22209e-17
4099.99759 1.21853e-17
4102.00463 1.23814e-17
4104.00148 1.28578e-17
4105.99832 1.24120e-17
4107.99517 1.23068e-17
4110.00221 1.21198e-17
4111.99906 1.13502e-17
4113.99590 1.19084e-17
4116.00294 1.26657e-17
4117.99979 1.20301e-17
4119.99664 1.15376e-17
4122.00367 1.16672e-17
4124.00052 1.21291e-17
4125.99737 1.24598e-17
4128.00440 1.21722e-17
4130.00125 1.21244e-17
4131.99810 1.17828e-17
4133.99495 1.17859e-17
4136.00198 1.17416e-17
4137.99883 1.14452e-17
4139.99568 1.12605e-17
4142.00272 1.24450e-17
4143.99956 1.23249e-17
4145.99641 1.18831e-17
4148.00345 1.24691e-17
4150.00030 1.17171e-17
4151.99714 1.17487e-17
4154.00418 1.17735e-17
4156.00103 1.15145e-17
4157.99788 1.15911e-17
4160.00491 1.09999e-17
4162.00176 1.03558e-17
4163.99861 1.05960e-17
4165.99546 1.10534e-17
4168.00249 1.08820e-17
4169.99934 1.04190e-17
4171.99619 1.10211e-17
4174.00322 1.21179e-17
4176.00007 1.39218e-17
4177.99692 1.52088e-17
4180.00396 1.41124e-17
4182.00080 1.20722e-17
4183.99765 1.07819e-17
4186.00469 1.02014e-17
4188.00154 1.05275e-17
4189.99838 1.07768e-17
4191.99523 1.01522e-17
4194.00227 9.98284e-18
4195.99912 1.00522e-17
4197.99596 9.92337e-18
4200.00300 1.02528e-17
4201.99985 1.09849e-17
4203.99670 1.10827e-17
4206.00373 1.08477e-17
4208.00058 1.07449e-17
4209.99743 1.02593e-17
4212.00446 1.07163e-17
4214.00131 1.06300e-17
4215.99816 1.02271e-17
4218.00520 1.00743e-17
4220.00204 1.00888e-17
4221.99889 1.09057e-17
4223.99574 1.13041e-17
4226.00278 1.12231e-17
4227.99962 1.03119e-17
4229.99647 1.00148e-17
4232.00351 1.04709e-17
4234.00036 1.03301e-17
4235.99720 9.67713e-18
4238.00424 1.04459e-17
4240.00109 1.08127e-17
4241.99794 1.08483e-17
4244.00497 1.10235e-17
4246.00182 1.06225e-17
4247.99867 1.07905e-17
4249.99552 1.09695e-17
4252.00255 1.10536e-17
4253.99940 1.11093e-17
4255.99625 1.05460e-17
4258.00328 1.04654e-17
4260.00013 1.07699e-17
4261.99698 1.06646e-17
4264.00402 1.03794e-17
4266.00086 1.10358e-17
4267.99771 1.10871e-17
4270.00475 1.06493e-17
4272.00160 1.05209e-17
4273.99844 1.06567e-17
4275.99529 1.05061e-17
4278.00233 1.04395e-17
4279.99918 1.04933e-17
4281.99602 1.10401e-17
4284.00306 1.17575e-17
4285.99991 1.10039e-17
4287.99676 9.85560e-18
4290.00379 1.06034e-17
4292.00064 1.07205e-17
4293.99749 1.08033e-17
4296.00452 1.03154e-17
4298.00137 1.06989e-17
4299.99822 1.13569e-17
4301.99507 1.04488e-17
4304.00210 9.99287e-18
4305.99895 1.05008e-17
4307.99580 1.02850e-17
4310.00284 1.05724e-17
4311.99968 1.05119e-17
4313.99653 1.12978e-17
4316.00357 1.09350e-17
4318.00042 1.04333e-17
4319.99726 1.09068e-17
4322.00430 1.18334e-17
4324.00115 1.08624e-17
4325.99800 1.08233e-17
4327.99484 1.09999e-17
4330.00188 1.02066e-17
4331.99873 1.03397e-17
4333.99558 1.05248e-17
4336.00261 1.09849e-17
4337.99946 1.16414e-17
4339.99631 1.14874e-17
4342.00334 1.04585e-17
4344.00019 1.04412e-17
4345.99704 1.08555e-17
4348.00408 1.09571e-17
4350.00092 1.03477e-17
4351.99777 1.05181e-17
4354.00481 1.14597e-17
4356.00166 1.15653e-17
4357.99850 1.08259e-17
4359.99535 1.04891e-17
4362.00239 1.11594e-17
4363.99924 1.15420e-17
4365.99608 1.12196e-17
4368.00312 1.08990e-17
4369.99997 1.12479e-17
4371.99682 1.06845e-17
4374.00385 9.91992e-18
4376.00070 1.06192e-17
4377.99755 1.04738e-17
4380.00458 9.95970e-18
4382.00143 9.95293e-18
4383.99828 1.02134e-17
4385.99513 1.01115e-17
4388.00216 9.69252e-18
4389.99901 1.04467e-17
4391.99586 9.96099e-18
4394.00290 9.27847e-18
4395.99974 1.01806e-17
4397.99659 1.01965e-17
4400.00363 9.74570e-18
4402.00048 9.14666e-18
4403.99732 9.62338e-18
4406.00436 9.44609e-18
4408.00121 9.21136e-18
4409.99806 9.99498e-18
4411.99490 9.51716e-18
4414.00194 9.11179e-18
4415.99879 9.14747e-18
4417.99564 9.18313e-18
4420.00267 9.21880e-18
4421.99952 9.25445e-18
4423.99637 9.29009e-18
4426.00340 9.32574e-18
4428.00025 9.36137e-18
4429.99710 9.39700e-18
4432.00414 9.43262e-18
4434.00098 9.46824e-18
4435.99783 9.50386e-18
4437.99468 9.53946e-18
4440.00172 9.57507e-18
4441.99856 9.61066e-18
4443.99541 9.64625e-18
4446.00245 9.68183e-18
4447.99930 9.71740e-18
4449.99614 9.75298e-18
4452.00318 9.78854e-18
4454.00003 9.82411e-18
4455.99688 9.85966e-18
4458.00391 9.89520e-18
4460.00076 9.93075e-18
4461.99761 9.96628e-18
4464.00464 1.00018e-17
4466.00149 1.00373e-17
4467.99834 1.00729e-17
4469.99519 1.01084e-17
4472.00222 1.01439e-17
4473.99907 1.01794e-17
4475.99592 1.02149e-17
4478.00296 9.99842e-18
4479.99980 1.05156e-17
4481.99665 1.01580e-17
4484.00369 1.05021e-17
4486.00054 1.03482e-17
4487.99738 1.06953e-17
4490.00442 1.01029e-17
4492.00127 1.09947e-17
4493.99812 1.13051e-17
4495.99496 1.13451e-17
4498.00200 1.07567e-17
4499.99885 1.12198e-17
4501.99570 1.15303e-17
4504.00273 1.11556e-17
4505.99958 1.09537e-17
4507.99643 1.11143e-17
4510.00346 1.14361e-17
4512.00031 1.16011e-17
4513.99716 1.15292e-17
4516.00420 1.15465e-17
4518.00104 1.14274e-17
4519.99789 1.16541e-17
4522.00493 1.15821e-17
4524.00178 1.11185e-17
4525.99862 1.14802e-17
4527.99547 1.21060e-17
4530.00251 1.19545e-17
4531.99936 1.17614e-17
4533.99620 1.23331e-17
4536.00324 1.21179e-17
4538.00009 1.21104e-17
4539.99694 1.21082e-17
4542.00397 1.32629e-17
4544.00082 1.30807e-17
4545.99767 1.25569e-17
4548.00470 1.27663e-17
4550.00155 1.26787e-17
4551.99840 1.32574e-17
4553.99525 1.36895e-17
4556.00228 1.41313e-17
4557.99913 1.42995e-17
4559.99598 1.32081e-17
4562.00302 1.34589e-17
4563.99986 1.36027e-17
4565.99671 1.38787e-17
4568.00375 1.41710e-17
4570.00060 1.39002e-17
4571.99744 1.39391e-17
4574.00448 1.45081e-17
4576.00133 1.44977e-17
4577.99818 1.50173e-17
4579.99502 1.55017e-17
4582.00206 1.53381e-17
4583.99891 1.49581e-17
4585.99576 1.50719e-17
4588.00279 1.56052e-17
4589.99964 1.61218e-17
4591.99649 1.56646e-17
4594.00352 1.54590e-17
4596.00037 1.54534e-17
4597.99722 1.58452e-17
4600.00426 1.68888e-17
4602.00110 1.66237e-17
4603.99795 1.60508e-17
4605.99480 1.61222e-17
4608.00184 1.66443e-17
4609.99868 1.71596e-17
4611.99553 1.64947e-17
4614.00257 1.58487e-17
4615.99942 1.64465e-17
4617.99626 1.64074e-17
4620.00330 1.67213e-17
4622.00015 1.75164e-17
4623.99700 1.74985e-17
4626.00403 1.70909e-17
4628.00088 1.74565e-17
4629.99773 1.71796e-17
4632.00476 1.65047e-17
4634.00161 1.66265e-17
4635.99846 1.64502e-17
4637.99531 1.68715e-17
4640.00234 1.73367e-17
4641.99919 1.69273e-17
4643.99604 1.75688e-17
4646.00308 1.75058e-17
4647.99992 1.83553e-17
4649.99677 1.80296e-17
4652.00381 1.66992e-17
4654.00066 1.67061e-17
4655.99750 1.76365e-17
4658.00454 1.72345e-17
4660.00139 1.71296e-17
4661.99824 1.75874e-17
4663.99508 1.72568e-17
4666.00212 1.71493e-17
4667.99897 1.69459e-17
4669.99582 1.73123e-17
4672.00285 1.75032e-17
4673.99970 1.75415e-17
4675.99655 1.72568e-17
4678.00358 1.71855e-17
4680.00043 1.66350e-17
4681.99728 1.61653e-17
4684.00432 1.60071e-17
4686.00116 1.64709e-17
4687.99801 1.64598e-17
4690.00505 1.66503e-17
4692.00190 1.69754e-17
4693.99874 1.62185e-17
4695.99559 1.59419e-17
4698.00263 1.64156e-17
4699.99948 1.60661e-17
4701.99632 1.54126e-17
4704.00336 1.49870e-17
4706.00021 1.56815e-17
4707.99706 1.51461e-17
4710.00409 1.51978e-17
4712.00094 1.50742e-17
4713.99779 1.40387e-17
4716.00482 1.39925e-17
4718.00167 1.42722e-17
4719.99852 1.52471e-17
4721.99537 1.45569e-17
4724.00240 1.49036e-17
4725.99925 1.39030e-17
4727.99610 1.37097e-17
4730.00314 1.46445e-17
4731.99998 1.41264e-17
4733.99683 1.40364e-17
4736.00387 1.43992e-17
4738.00072 1.43193e-17
4739.99756 1.41226e-17
4742.00460 1.32205e-17
4744.00145 1.26752e-17
4745.99830 1.34338e-17
4747.99514 1.35042e-17
4750.00218 1.30496e-17
4751.99903 1.26304e-17
4753.99588 1.27657e-17
4756.00291 1.29857e-17
4757.99976 1.26194e-17
4759.99661 1.21646e-17
4762.00364 1.28663e-17
4764.00049 1.29358e-17
4765.99734 1.23332e-17
4768.00438 1.25330e-17
4770.00122 1.22911e-17
4771.99807 1.17387e-17
4773.99492 1.15538e-17
4776.00196 1.13242e-17
4777.99880 1.16003e-17
4779.99565 1.13316e-17
4782.00269 1.13219e-17
4783.99954 1.14254e-17
4785.99638 1.12169e-17
4788.00342 1.05300e-17
4790.00027 1.10814e-17
4791.99712 1.05036e-17
4794.00415 1.02452e-17
4796.00100 1.04158e-17
4797.99785 1.05730e-17
4800.00488 1.05262e-17
4802.00173 1.00581e-17
4803.99858 1.01258e-17
4805.99543 1.06220e-17
4808.00246 1.06033e-17
4809.99931 1.04797e-17
4811.99616 1.03429e-17
4814.00320 1.03416e-17
4816.00004 1.05298e-17
4817.99689 1.05526e-17
4820.00393 1.08634e-17
4822.00078 1.09661e-17
4823.99762 1.10727e-17
4826.00466 1.12052e-17
4828.00151 1.07169e-17
4829.99836 1.03094e-17
4831.99520 1.02093e-17
4834.00224 1.06619e-17
4835.99909 1.13159e-17
4837.99594 1.17854e-17
4840.00297 1.15194e-17
4841.99982 1.07232e-17
4843.99667 1.04247e-17
4846.00370 1.05432e-17
4848.00055 1.07143e-17
4849.99740 1.06144e-17
4852.00444 1.06930e-17
4854.00128 1.07730e-17
4855.99813 1.10565e-17
4857.99498 1.09529e-17
4860.00202 1.10892e-17
4861.99886 1.14415e-17
4863.99571 1.09097e-17
4866.00275 1.08816e-17
4867.99960 1.07142e-17
4869.99644 1.09305e-17
4872.00348 1.06499e-17
4874.00033 1.02324e-17
4875.99718 9.86959e-18
4878.00421 1.03247e-17
4880.00106 1.07132e-17
4881.99791 1.05621e-17
4884.00494 1.06698e-17
4886.00179 1.06034e-17
4887.99864 1.10314e-17
4889.99549 1.07133e-17
4892.00252 1.02271e-17
4893.99937 1.03746e-17
4895.99622 1.04922e-17
4898.00326 1.01102e-17
4900.00010 1.03613e-17
4901.99695 1.07873e-17
4904.00399 1.03259e-17
4906.00084 1.05767e-17
4907.99768 1.06138e-17
4910.00472 1.08735e-17
4912.00157 1.10719e-17
4913.99842 1.08098e-17
4915.99526 1.06437e-17
4918.00230 1.09094e-17
4919.99915 1.11869e-17
4921.99600 1.08980e-17
4924.00303 1.09584e-17
4925.99988 1.12039e-17
4927.99673 1.12940e-17
4930.00376 1.15993e-17
4932.00061 1.21206e-17
4933.99746 1.17219e-17
4936.00450 1.18151e-17
4938.00134 1.19082e-17
4939.99819 1.20014e-17
4941.99504 1.20946e-17
4944.00208 1.21877e-17
4945.99892 1.22808e-17
4947.99577 1.23739e-17
4950.00281 1.24671e-17
4951.99966 1.25601e-17
4953.99650 1.26532e-17
4956.00354 1.27463e-17
4958.00039 1.28393e-17
4959.99724 1.29323e-17
4962.00427 1.30253e-17
4964.00112 1.31183e-17
4965.99797 1.32113e-17
4968.00500 1.33043e-17
4970.00185 1.33972e-17
4971.99870 1.34902e-17
4973.99555 1.36754e-17
4976.00258 1.36828e-17
4977.99943 1.39112e-17
4979.99628 1.36638e-17
4982.00332 1.28181e-17
4984.00016 1.34144e-17
4985.99701 1.43900e-17
4988.00405 1.40141e-17
4990.00090 1.33627e-17
4991.99774 1.37368e-17
4994.00478 1.41676e-17
4996.00163 1.30764e-17
4997.99848 1.27102e-17
4999.99532 1.26350e-17
5002.00236 1.22393e-17
5003.99921 1.24986e-17
5005.99606 1.21859e-17
5008.00309 1.17306e-17
5009.99994 1.17402e-17
5011.99679 1.22244e-17
5014.00382 1.19313e-17
5016.00067 1.19565e-17
5017.99752 1.13520e-17
5020.00456 1.09770e-17
5022.00140 1.13814e-17
5023.99825 1.11281e-17
5025.99510 1.06739e-17
5028.00214 1.07913e-17
5029.99898 1.01007e-17
5031.99583 1.02663e-17
5034.00287 1.02565e-17
5035.99972 1.02467e-17
5037.99656 1.02369e-17
5040.00360 1.02271e-17
5042.00045 1.02173e-17
5043.99730 1.02076e-17
5046.00433 1.01978e-17
5048.00118 1.01880e-17
5049.99803 1.01782e-17
5051.99488 1.01685e-17
5054.00191 1.01587e-17
5055.99876 1.01489e-17
5057.99561 1.01392e-17
5060.00264 1.01294e-17
5061.99949 1.01196e-17
5063.99634 1.01099e-17
5066.00338 1.01001e-17
5068.00022 1.00904e-17
5069.99707 1.00806e-17
5072.00411 1.00709e-17
5074.00096 9.34281e-18
5075.99780 1.04662e-17
5077.99465 1.07304e-17
5080.00169 1.00405e-17
5081.99854 9.84888e-18
5083.99538 9.88269e-18
5086.00242 9.91650e-18
5087.99927 9.95030e-18
5089.99612 9.98409e-18
5092.00315 1.00179e-17
5094.00000 1.00517e-17
5095.99685 1.00854e-17
5098.00388 1.01192e-17
5100.00073 1.01530e-17
5101.99758 1.01868e-17
5104.00462 1.02205e-17
5106.00146 1.02543e-17
5107.99831 1.02880e-17
5109.99516 1.03218e-17
5112.00220 1.03555e-17
5113.99904 1.03893e-17
5115.99589 1.04230e-17
5118.00293 1.04567e-17
5119.99978 1.04905e-17
5121.99662 1.00592e-17
5124.00366 1.07778e-17
5126.00051 1.09070e-17
5127.99736 1.09632e-17
5130.00439 1.07221e-17
5132.00124 1.06224e-17
5133.99809 1.05353e-17
5136.00512 1.05704e-17
5138.00197 1.12078e-17
5139.99882 1.13227e-17
5141.99567 1.07812e-17
5144.00270 1.01320e-17
5145.99955 1.06815e-17
5147.99640 1.15152e-17
5150.00344 1.19600e-17
5152.00028 1.17806e-17
5153.99713 1.16341e-17
5156.00417 1.11003e-17
5158.00102 1.08217e-17
5159.99786 1.15767e-17
5162.00490 1.15935e-17
5164.00175 1.16349e-17
5165.99860 1.18927e-17
5167.99544 1.14827e-17
5170.00248 1.14217e-17
5171.99933 1.19053e-17
5173.99618 1.15178e-17
5176.00321 1.10565e-17
5178.00006 1.14884e-17
5179.99691 1.17293e-17
5182.00394 1.09796e-17
5184.00079 1.09999e-17
5185.99764 1.16004e-17
5188.00468 1.17770e-17
5190.00152 1.23299e-17
5191.99837 1.19254e-17
5193.99522 1.16969e-17
5196.00226 1.20795e-17
5197.99910 1.22437e-17
5199.99595 1.21300e-17
5202.00299 1.19658e-17
5203.99984 1.28429e-17
5205.99668 1.23642e-17
5208.00372 1.19890e-17
5210.00057 1.21241e-17
5211.99742 1.28572e-17
5214.00445 1.30527e-17
5216.00130 1.20834e-17
5217.99815 1.22337e-17
5219.99500 1.28846e-17
5222.00203 1.29627e-17
5223.99888 1.23123e-17
5225.99573 1.25762e-17
5228.00276 1.27440e-17
5229.99961 1.26793e-17
5231.99646 1.24999e-17
5234.00350 1.24036e-17
5236.00034 1.30343e-17
5237.99719 1.31945e-17
5240.00423 1.29647e-17
5242.00108 1.26088e-17
5243.99792 1.29960e-17
5245.99477 1.27479e-17
5248.00181 1.27331e-17
5249.99866 1.33035e-17
5251.99550 1.33123e-17
5254.00254 1.41235e-17
5255.99939 1.38232e-17
5257.99624 1.35767e-17
5260.00327 1.38868e-17
5262.00012 1.37585e-17
5263.99697 1.37393e-17
5266.00400 1.35486e-17
5268.00085 1.44178e-17
5269.99770 1.50071e-17
5272.00474 1.49283e-17
5274.00158 1.49133e-17
5275.99843 1.46233e-17
5277.99528 1.42206e-17
5280.00232 1.48551e-17
5281.99916 1.47733e-17
5283.99601 1.48455e-17
5286.00305 1.48379e-17
5287.99990 1.54311e-17
5289.99674 1.48889e-17
5292.00378 1.47786e-17
5294.00063 1.54380e-17
5295.99748 1.62660e-17
5298.00451 1.55515e-17
5300.00136 1.49189e-17
5301.99821 1.58232e-17
5303.99506 1.56516e-17
5306.00209 1.54641e-17
5307.99894 1.53463e-17
5309.99579 1.57550e-17
5312.00282 1.59512e-17
5313.99967 1.56434e-17
5315.99652 1.57043e-17
5318.00356 1.52919e-17
5320.00040 1.52708e-17
5321.99725 1.61650e-17
5324.00429 1.67369e-17
5326.00114 1.62210e-17
5327.99798 1.64102e-17
5330.00502 1.66513e-17
5332.00187 1.64286e-17
5333.99872 1.60626e-17
5335.99556 1.64684e-17
5338.00260 1.70055e-17
5339.99945 1.70370e-17
5341.99630 1.73395e-17
5344.00333 1.68402e-17
5346.00018 1.69385e-17
5347.99703 1.71095e-17
5350.00406 1.71357e-17
5352.00091 1.66156e-17
5353.99776 1.70511e-17
5356.00480 1.68721e-17
5358.00164 1.70822e-17
5359.99849 1.71334e-17
5361.99534 1.69329e-17
5364.00238 1.77502e-17
5365.99922 1.67977e-17
5367.99607 1.74388e-17
5370.00311 1.68987e-17
5371.99996 1.65838e-17
5373.99680 1.69755e-17
5376.00384 1.73241e-17
5378.00069 1.67943e-17
5379.99754 1.73767e-17
5382.00457 1.73245e-17
5384.00142 1.63983e-17
5385.99827 1.65395e-17
5387.99512 1.70641e-17
5390.00215 1.72034e-17
5391.99900 1.72408e-17
5393.99585 1.75591e-17
5396.00288 1.73341e-17
5397.99973 1.66917e-17
5399.99658 1.71291e-17
5402.00362 1.71850e-17
5404.00046 1.74694e-17
5405.99731 1.73642e-17
5408.00435 1.71762e-17
5410.00120 1.71156e-17
5411.99804 1.70832e-17
5413.99489 1.72193e-17
5416.00193 1.75851e-17
5417.99878 1.75118e-17
5419.99562 1.65563e-17
5422.00266 1.64486e-17
5423.99951 1.72751e-17
5425.99636 1.75725e-17
5428.00339 1.71320e-17
5430.00024 1.76239e-17
5431.99709 1.71964e-17
5434.00412 1.73052e-17
5436.00097 1.75133e-17
5437.99782 1.77935e-17
5440.00486 1.77582e-17
5442.00170 1.76001e-17
5443.99855 1.71376e-17
5445.99540 1.73551e-17
5448.00244 1.75364e-17
5449.99928 1.72341e-17
5451.99613 1.77991e-17
5454.00317 1.79490e-17
5456.00002 1.71058e-17
5457.99686 1.76983e-17
5460.00390 1.70900e-17
5462.00075 1.71982e-17
5463.99760 1.65770e-17
5466.00463 1.68820e-17
5468.00148 1.73324e-17
5469.99833 1.69103e-17
5471.99518 1.66913e-17
5474.00221 1.70859e-17
5475.99906 1.75518e-17
5477.99591 1.76265e-17
5480.00294 1.71227e-17
5481.99979 1.71622e-17
5483.99664 1.80992e-17
5486.00368 1.81258e-17
5488.00052 1.78687e-17
5489.99737 1.79914e-17
5492.00441 1.83290e-17
5494.00126 1.82519e-17
5495.99810 1.84223e-17
5497.99495 1.85797e-17
5500.00199 1.85832e-17
5501.99884 1.91855e-17
5503.99568 1.93766e-17
5506.00272 1.92166e-17
5507.99957 1.95470e-17
5509.99642 1.92011e-17
5512.00345 1.91993e-17
5514.00030 1.96786e-17
5515.99715 1.93613e-17
5518.00418 1.91052e-17
5520.00103 1.95296e-17
5521.99788 1.89790e-17
5523.99473 1.95344e-17
5526.00176 2.00837e-17
5527.99861 1.91768e-17
5529.99546 1.99350e-17
5532.00250 2.02392e-17
5533.99934 1.92704e-17
5535.99619 2.01028e-17
5538.00323 1.97787e-17
5540.00008 1.90921e-17
5541.99692 2.00101e-17
5544.00396 2.04145e-17
5546.00081 2.04009e-17
5547.99766 1.88721e-17
5550.00469 1.83729e-17
5552.00154 1.92819e-17
5553.99839 1.92751e-17
5555.99524 1.94857e-17
5558.00227 2.02321e-17
5559.99912 1.99485e-17
5561.99597 1.92709e-17
5564.00300 1.91298e-17
5565.99985 1.90045e-17
5567.99670 1.90145e-17
5570.00374 1.86654e-17
5572.00058 1.88349e-17
5573.99743 1.96983e-17
5576.00447 1.87946e-17
5578.00132 1.71978e-17
5579.99816 1.72538e-17
5581.99501 1.79819e-17
5584.00205 1.74965e-17
5585.99890 1.74486e-17
5587.99574 1.78741e-17
5590.00278 1.78475e-17
5591.99963 1.74697e-17
5593.99648 1.67535e-17
5596.00351 1.66061e-17
5598.00036 1.69714e-17
5599.99721 1.68346e-17
5602.00424 1.66513e-17
5604.00109 1.70408e-17
5605.99794 1.69672e-17
5608.00498 1.64211e-17
5610.00182 1.60728e-17
5611.99867 1.67404e-17
5613.99552 1.64447e-17
5616.00256 1.59490e-17
5617.99940 1.66460e-17
5619.99625 1.68087e-17
5622.00329 1.56019e-17
5624.00014 1.55826e-17
5625.99698 1.63787e-17
5628.00402 1.63340e-17
5630.00087 1.55386e-17
5631.99772 1.55139e-17
5634.00475 1.49876e-17
5636.00160 1.56812e-17
5637.99845 1.55104e-17
5639.99530 1.49129e-17
5642.00233 1.48925e-17
5643.99918 1.52691e-17
5645.99603 1.47420e-17
5648.00306 1.39899e-17
5649.99991 1.48053e-17
5651.99676 1.54473e-17
5654.00380 1.46901e-17
5656.00064 1.42850e-17
5657.99749 1.44276e-17
5660.00453 1.42027e-17
5662.00138 1.41842e-17
5663.99822 1.45309e-17
5665.99507 1.39558e-17
5668.00211 1.33380e-17
5669.99896 1.39044e-17
5671.99580 1.37877e-17
5674.00284 1.34812e-17
5675.99969 1.35495e-17
5677.99654 1.39645e-17
5680.00357 1.37679e-17
5682.00042 1.26511e-17
5683.99727 1.40056e-17
5686.00430 1.36339e-17
5688.00115 1.32402e-17
5689.99800 1.39339e-17
5691.99485 1.29180e-17
5694.00188 1.27366e-17
5695.99873 1.27135e-17
5697.99558 1.27763e-17
5700.00262 1.28725e-17
5701.99946 1.23814e-17
5703.99631 1.28664e-17
5706.00335 1.25438e-17
5708.00020 1.24717e-17
5709.99704 1.18497e-17
5712.00408 1.19953e-17
5714.00093 1.20324e-17
5715.99778 1.19532e-17
5718.00481 1.13581e-17
5720.00166 1.06838e-17
5721.99851 1.07297e-17
5723.99536 1.11723e-17
5726.00239 1.07712e-17
5727.99924 1.04366e-17
5729.99609 1.03355e-17
5732.00312 1.09235e-17
5733.99997 1.06975e-17
5735.99682 1.01292e-17
5738.00386 1.06999e-17
5740.00070 1.09079e-17
5741.99755 1.06897e-17
5744.00459 1.09080e-17
5746.00144 1.04671e-17
5747.99828 1.02912e-17
5749.99513 1.02887e-17
5752.00217 1.12488e-17
5753.99902 1.03913e-17
5755.99586 1.09234e-17
5758.00290 1.10019e-17
5759.99975 9.93266e-18
5761.99660 1.00340e-17
5764.00363 1.05759e-17
5766.00048 1.16462e-17
5767.99733 1.24083e-17
5770.00436 1.07769e-17
5772.00121 1.05007e-17
5773.99806 1.08284e-17
5776.00510 1.04587e-17
5778.00194 9.81540e-18
5779.99879 1.03592e-17
5781.99564 1.05150e-17
5784.00268 1.05089e-17
5785.99952 1.03822e-17
5787.99637 1.06109e-17
5790.00341 1.09399e-17
5792.00026 1.03650e-17
5793.99710 1.00243e-17
5796.00414 1.01283e-17
5798.00099 9.86845e-18
5799.99784 9.87337e-18
5802.00487 1.01208e-17
5804.00172 1.00479e-17
5805.99857 9.54769e-18
5807.99542 9.65373e-18
5810.00245 1.05854e-17
5811.99930 1.01219e-17
5813.99615 1.01231e-17
5816.00318 1.10331e-17
5818.00003 1.05413e-17
5819.99688 1.07884e-17
5822.00392 1.14241e-17
5824.00076 1.12458e-17
5825.99761 1.10724e-17
5828.00465 1.13910e-17
5830.00150 1.17885e-17
5831.99834 1.14693e-17
5833.99519 1.13196e-17
5836.00223 1.04374e-17
5837.99908 1.07444e-17
5839.99592 1.11038e-17
5842.00296 1.12942e-17
5843.99981 1.10119e-17
5845.99666 1.06443e-17
5848.00369 1.08588e-17
5850.00054 1.08369e-17
5851.99739 1.06888e-17
5854.00442 1.11222e-17
5856.00127 1.07614e-17
5857.99812 1.08662e-17
5859.99497 1.10683e-17
5862.00200 1.07901e-17
5863.99885 1.08377e-17
5865.99570 1.04772e-17
5868.00274 1.00156e-17
5869.99958 1.09234e-17
5871.99643 1.11301e-17
5874.00347 1.17193e-17
5876.00032 1.11837e-17
5877.99716 1.09914e-17
5880.00420 1.11456e-17
5882.00105 1.14184e-17
5883.99790 1.22091e-17
5886.00493 1.25803e-17
5888.00178 1.19276e-17
5889.99863 1.15057e-17
5891.99548 1.10811e-17
5894.00251 1.11947e-17
5895.99936 1.21727e-17
5897.99621 1.18772e-17
5900.00324 1.16513e-17
5902.00009 1.21503e-17
5903.99694 1.24942e-17
5906.00398 1.27121e-17
5908.00082 1.17482e-17
5909.99767 1.12118e-17
5912.00471 1.23009e-17
5914.00156 1.34333e-17
5915.99840 1.33621e-17
5917.99525 1.29209e-17
5920.00229 1.25817e-17
5921.99914 1.27091e-17
5923.99598 1.27724e-17
5926.00302 1.24364e-17
5927.99987 1.24382e-17
5929.99672 1.22078e-17
5932.00375 1.20621e-17
5934.00060 1.32660e-17
5935.99745 1.34401e-17
5938.00448 1.33290e-17
5940.00133 1.30929e-17
5941.99818 1.14820e-17
5943.99503 1.16716e-17
5946.00206 1.32856e-17
5947.99891 1.28775e-17
5949.99576 1.16371e-17
5952.00280 1.12455e-17
5953.99964 1.12790e-17
5955.99649 1.12816e-17
5958.00353 1.12842e-17
5960.00038 1.12868e-17
5961.99722 1.12895e-17
5964.00426 1.12921e-17
5966.00111 1.12947e-17
5967.99796 1.12973e-17
5969.99480 1.12999e-17
5972.00184 1.13025e-17
5973.99869 1.13051e-17
5975.99554 1.13077e-17
5978.00257 1.13103e-17
5979.99942 1.13130e-17
5981.99627 1.13156e-17
5984.00330 1.13182e-17
5986.00015 1.13208e-17
5987.99700 1.13234e-17
5990.00404 1.13260e-17
5992.00088 1.13286e-17
5993.99773 1.13313e-17
5995.99458 1.13339e-17
5998.00162 1.13365e-17
5999.99846 1.13391e-17
6001.99531 1.13417e-17
6004.00235 1.13443e-17
6005.99920 1.13470e-17
6007.99604 1.13496e-17
6010.00308 1.13522e-17
6011.99993 1.13548e-17
6013.99678 1.13574e-17
6016.00381 1.13601e-17
6018.00066 1.13627e-17
6019.99751 1.11514e-17
6022.00454 1.17589e-17
6024.00139 1.14006e-17
6025.99824 1.15503e-17
6027.99509 1.15267e-17
6030.00212 1.14522e-17
6031.99897 1.18459e-17
6033.99582 1.18411e-17
6036.00286 1.17878e-17
6037.99970 1.12473e-17
6039.99655 1.09859e-17
6042.00359 1.09998e-17
6044.00044 1.16063e-17
6045.99728 1.19927e-17
6048.00432 1.19073e-17
6050.00117 1.17076e-17
6051.99802 1.15676e-17
6054.00505 1.14851e-17
6056.00190 1.16940e-17
6057.99875 1.20265e-17
6059.99560 1.17602e-17
6062.00263 1.16439e-17
6063.99948 1.15075e-17
6065.99633 1.18590e-17
6068.00336 1.22267e-17
6070.00021 1.11726e-17
6071.99706 1.06990e-17
6074.00410 1.10242e-17
6076.00094 1.08580e-17
6077.99779 1.06922e-17
6080.00483 1.17210e-17
6082.00168 1.14129e-17
6083.99852 1.07560e-17
6085.99537 1.11817e-17
6088.00241 1.13711e-17
6089.99926 1.13917e-17
6091.99610 1.13241e-17
6094.00314 1.15712e-17
6095.99999 1.11840e-17
6097.99684 1.15185e-17
6100.00387 1.14866e-17
6102.00072 1.08668e-17
6103.99757 1.08974e-17
6106.00460 1.10148e-17
6108.00145 1.13849e-17
6109.99830 1.13947e-17
6111.99515 1.15902e-17
6114.00218 1.14876e-17
6115.99903 1.13632e-17
6117.99588 1.14286e-17
6120.00292 1.16590e-17
6121.99976 1.12391e-17
6123.99661 1.10561e-17
6126.00365 1.15010e-17
6128.00050 1.15628e-17
6129.99734 1.11106e-17
6132.00438 1.11415e-17
6134.00123 1.13238e-17
6135.99808 1.12965e-17
6137.99492 1.12764e-17
6140.00196 1.13801e-17
6141.99881 1.14286e-17
6143.99566 1.14912e-17
6146.00269 1.11507e-17
6147.99954 1.10767e-17
6149.99639 1.18775e-17
6152.00342 1.22667e-17
6154.00027 1.22215e-17
6155.99712 1.18572e-17
6158.00416 1.20229e-17
6160.00100 1.20626e-17
6161.99785 1.16851e-17
6163.99470 1.13662e-17
6166.00174 1.10655e-17
6167.99858 1.10620e-17
6169.99543 1.15317e-17
6172.00247 1.20076e-17
6173.99932 1.17885e-17
6175.99616 1.17750e-17
6178.00320 1.20986e-17
6180.00005 1.14907e-17
6181.99690 1.10929e-17
6184.00393 1.11385e-17
6186.00078 1.13223e-17
6187.99763 1.20362e-17
6190.00466 1.21978e-17
6192.00151 1.21339e-17
6193.99836 1.25361e-17
6195.99521 1.20820e-17
6198.00224 1.22097e-17
6199.99909 1.18198e-17
6201.99594 1.14434e-17
6204.00298 1.16026e-17
6205.99982 1.11884e-17
6207.99667 1.17151e-17
6210.00371 1.23205e-17
6212.00056 1.23651e-17
6213.99740 1.21083e-17
6216.00444 1.21376e-17
6218.00129 1.20877e-17
6219.99814 1.21339e-17
6221.99498 1.22452e-17
6224.00202 1.22871e-17
6225.99887 1.29721e-17
6227.99572 1.32135e-17
6230.00275 1.30308e-17
6231.99960 1.27801e-17
6233.99645 1.22561e-17
6236.00348 1.20407e-17
6238.00033 1.23654e-17
6239.99718 1.28214e-17
6242.00422 1.28014e-17
6244.00106 1.34890e-17
6245.99791 1.40231e-17
6248.00495 1.37274e-17
6250.00180 1.38342e-17
6251.99864 1.33003e-17
6253.99549 1.24891e-17
6256.00253 1.34194e-17
6257.99938 1.39211e-17
6259.99622 1.39212e-17
6262.00326 1.34072e-17
6264.00011 1.35984e-17
6265.99696 1.32631e-17
6268.00399 1.24847e-17
6270.00084 1.36560e-17
6271.99769 1.28857e-17
6274.00472 1.22237e-17
6276.00157 1.24044e-17
6277.99842 1.27177e-17
6279.99527 1.27471e-17
6282.00230 1.27478e-17
6283.99915 1.33470e-17
6285.99600 1.30651e-17
6288.00304 1.24552e-17
6289.99988 1.27234e-17
6291.99673 1.26590e-17
6294.00377 1.31913e-17
6296.00062 1.39428e-17
6297.99746 1.27427e-17
6300.00450 1.24791e-17
6302.00135 1.37833e-17
6303.99820 1.30601e-17
6305.99504 1.16457e-17
6308.00208 1.15184e-17
6309.99893 1.21620e-17
6311.99578 1.25145e-17
6314.00281 1.22322e-17
6315.99966 1.19923e-17
6317.99651 1.24212e-17
6320.00354 1.23030e-17
6322.00039 1.19122e-17
6323.99724 1.21988e-17
6326.00428 1.25384e-17
6328.00112 1.24785e-17
6329.99797 1.24112e-17
6331.99482 1.23505e-17
6334.00186 1.22824e-17
6335.99870 1.19240e-17
6337.99555 1.16502e-17
6340.00259 1.18380e-17
6341.99944 1.21010e-17
6343.99628 1.24771e-17
6346.00332 1.19987e-17
6348.00017 1.21810e-17
6349.99702 1.29518e-17
6352.00405 1.33264e-17
6354.00090 1.32020e-17
6355.99775 1.23026e-17
6358.00478 1.21610e-17
6360.00163 1.25073e-17
6361.99848 1.19657e-17
6363.99533 1.10952e-17
6366.00236 1.14800e-17
6367.99921 1.16367e-17
6369.99606 1.15992e-17
6372.00310 1.24416e-17
6373.99994 1.26532e-17
6375.99679 1.21346e-17
6378.00383 1.17948e-17
6380.00068 1.18213e-17
6381.99752 1.19195e-17
6384.00456 1.18744e-17
6386.00141 1.21732e-17
6387.99826 1.23247e-17
6389.99510 1.23457e-17
6392.00214 1.24207e-17
6393.99899 1.25422e-17
6395.99584 1.29612e-17
6398.00287 1.24532e-17
6399.99972 1.19658e-17
6401.99657 1.21447e-17
6404.00360 1.21503e-17
6406.00045 1.27818e-17
6407.99730 1.26258e-17
6410.00434 1.27555e-17
6412.00118 1.31892e-17
6413.99803 1.31198e-17
6415.99488 1.38068e-17
6418.00192 1.51463e-17
6419.99876 1.44893e-17
6421.99561 1.35522e-17
6424.00265 1.38072e-17
6425.99950 1.30275e-17
6427.99634 1.30534e-17
6430.00338 1.40801e-17
6432.00023 1.43205e-17
6433.99708 1.41022e-17
6436.00411 1.45400e-17
6438.00096 1.46048e-17
6439.99781 1.41369e-17
6441.99466 1.41223e-17
6444.00169 1.38387e-17
6445.99854 1.39218e-17
6447.99539 1.43261e-17
6450.00242 1.46945e-17
6451.99927 1.42172e-17
6453.99612 1.37167e-17
6456.00316 1.44659e-17
6458.00000 1.46910e-17
6459.99685 1.47364e-17
6462.00389 1.44922e-17
6464.00074 1.38369e-17
6465.99758 1.42422e-17
6468.00462 1.54540e-17
6470.00147 1.59461e-17
6471.99832 1.50398e-17
6473.99516 1.38937e-17
6476.00220 1.40666e-17
6477.99905 1.44507e-17
6479.99590 1.47242e-17
6482.00293 1.48393e-17
6483.99978 1.52521e-17
6485.99663 1.56351e-17
6488.00366 1.45408e-17
6490.00051 1.35743e-17
6491.99736 1.45261e-17
6494.00440 1.52316e-17
6496.00124 1.47167e-17
6497.99809 1.47168e-17
6499.99494 1.55073e-17
6502.00198 1.50295e-17
6503.99882 1.46226e-17
6505.99567 1.47690e-17
6508.00271 1.47435e-17
6509.99956 1.49345e-17
6511.99640 1.49807e-17
6514.00344 1.54296e-17
6516.00029 1.48817e-17
6517.99714 1.45958e-17
6520.00417 1.57354e-17
6522.00102 1.55436e-17
6523.99787 1.51714e-17
6526.00490 1.47097e-17
6528.00175 1.42843e-17
6529.99860 1.40352e-17
6531.99545 1.38178e-17
6534.00248 1.39350e-17
6535.99933 1.46790e-17
6537.99618 1.44653e-17
6540.00322 1.37761e-17
6542.00006 1.40451e-17
6543.99691 1.42890e-17
6546.00395 1.34788e-17
6548.00080 1.38680e-17
6549.99764 1.44568e-17
6552.00468 1.41327e-17
6554.00153 1.39646e-17
6555.99838 1.41335e-17
6557.99522 1.41987e-17
6560.00226 1.36322e-17
6561.99911 1.28928e-17
6563.99596 1.32671e-17
6566.00299 1.34852e-17
6567.99984 1.38200e-17
6569.99669 1.40565e-17
6572.00372 1.42649e-17
6574.00057 1.40593e-17
6575.99742 1.34719e-17
6578.00446 1.23766e-17
6580.00130 1.23413e-17
6581.99815 1.31325e-17
6583.99500 1.30800e-17
6586.00204 1.24889e-17
6587.99888 1.25866e-17
6589.99573 1.31344e-17
6592.00277 1.30249e-17
6593.99962 1.35843e-17
6595.99646 1.36713e-17
6598.00350 1.23623e-17
6600.00035 1.15886e-17
6601.99720 1.24138e-17
6604.00423 1.23672e-17
6606.00108 1.24456e-17
6607.99793 1.27926e-17
6609.99478 1.21741e-17
6612.00181 1.25182e-17
6613.99866 1.29981e-17
6615.99551 1.23931e-17
6618.00254 1.25491e-17
6619.99939 1.30044e-17
6621.99624 1.24230e-17
6624.00328 1.24720e-17
6626.00012 1.24431e-17
6627.99697 1.21452e-17
6630.00401 1.19605e-17
6632.00086 1.16100e-17
6633.99770 1.20506e-17
6636.00474 1.23419e-17
6638.00159 1.17227e-17
6639.99844 1.14201e-17
6641.99528 1.18756e-17
6644.00232 1.23431e-17
6645.99917 1.26711e-17
6647.99602 1.26276e-17
6650.00305 1.19028e-17
6651.99990 1.16705e-17
6653.99675 1.16306e-17
6656.00378 1.15908e-17
6658.00063 1.15509e-17
6659.99748 1.15111e-17
6662.00452 1.14712e-17
6664.00136 1.14314e-17
6665.99821 1.13915e-17
6667.99506 1.13517e-17
6670.00210 1.13118e-17
6671.99894 1.12720e-17
6673.99579 1.12322e-17
6676.00283 1.11924e-17
6677.99968 1.11525e-17
6679.99652 1.11127e-17
6682.00356 1.10729e-17
6684.00041 1.10331e-17
6685.99726 1.09932e-17
6688.00429 1.09534e-17
6690.00114 1.09136e-17
6691.99799 1.08552e-17
6694.00502 1.07967e-17
6696.00187 1.07382e-17
6697.99872 1.06798e-17
6699.99557 1.06213e-17
6702.00260 1.05629e-17
6703.99945 1.05044e-17
6705.99630 1.04460e-17
6708.00334 1.03875e-17
6710.00018 1.03291e-17
6711.99703 1.02707e-17
6714.00407 1.02122e-17
6716.00092 1.01538e-17
6717.99776 1.00954e-17
6720.00480 1.00370e-17
6722.00165 9.97859e-18
6723.99850 9.92017e-18
6725.99534 9.86178e-18
6728.00238 1.03494e-17
6729.99923 1.11517e-17
6731.99608 1.01441e-17
6734.00311 9.63367e-18
6735.99996 1.01513e-17
6737.99681 1.05163e-17
6740.00384 1.00816e-17
6742.00069 9.08954e-18
6743.99754 9.18804e-18
6746.00458 9.95630e-18
6748.00142 1.06375e-17
6749.99827 9.90435e-18
6751.99512 9.49655e-18
6754.00216 9.64737e-18
6755.99900 9.40160e-18
6757.99585 1.01000e-17
6760.00289 1.00532e-17
6761.99974 1.01646e-17
6763.99658 1.05780e-17
6766.00362 9.76048e-18
6768.00047 9.89831e-18
6769.99732 9.35081e-18
6772.00435 8.87800e-18
6774.00120 9.73184e-18
6775.99805 9.81183e-18
6777.99490 9.52301e-18
6780.00193 9.28152e-18
6781.99878 9.37935e-18
6783.99563 9.61571e-18
6786.00266 9.35509e-18
6787.99951 9.16316e-18
6789.99636 9.32434e-18
6792.00340 9.10241e-18
6794.00024 8.57270e-18
6795.99709 8.92971e-18
6798.00413 9.10549e-18
6800.00098 8.59957e-18
6801.99782 8.86207e-18
6804.00486 8.68875e-18
6806.00171 8.74392e-18
6807.99856 9.08821e-18
6809.99540 8.57397e-18
6812.00244 8.02851e-18
6813.99929 8.54423e-18
6815.99614 9.12985e-18
6818.00317 8.96605e-18
6820.00002 8.56769e-18
6821.99687 9.05709e-18
6824.00390 9.61817e-18
6826.00075 9.59432e-18
6827.99760 9.57046e-18
6830.00464 9.54661e-18
6832.00148 9.52276e-18
6833.99833 9.49891e-18
6835.99518 9.47507e-18
6838.00222 9.45122e-18
6839.99906 9.35527e-18
6841.99591 9.25934e-18
6844.00295 9.16338e-18
6845.99980 9.06746e-18
6847.99664 8.97151e-18
6850.00368 8.87560e-18
6852.00053 8.77967e-18
6853.99738 8.68377e-18
6856.00441 8.58788e-18
6858.00126 8.49197e-18
6859.99811 8.39609e-18
6862.00514 8.30019e-18
6864.00199 8.20433e-18
6865.99884 8.10847e-18
6867.99569 8.01259e-18
6870.00272 7.91674e-18
6871.99957 7.82088e-18
6873.99642 7.72504e-18
6876.00346 7.62919e-18
6878.00030 7.77844e-18
6879.99715 7.75155e-18
6882.00419 7.71341e-18
6884.00104 7.60701e-18
6885.99788 8.51204e-18
6888.00492 8.04233e-18
6890.00177 7.31591e-18
6891.99862 7.49932e-18
6893.99546 6.50470e-18
6896.00250 6.97848e-18
6897.99935 7.06119e-18
6899.99620 7.22476e-18
6902.00323 7.48555e-18
6904.00008 7.05750e-18
6905.99693 7.15258e-18
6908.00396 7.39489e-18
6910.00081 7.53186e-18
6911.99766 7.54012e-18
6914.00470 7.09368e-18
6916.00154 8.28538e-18
6917.99839 7.75990e-18
6919.99524 7.02689e-18
6922.00228 7.84532e-18
6923.99912 7.35508e-18
6925.99597 7.71510e-18
6928.00301 6.71520e-18
6929.99986 7.01284e-18
6931.99670 7.28886e-18
6934.00374 7.18512e-18
6936.00059 7.80882e-18
6937.99744 7.65955e-18
6940.00447 8.08426e-18
6942.00132 7.55746e-18
6943.99817 6.97559e-18
6945.99502 7.44747e-18
6948.00205 8.40736e-18
6949.99890 8.28743e-18
6951.99575 8.20291e-18
6954.00278 8.35664e-18
6955.99963 7.93929e-18
6957.99648 7.45594e-18
6960.00352 7.68410e-18
6962.00036 8.14012e-18
6963.99721 7.82710e-18
6966.00425 7.23337e-18
6968.00110 7.19618e-18
6969.99794 8.26390e-18
6972.00498 8.45625e-18
6974.00183 7.90765e-18
6975.99868 8.45151e-18
6977.99552 9.00692e-18
6980.00256 7.96434e-18
6981.99941 7.34704e-18
6983.99626 7.86408e-18
6986.00329 8.80461e-18
6988.00014 8.35988e-18
6989.99699 8.73123e-18
6992.00402 8.79799e-18
6994.00087 8.37085e-18
6995.99772 8.40391e-18
6998.00476 8.80036e-18
7000.00160 8.86574e-18
7001.99845 8.54262e-18
7003.99530 8.79755e-18
7006.00234 9.31239e-18
7007.99918 9.40527e-18
7009.99603 9.18754e-18
7012.00307 7.85900e-18
7013.99992 8.81934e-18
7015.99676 8.93010e-18
7018.00380 9.04882e-18
7020.00065 8.66631e-18
7021.99750 9.33330e-18
7024.00453 9.12347e-18
7026.00138 9.10302e-18
7027.99823 9.66916e-18
7029.99508 9.42286e-18
7032.00211 9.57409e-18
7033.99896 9.86070e-18
7035.99581 8.97693e-18
7038.00284 8.88283e-18
7039.99969 9.00138e-18
7041.99654 9.18212e-18
7044.00358 9.27506e-18
7046.00042 9.23061e-18
7047.99727 8.86484e-18
7050.00431 9.63372e-18
7052.00116 1.01456e-17
7053.99800 8.95764e-18
7055.99485 8.54774e-18
7058.00189 9.13665e-18
7059.99874 9.05202e-18
7061.99558 9.03989e-18
7064.00262 8.85503e-18
7065.99947 8.42817e-18
7067.99632 8.10881e-18
7070.00335 8.68009e-18
7072.00020 8.51510e-18
7073.99705 9.12409e-18
7076.00408 8.44452e-18
7078.00093 9.08588e-18
7079.99778 8.50009e-18
7081.99463 8.72945e-18
7084.00166 8.33817e-18
7085.99851 8.22380e-18
7087.99536 8.20060e-18
7090.00240 7.87104e-18
7091.99924 8.03789e-18
7093.99609 8.02889e-18
7096.00313 7.65076e-18
7097.99998 7.13167e-18
7099.99682 7.85383e-18
7102.00386 7.72865e-18
7104.00071 7.46991e-18
7105.99756 8.20504e-18
7108.00459 8.67947e-18
7110.00144 8.71043e-18
7111.99829 7.95429e-18
7113.99514 7.62825e-18
7116.00217 8.09196e-18
7117.99902 8.93381e-18
7119.99587 8.26562e-18
7122.00290 8.43504e-18
7123.99975 8.93365e-18
7125.99660 7.84007e-18
7128.00364 7.89395e-18
7130.00048 8.44015e-18
7131.99733 8.81521e-18
7134.00437 9.09322e-18
7136.00122 8.47804e-18
7137.99806 8.13018e-18
7139.99491 8.09082e-18
7142.00195 7.90927e-18
7143.99880 8.09203e-18
7145.99564 7.70884e-18
7148.00268 8.11832e-18
7149.99953 7.64320e-18
7151.99638 7.18856e-18
7154.00341 7.46516e-18
7156.00026 8.23794e-18
7157.99711 8.08590e-18
7160.00414 7.90155e-18
7162.00099 8.51378e-18
7163.99784 7.60813e-18
7166.00488 7.94126e-18
7168.00172 8.04773e-18
7169.99857 8.03346e-18
7171.99542 8.68842e-18
7174.00246 8.71271e-18
7175.99930 7.91486e-18
7177.99615 7.87766e-18
7180.00319 8.13562e-18
7182.00004 9.11465e-18
7183.99688 9.01668e-18
7186.00392 8.59278e-18
7188.00077 8.76394e-18
7189.99762 8.92585e-18
7192.00465 8.65603e-18
7194.00150 8.81704e-18
7195.99835 8.94955e-18
7197.99520 9.55406e-18
7200.00223 9.79055e-18
7201.99908 9.30554e-18
7203.99593 9.40307e-18
7206.00296 9.82096e-18
7207.99981 8.66993e-18
7209.99666 8.11823e-18
7212.00370 9.61494e-18
7214.00054 9.69408e-18
7215.99739 9.52028e-18
7218.00443 9.58757e-18
7220.00128 9.36807e-18
7221.99812 9.32789e-18
7223.99497 8.90751e-18
7226.00201 9.35339e-18
7227.99886 9.58646e-18
7229.99570 9.89167e-18
7232.00274 9.96592e-18
7233.99959 1.04149e-17
7235.99644 1.07925e-17
7238.00347 1.05475e-17
7240.00032 9.99433e-18
7241.99717 1.00697e-17
7244.00420 1.10431e-17
7246.00105 1.08814e-17
7247.99790 1.02954e-17
7249.99475 1.00525e-17
7252.00178 9.80417e-18
7253.99863 1.00022e-17
7255.99548 1.01749e-17
7258.00252 1.03193e-17
7259.99936 1.07350e-17
7261.99621 1.06811e-17
7264.00325 1.04106e-17
7266.00010 1.13239e-17
7267.99694 1.24936e-17
7270.00398 1.28768e-17
7272.00083 1.21553e-17
7273.99768 1.15785e-17
7276.00471 1.10457e-17
7278.00156 1.10989e-17
7279.99841 1.21415e-17
7281.99526 1.14457e-17
7284.00229 1.03644e-17
7285.99914 1.07460e-17
7287.99599 1.13176e-17
7290.00302 1.15578e-17
7291.99987 1.13921e-17
7293.99672 1.10676e-17
7296.00376 1.11560e-17
7298.00060 1.24354e-17
7299.99745 1.26346e-17
7302.00449 1.22051e-17
7304.00134 1.24471e-17
7305.99818 1.17836e-17
7307.99503 1.20475e-17
7310.00207 1.23642e-17
7311.99892 1.21135e-17
7313.99576 1.35577e-17
7316.00280 1.33511e-17
7317.99965 1.17932e-17
7319.99650 1.22553e-17
7322.00353 1.16995e-17
7324.00038 1.19332e-17
7325.99723 1.25311e-17
7328.00426 1.30019e-17
7330.00111 1.27662e-17
7331.99796 1.21049e-17
7334.00500 1.21746e-17
7336.00184 1.22443e-17
7337.99869 1.23140e-17
7339.99554 1.23837e-17
7342.00258 1.23833e-17
7343.99942 1.15658e-17
7345.99627 1.12449e-17
7348.00331 1.12032e-17
7350.00016 1.23330e-17
7351.99700 1.24517e-17
7354.00404 1.20161e-17
7356.00089 1.24055e-17
7357.99774 1.30072e-17
7360.00477 1.36874e-17
7362.00162 1.31114e-17
7363.99847 1.21756e-17
7365.99532 1.18731e-17
7368.00235 1.15955e-17
7369.99920 1.20783e-17
7371.99605 1.29801e-17
7374.00308 1.26733e-17
7375.99993 1.38037e-17
7377.99678 1.32924e-17
7380.00382 1.20451e-17
7382.00066 1.26867e-17
7383.99751 1.25217e-17
7386.00455 1.24012e-17
7388.00140 1.36760e-17
7389.99824 1.26459e-17
7391.99509 1.28733e-17
7394.00213 1.20771e-17
7395.99898 1.14837e-17
7397.99582 1.14833e-17
7400.00286 1.24029e-17
7401.99971 1.19153e-17
7403.99656 1.24118e-17
7406.00359 1.11178e-17
7408.00044 1.11619e-17
7409.99729 1.10649e-17
7412.00432 1.06919e-17
7414.00117 1.02870e-17
7415.99802 1.07371e-17
7417.99487 1.16510e-17
7420.00190 1.21373e-17
7421.99875 1.15977e-17
7423.99560 1.09153e-17
7426.00264 1.09123e-17
7427.99948 1.11820e-17
7429.99633 1.14424e-17
7432.00337 1.10698e-17
7434.00022 1.08623e-17
7435.99706 1.17427e-17
7438.00410 1.21432e-17
7440.00095 1.19121e-17
7441.99780 1.21483e-17
7444.00483 1.21373e-17
7446.00168 1.15423e-17
7447.99853 1.10460e-17
7449.99538 1.15300e-17
7452.00241 1.22404e-17
7453.99926 1.21559e-17
7455.99611 1.24933e-17
7458.00314 1.28094e-17
7459.99999 1.27750e-17
7461.99684 1.20163e-17
7464.00388 1.20688e-17
7466.00072 1.24393e-17
7467.99757 1.32197e-17
7470.00461 1.19314e-17
7472.00146 1.09543e-17
7473.99830 1.03623e-17
7475.99515 1.18084e-17
7478.00219 1.22907e-17
7479.99904 1.04020e-17
7481.99588 1.04752e-17
7484.00292 1.10058e-17
7485.99977 1.13420e-17
7487.99662 1.05298e-17
7490.00365 1.04072e-17
7492.00050 1.11292e-17
7493.99735 1.12355e-17
7496.00438 1.02342e-17
7498.00123 1.07003e-17
7499.99808 1.12065e-17
7501.99493 1.02571e-17
7504.00196 1.02980e-17
7505.99881 1.08253e-17
7507.99566 1.19023e-17
7510.00270 1.12407e-17
7511.99954 1.09101e-17
7513.99639 1.11117e-17
7516.00343 1.09299e-17
7518.00028 1.13391e-17
7519.99712 1.08721e-17
7522.00416 1.00683e-17
7524.00101 1.00207e-17
7525.99786 1.01813e-17
7527.99470 9.85625e-18
7530.00174 1.00732e-17
7531.99859 1.04404e-17
7533.99544 9.83077e-18
7536.00247 9.49452e-18
7537.99932 9.29576e-18
7539.99617 9.63804e-18
7542.00320 9.40133e-18
7544.00005 8.61975e-18
7545.99690 8.94024e-18
7548.00394 9.30538e-18
7550.00078 9.30139e-18
7551.99763 8.82882e-18
7554.00467 9.73587e-18
7556.00152 9.61221e-18
7557.99836 9.29500e-18
7559.99521 1.01944e-17
7562.00225 9.31825e-18
7563.99910 9.40275e-18
7565.99594 9.69803e-18
7568.00298 9.63094e-18
7569.99983 8.63892e-18
7571.99668 8.27158e-18
7574.00371 8.83066e-18
7576.00056 9.33628e-18
7577.99741 9.44882e-18
7580.00444 9.19410e-18
7582.00129 9.10346e-18
7583.99814 9.02288e-18
7585.99499 9.14689e-18
7588.00202 8.85293e-18
7589.99887 9.00404e-18
7591.99572 9.11045e-18
7594.00276 9.20197e-18
7595.99960 8.79649e-18
7597.99645 8.29436e-18
7600.00349 7.17828e-18
7602.00034 6.03065e-18
7603.99718 7.10447e-18
7606.00422 7.21439e-18
7608.00107 6.70853e-18
7609.99792 8.66894e-18
7612.00495 9.19915e-18
7614.00180 8.17028e-18
7615.99865 8.00972e-18
7617.99550 8.10207e-18
7620.00253 8.66731e-18
7621.99938 8.51098e-18
7623.99623 7.48732e-18
7626.00326 8.46549e-18
7628.00011 8.83210e-18
7629.99696 7.76312e-18
7632.00400 8.10757e-18
7634.00084 7.86884e-18
7635.99769 7.02015e-18
7638.00473 8.28341e-18
7640.00158 9.35589e-18
7641.99842 8.42275e-18
7643.99527 7.58444e-18
7646.00231 7.72605e-18
7647.99916 9.10960e-18
7649.99600 9.24914e-18
7652.00304 8.87498e-18
7653.99989 8.61904e-18
7655.99674 8.47668e-18
7658.00377 8.41262e-18
7660.00062 8.34299e-18
7661.99747 8.29211e-18
7664.00450 8.26125e-18
7666.00135 8.58414e-18
7667.99820 8.57665e-18
7669.99505 8.58584e-18
7672.00208 8.79540e-18
7673.99893 9.02573e-18
7675.99578 8.87482e-18
7678.00282 9.19450e-18
7679.99966 9.69407e-18
7681.99651 8.97580e-18
7684.00355 8.27297e-18
7686.00040 8.21906e-18
7687.99724 8.52027e-18
7690.00428 9.61245e-18
7692.00113 1.00025e-17
7693.99798 8.92281e-18
7695.99482 8.76269e-18
7698.00186 9.16543e-18
7699.99871 9.08760e-18
7701.99556 9.62763e-18
7704.00259 9.63519e-18
7705.99944 9.70742e-18
7707.99629 9.34438e-18
7710.00332 1.00998e-17
7712.00017 1.04342e-17
7713.99702 1.04069e-17
7716.00406 9.74102e-18
7718.00090 8.77963e-18
7719.99775 9.18343e-18
7722.00479 9.39634e-18
7724.00164 9.60384e-18
7725.99848 9.57379e-18
7727.99533 8.85076e-18
7730.00237 9.29003e-18
7731.99922 1.01153e-17
7733.99606 1.06173e-17
7736.00310 9.66764e-18
7737.99995 9.89378e-18
7739.99680 1.05794e-17
7742.00383 9.75896e-18
7744.00068 9.54964e-18
7745.99753 1.03656e-17
7748.00456 1.25574e-17
7750.00141 1.24035e-17
7751.99826 1.12917e-17
7753.99511 1.16797e-17
7756.00214 1.07227e-17
7757.99899 1.03941e-17
7759.99584 1.10274e-17
7762.00288 1.18013e-17
7763.99972 1.18908e-17
7765.99657 1.16398e-17
7768.00361 1.18459e-17
7770.00046 1.23626e-17
7771.99730 1.24629e-17
7774.00434 1.14226e-17
7776.00119 1.17483e-17
7777.99804 1.18890e-17
7780.00507 1.14977e-17
7782.00192 1.13151e-17
7783.99877 1.17893e-17
7785.99562 1.25495e-17
7788.00265 1.15699e-17
7789.99950 1.28491e-17
7791.99635 1.27879e-17
7794.00338 1.15182e-17
7796.00023 1.15198e-17
7797.99708 1.17538e-17
7800.00412 1.19541e-17
7802.00096 1.31998e-17
7803.99781 1.37333e-17
7806.00485 1.25893e-17
7808.00170 1.32925e-17
7809.99854 1.26978e-17
7811.99539 1.32679e-17
7814.00243 1.34828e-17
7815.99928 1.30907e-17
7817.99612 1.27929e-17
7820.00316 1.27635e-17
7822.00001 1.44460e-17
7823.99686 1.31073e-17
7826.00389 1.30955e-17
7828.00074 1.35171e-17
7829.99759 1.27099e-17
7832.00462 1.21335e-17
7834.00147 1.21617e-17
7835.99832 1.23955e-17
7837.99517 1.21715e-17
7840.00220 1.13138e-17
7841.99905 1.16703e-17
7843.99590 1.20007e-17
7846.00294 1.19453e-17
7847.99978 1.14691e-17
7849.99663 1.16796e-17
7852.00367 1.34361e-17
7854.00052 1.31306e-17
7855.99736 1.24485e-17
7858.00440 1.17344e-17
7860.00125 1.11267e-17
7861.99810 1.18868e-17
7863.99494 1.19077e-17
7866.00198 1.11806e-17
7867.99883 1.08840e-17
7869.99568 1.21684e-17
7872.00271 1.18156e-17
7873.99956 1.07022e-17
7875.99641 1.15139e-17
7878.00344 1.21180e-17
7880.00029 1.09018e-17
7881.99714 9.87289e-18
7884.00418 9.79981e-18
7886.00102 9.73183e-18
7887.99787 1.07590e-17
7889.99472 1.10456e-17
7892.00176 1.16002e-17
7893.99860 1.07934e-17
7895.99545 1.05571e-17
7898.00249 1.08687e-17
7899.99934 1.04945e-17
7901.99618 1.12327e-17
7904.00322 1.06246e-17
7906.00007 9.88924e-18
7907.99692 1.05260e-17
7910.00395 1.18060e-17
7912.00080 1.25998e-17
7913.99765 1.18702e-17
7916.00468 9.78336e-18
7918.00153 9.59940e-18
7919.99838 1.13608e-17
7921.99523 1.10564e-17
7924.00226 1.02533e-17
7925.99911 1.04667e-17
7927.99596 1.08876e-17
7930.00300 1.14575e-17
7931.99984 1.16081e-17
7933.99669 1.11711e-17
7936.00373 1.13264e-17
7938.00058 1.09081e-17
7939.99742 1.03349e-17
7942.00446 1.04333e-17
7944.00131 1.01194e-17
7945.99816 1.03515e-17
7947.99500 1.02165e-17
7950.00204 9.27004e-18
7951.99889 8.82207e-18
7953.99574 9.08598e-18
7956.00277 9.89453e-18
7957.99962 1.00993e-17
7959.99647 9.91474e-18
7962.00350 1.07732e-17
7964.00035 9.84945e-18
7965.99720 1.09296e-17
7968.00424 1.03335e-17
7970.00108 9.81545e-18
7971.99793 1.01513e-17
7973.99478 1.04207e-17
7976.00182 1.04974e-17
7977.99866 9.66747e-18
7979.99551 1.06199e-17
7982.00255 1.10367e-17
7983.99940 9.80682e-18
7985.99624 9.67213e-18
7988.00328 1.06238e-17
7990.00013 1.03429e-17
7991.99698 9.47327e-18
7994.00401 9.08192e-18
7996.00086 8.40076e-18
7997.99771 8.89826e-18
8000.00474 9.73655e-18
8002.00159 9.58789e-18
8003.99844 9.13090e-18
8005.99529 1.00968e-17
8008.00232 1.11146e-17
8009.99917 9.68207e-18
8011.99602 9.22263e-18
8014.00306 1.06611e-17
8015.99990 1.00987e-17
8017.99675 9.86997e-18
8020.00379 9.72439e-18
8022.00064 9.13303e-18
8023.99748 1.05247e-17
8026.00452 1.08711e-17
8028.00137 9.58876e-18
8029.99822 9.16851e-18
8031.99506 9.59695e-18
8034.00210 1.04361e-17
8035.99895 1.03690e-17
8037.99580 9.33064e-18
8040.00283 9.13160e-18
8041.99968 1.00430e-17
8043.99653 9.48392e-18
8046.00356 9.01255e-18
8048.00041 9.82389e-18
8049.99726 9.65298e-18
8052.00430 8.90337e-18
8054.00114 9.11630e-18
8055.99799 9.88862e-18
8057.99484 8.70789e-18
8060.00188 9.32488e-18
8061.99872 8.02185e-18
8063.99557 8.66867e-18
8066.00261 8.10861e-18
8067.99946 7.43798e-18
8069.99630 9.03591e-18
8072.00334 9.45646e-18
8074.00019 9.00107e-18
8075.99704 8.57672e-18
8078.00407 8.23480e-18
8080.00092 8.26369e-18
8081.99777 8.84245e-18
8084.00480 8.99116e-18
8086.00165 8.65417e-18
8087.99850 8.63665e-18
8089.99535 8.01592e-18
8092.00238 7.17129e-18
8093.99923 7.43998e-18
8095.99608 7.91214e-18
8098.00312 7.81683e-18
8099.99996 7.18273e-18
8101.99681 6.31791e-18
8104.00385 6.22022e-18
8106.00070 7.09823e-18
8107.99754 7.51729e-18
8110.00458 7.50349e-18
8112.00143 7.49343e-18
8113.99828 7.97212e-18
8115.99512 8.03512e-18
8118.00216 8.43986e-18
8119.99901 8.45759e-18
8121.99586 7.63671e-18
8124.00289 7.77511e-18
8125.99974 7.70251e-18
8127.99659 8.08914e-18
8130.00362 7.70897e-18
8132.00047 7.43264e-18
8133.99732 8.03822e-18
8136.00436 7.60747e-18
8138.00120 6.62534e-18
8139.99805 7.05162e-18
8141.99490 8.13713e-18
8144.00194 6.60277e-18
8145.99878 6.99746e-18
8147.99563 7.60471e-18
8150.00267 6.87810e-18
8151.99952 6.45060e-18
8153.99636 7.06455e-18
8156.00340 6.58494e-18
8158.00025 6.70822e-18
8159.99710 6.61400e-18
8162.00413 6.29393e-18
8164.00098 7.01931e-18
8165.99783 5.74268e-18
8167.99468 5.90834e-18
8170.00171 8.63380e-18
8171.99856 8.82433e-18
8173.99541 7.76354e-18
8176.00244 6.90850e-18
8177.99929 7.18220e-18
8179.99614 6.69006e-18
8182.00318 6.32701e-18
8184.00002 6.47449e-18
8185.99687 6.21046e-18
8188.00391 6.04339e-18
8190.00076 6.35311e-18
8191.99760 6.03858e-18
8194.00464 5.58190e-18
8196.00149 7.08607e-18
8197.99834 6.91359e-18
8199.99518 5.05361e-18
8202.00222 5.51522e-18
8203.99907 5.87719e-18
8205.99592 6.50080e-18
8208.00295 6.54259e-18
8209.99980 5.89758e-18
8211.99665 4.91557e-18
8214.00368 5.54835e-18
8216.00053 5.50602e-18
8217.99738 6.07177e-18
8220.00442 4.62434e-18
8222.00126 5.42925e-18
8223.99811 5.68054e-18
8225.99496 4.74046e-18
8228.00200 3.83719e-18
8229.99884 5.01165e-18
8231.99569 5.51214e-18
8234.00273 5.17264e-18
8235.99958 6.06110e-18
8237.99642 5.33465e-18
8240.00346 4.80651e-18
8242.00031 4.43870e-18
8243.99716 5.47307e-18
8246.00419 5.67182e-18
8248.00104 5.31936e-18
8249.99789 5.40646e-18
8252.00492 5.59117e-18
8254.00177 5.30458e-18
8255.99862 5.33596e-18
8257.99547 5.13388e-18
8260.00250 4.81944e-18
8261.99935 4.25501e-18
8263.99620 3.71579e-18
8266.00324 3.62474e-18
8268.00008 4.06591e-18
8269.99693 4.14196e-18
8272.00397 4.23771e-18
8274.00082 3.93790e-18
8275.99766 3.90579e-18
8278.00470 4.64180e-18
8280.00155 3.89503e-18
8281.99840 4.17696e-18
8283.99524 4.76380e-18
8286.00228 4.43243e-18
8287.99913 4.58389e-18
8289.99598 5.00215e-18
8292.00301 3.20717e-18
8293.99986 2.87138e-18
8295.99671 4.90548e-18
8298.00374 4.44646e-18
8300.00059 2.86393e-18
8301.99744 3.34847e-18
8304.00448 4.33103e-18
8306.00132 4.49308e-18
8307.99817 6.23599e-18
8309.99502 6.67709e-18
8312.00206 5.73640e-18
8313.99890 4.73237e-18
8315.99575 3.57507e-18
8318.00279 4.12661e-18
8319.99964 4.46237e-18
8321.99648 3.97674e-18
8324.00352 4.67887e-18
8326.00037 4.88242e-18
8327.99722 4.35194e-18
8330.00425 3.18033e-18
8332.00110 3.68237e-18
8333.99795 4.29923e-18
8335.99480 3.71273e-18
8338.00183 4.55788e-18
8339.99868 5.45556e-18
8341.99553 7.38108e-18
8344.00256 5.20986e-18
8345.99941 2.55955e-18
8347.99626 6.03211e-18
8350.00330 7.07347e-18
8352.00014 6.25212e-18
8353.99699 3.58645e-18
8356.00403 5.00716e-18
8358.00088 5.38851e-18
8359.99772 4.65165e-18
8362.00476 4.13155e-18
8364.00161 5.96506e-18
8365.99846 6.11237e-18
8367.99530 4.85956e-18
8370.00234 5.02085e-18
8371.99919 6.41571e-18
8373.99604 5.17519e-18
8376.00307 5.02810e-18
8377.99992 5.17622e-18
8379.99677 5.27850e-18
8382.00380 5.06314e-18
8384.00065 5.96179e-18
8385.99750 4.63344e-18
8388.00454 4.33265e-18
8390.00138 4.67478e-18
8391.99823 3.40846e-18
8393.99508 5.68103e-18
8396.00212 9.62761e-18
8397.99896 9.65323e-18
8399.99581 7.22334e-18
8402.00285 5.33107e-18
8403.99970 4.94963e-18
8405.99654 4.60483e-18
8408.00358 4.55185e-18
8410.00043 6.88226e-18
8411.99728 7.89356e-18
8414.00431 8.06200e-18
8416.00116 6.51234e-18
8417.99801 5.10394e-18
8419.99486 4.85426e-18
8422.00189 5.00145e-18
8423.99874 6.20644e-18
8425.99559 9.85807e-18
8428.00262 1.00251e-17
8429.99947 6.71873e-18
8431.99632 7.61824e-18
8434.00336 6.30292e-18
8436.00020 5.14751e-18
8437.99705 5.31832e-18
8440.00409 5.83098e-18
8442.00094 6.56457e-18
8443.99778 6.71224e-18
8446.00482 6.79357e-18
8448.00167 6.85463e-18
8449.99852 9.03393e-18
8451.99536 6.97657e-18
8454.00240 6.52247e-18
8455.99925 7.20637e-18
8457.99610 6.71068e-18
8460.00313 6.12793e-18
8461.99998 7.18526e-18
8463.99683 9.75781e-18
8466.00386 7.47473e-18
8468.00071 5.10830e-18
8469.99756 4.66613e-18
8472.00460 5.88489e-18
8474.00144 5.93114e-18
8475.99829 5.84080e-18
8477.99514 7.58480e-18
8480.00218 7.49875e-18
8481.99902 6.69128e-18
8483.99587 6.51323e-18
8486.00291 6.56524e-18
8487.99976 6.13554e-18
8489.99660 7.54300e-18
8492.00364 8.32594e-18
8494.00049 6.66458e-18
8495.99734 7.21801e-18
8498.00437 7.46610e-18
8500.00122 8.16121e-18
8501.99807 9.69704e-18
8504.00510 8.62501e-18
8506.00195 6.93403e-18
8507.99880 7.02961e-18
8509.99565 7.00729e-18
8512.00268 7.01312e-18
8513.99953 7.76370e-18
8515.99638 8.69745e-18
8518.00342 8.82019e-18
8520.00026 7.68049e-18
8521.99711 8.78665e-18
8524.00415 9.42929e-18
8526.00100 8.75670e-18
8527.99784 7.90744e-18
8529.99469 9.98487e-18
8532.00173 1.05840e-17
8533.99858 1.09498e-17
8535.99542 1.04617e-17
8538.00246 1.09121e-17
8539.99931 1.00011e-17
8541.99616 8.62371e-18
8544.00319 1.06070e-17
8546.00004 1.11996e-17
8547.99689 1.03544e-17
8550.00392 9.79169e-18
8552.00077 1.08407e-17
8553.99762 1.08091e-17
8556.00466 1.05590e-17
8558.00150 1.02903e-17
8559.99835 1.08877e-17
8561.99520 1.09770e-17
8564.00224 1.20209e-17
8565.99908 1.24839e-17
8567.99593 1.29792e-17
8570.00297 1.31500e-17
8571.99982 1.13353e-17
8573.99666 1.03674e-17
8576.00370 1.18152e-17
8578.00055 1.40660e-17
8579.99740 1.23599e-17
8582.00443 1.18678e-17
8584.00128 1.31116e-17
8585.99813 1.37432e-17
8587.99498 1.25589e-17
8590.00201 1.29451e-17
8591.99886 1.27267e-17
8593.99571 1.32170e-17
8596.00274 1.43246e-17
8597.99959 1.32985e-17
8599.99644 1.35350e-17
8602.00348 1.33534e-17
8604.00032 1.40835e-17
8605.99717 1.53105e-17
8608.00421 1.57098e-17
8610.00106 1.46962e-17
8611.99790 1.43453e-17
8613.99475 1.55921e-17
8616.00179 1.57464e-17
8617.99864 1.71621e-17
8619.99548 1.67862e-17
8622.00252 1.54911e-17
8623.99937 1.69524e-17
8625.99622 1.57417e-17
8628.00325 1.57585e-17
8630.00010 1.67192e-17
8631.99695 1.76718e-17
8634.00398 1.64439e-17
8636.00083 1.55596e-17
8637.99768 1.74103e-17
8640.00472 1.81111e-17
8642.00156 1.79471e-17
8643.99841 1.75878e-17
8645.99526 1.72871e-17
8648.00230 1.89058e-17
8649.99914 1.97880e-17
8651.99599 1.85234e-17
8654.00303 1.91896e-17
8655.99988 2.00445e-17
8657.99672 2.04164e-17
8660.00376 2.19459e-17
8662.00061 2.14887e-17
8663.99746 2.02472e-17
8665.99430 1.91004e-17
8668.00134 2.02207e-17
8669.99819 2.09528e-17
8671.99504 2.01252e-17
8674.00207 1.92174e-17
8675.99892 1.90850e-17
8677.99577 2.12475e-17
8680.00280 2.04456e-17
8681.99965 2.12606e-17
8683.99650 2.21036e-17
8686.00354 2.28170e-17
8688.00038 2.23683e-17
8689.99723 2.30130e-17
8692.00427 2.31531e-17
8694.00112 2.11491e-17
8695.99796 2.20876e-17
8698.00500 2.23243e-17
8700.00185 2.34802e-17
8701.99870 2.25991e-17
8703.99554 2.06204e-17
8706.00258 2.22451e-17
8707.99943 2.16436e-17
8709.99628 2.35821e-17
8712.00331 2.35396e-17
8714.00016 2.30726e-17
8715.99701 2.35878e-17
8718.00404 2.38996e-17
8720.00089 2.19629e-17
8721.99774 2.09805e-17
8724.00478 2.00900e-17
8726.00162 2.01039e-17
8727.99847 2.16731e-17
8729.99532 2.28448e-17
8732.00236 2.21286e-17
8733.99920 2.19145e-17
8735.99605 2.25976e-17
8738.00309 2.45432e-17
8739.99994 2.32343e-17
8741.99678 2.08738e-17
8744.00382 2.01522e-17
8746.00067 2.10893e-17
8747.99752 2.07638e-17
8750.00455 1.90865e-17
8752.00140 1.88281e-17
8753.99825 1.98929e-17
8755.99510 2.11247e-17
8758.00213 2.15473e-17
8759.99898 2.13235e-17
8761.99583 1.99480e-17
8764.00286 1.92752e-17
8765.99971 1.69047e-17
8767.99656 1.93148e-17
8770.00360 2.03070e-17
8772.00044 2.09431e-17
8773.99729 2.09536e-17
8776.00433 2.00129e-17
8778.00118 1.93488e-17
8779.99802 1.88628e-17
8782.00506 1.86426e-17
8784.00191 1.86318e-17
8785.99876 1.83241e-17
8787.99560 1.87080e-17
8790.00264 1.89326e-17
8791.99949 1.88543e-17
8793.99634 1.92624e-17
8796.00337 1.92896e-17
8798.00022 1.85858e-17
8799.99707 1.90994e-17
8802.00410 1.92600e-17
8804.00095 1.77830e-17
8805.99780 1.89158e-17
8807.99465 1.93043e-17
8810.00168 1.75557e-17
8811.99853 1.78120e-17
8813.99538 1.84261e-17
8816.00242 1.88581e-17
8817.99926 1.90680e-17
8819.99611 1.77591e-17
8822.00315 1.71755e-17
8824.00000 1.82028e-17
8825.99684 1.88478e-17
8828.00388 1.70896e-17
8830.00073 1.56140e-17
8831.99758 1.54379e-17
8834.00461 1.60761e-17
8836.00146 1.59189e-17
8837.99831 1.75788e-17
8840.00534 1.85476e-17
8842.00219 1.72085e-17
8843.99904 1.71703e-17
8845.99589 1.80728e-17
8848.00292 1.95300e-17
8849.99977 2.03060e-17
8850.75074 2.03060e-17
8851.61220 2.00822e-17
8852.47367 1.98584e-17
8853.33513 1.97033e-17
8854.19659 1.95483e-17
8855.05805 1.95091e-17
8855.91951 1.94702e-17
8856.78097 1.95095e-17
8857.64244 1.95489e-17
8858.50390 1.96003e-17
8859.36536 1.96516e-17
8860.23684 1.96604e-17
8861.09830 1.96690e-17
8861.95976 1.95857e-17
8862.82123 1.95022e-17
8863.68269 1.93455e-17
8864.54415 1.91885e-17
8865.40561 1.90305e-17
8866.26707 1.88724e-17
8867.12854 1.87465e-17
8867.99000 1.86207e-17
8868.86148 1.85185e-17
8869.72294 1.84163e-17
8870.58440 1.83341e-17
8871.44586 1.82520e-17
8872.30732 1.81866e-17
8873.16879 1.81213e-17
8874.03025 1.80764e-17
8874.89171 1.80315e-17
8875.75317 1.80347e-17
8876.61463 1.80380e-17
8877.47610 1.81005e-17
8878.34758 1.81632e-17
8879.20904 1.82505e-17
8880.07050 1.83378e-17
8880.93196 1.84136e-17
8881.79342 1.84893e-17
8882.65489 1.85199e-17
8883.51635 1.85503e-17
8884.37781 1.85111e-17
8885.23927 1.84717e-17
8886.10073 1.83854e-17
8886.96220 1.82990e-17
8887.83367 1.82011e-17
8888.69514 1.81031e-17
8889.55660 1.80265e-17
8890.41806 1.79499e-17
8891.27952 1.79242e-17
8892.14099 1.78987e-17
8893.00245 1.79408e-17
8893.86391 1.79831e-17
8894.72537 1.80997e-17
8895.58683 1.82165e-17
8896.44830 1.83802e-17
8897.30976 1.85439e-17
8898.18124 1.87078e-17
8899.04270 1.88716e-17
8899.90416 1.89955e-17
8900.76562 1.91194e-17
8901.62708 1.91701e-17
8902.48855 1.92207e-17
8903.35001 1.92033e-17
8904.21147 1.91858e-17
8905.07293 1.91559e-17
8905.93439 1.91259e-17
8906.80587 1.91198e-17
8907.66734 1.91136e-17
8908.52880 1.91277e-17
8909.39026 1.91417e-17
8910.25172 1.91760e-17
8911.11318 1.92103e-17
8911.97465 1.92716e-17
8912.83611 1.93329e-17
8913.69757 1.94240e-17
8914.55903 1.95152e-17
8915.42049 1.96425e-17
8916.29197 1.97700e-17
8917.15343 1.99321e-17
8918.01490 2.00942e-17
8918.87636 2.02494e-17
8919.73782 2.04045e-17
8920.59928 2.05109e-17
8921.46074 2.06172e-17
8922.32221 2.06631e-17
8923.18367 2.07089e-17
8924.04513 2.06930e-17
8924.90659 2.06770e-17
8925.76805 2.06485e-17
8926.63953 2.06200e-17
8927.50100 2.06459e-17
8928.36246 2.06721e-17
8929.22392 2.07551e-17
8930.08538 2.08383e-17
8930.94684 2.09480e-17
8931.80831 2.10578e-17
8932.66977 2.11723e-17
8933.53123 2.12867e-17
8934.39269 2.13847e-17
8935.25415 2.14825e-17
8936.12563 2.15739e-17
8936.98709 2.16653e-17
8937.84856 2.17981e-17
8938.71002 2.19311e-17
8939.57148 2.21076e-17
8940.43294 2.22841e-17
8941.29440 2.24391e-17
8942.15587 2.25941e-17
8943.01733 2.26800e-17
8943.87879 2.27656e-17
8944.74025 2.27609e-17
8945.61173 2.27559e-17
8946.47319 2.26683e-17
8947.33466 2.25805e-17
8948.19612 2.25105e-17
8949.05758 2.24404e-17
8949.91904 2.24694e-17
8950.78050 2.24986e-17
8951.64197 2.26013e-17
8952.50343 2.27042e-17
8953.36489 2.28395e-17
8954.22635 2.29750e-17
8955.08781 2.30363e-17
8955.95929 2.30975e-17
8956.82075 2.29798e-17
8957.68222 2.28616e-17
8958.54368 2.26955e-17
8959.40514 2.25292e-17
8960.26660 2.25071e-17
8961.12806 2.24854e-17
8961.98953 2.26347e-17
8962.85099 2.27845e-17
8963.71245 2.30688e-17
8964.57391 2.33535e-17
8965.44539 2.36808e-17
8966.30685 2.40081e-17
8967.16832 2.42387e-17
8968.02978 2.44691e-17
8968.89124 2.46184e-17
8969.75270 2.47676e-17
8970.61416 2.49881e-17
8971.47563 2.52087e-17
8972.33709 2.55532e-17
8973.19855 2.58980e-17
8974.06001 2.63011e-17
8974.93149 2.67044e-17
8975.79295 2.70716e-17
8976.65441 2.74387e-17
8977.51588 2.76255e-17
8978.37734 2.78117e-17
8979.23880 2.77054e-17
8980.10026 2.75982e-17
8980.96172 2.71262e-17
8981.82319 2.66532e-17
8982.68465 2.58622e-17
8983.54611 2.50703e-17
8984.41759 2.43856e-17
8985.27905 2.37013e-17
8986.14051 2.35156e-17
8987.00198 2.33312e-17
8987.86344 2.37790e-17
8988.72490 2.42285e-17
8989.58636 2.53301e-17
8990.44782 2.64334e-17
8991.30928 2.76631e-17
8992.17075 2.88930e-17
8993.03221 2.96178e-17
8993.89367 3.03411e-17
8994.76515 3.04661e-17
8995.62661 3.05895e-17
8996.48807 3.02304e-17
8997.34954 2.98701e-17
8998.21100 2.93100e-17
8999.07246 2.87495e-17
8999.93392 2.83747e-17
9000.79538 2.80005e-17
9001.65685 2.79794e-17
9002.51831 2.79593e-17
9003.38979 2.82815e-17
9004.25125 2.86047e-17
9005.11271 2.91579e-17
9005.97417 2.97116e-17
9006.83563 3.02755e-17
9007.69710 3.08394e-17
9008.55856 3.12423e-17
9009.42002 3.16447e-17
9010.28148 3.18069e-17
9011.14295 3.19684e-17
9012.00441 3.18936e-17
9012.87589 3.18180e-17
9013.73735 3.16953e-17
9014.59881 3.15724e-17
9015.46027 3.15422e-17
9016.32173 3.15122e-17
9017.18320 3.14888e-17
9018.04466 3.14654e-17
9018.90612 3.13849e-17
9019.76758 3.13042e-17
9020.62904 3.12405e-17
9021.49051 3.11768e-17
9022.35197 3.12064e-17
9023.22345 3.12362e-17
9024.08491 3.14556e-17
9024.94637 3.16755e-17
9025.80783 3.21616e-17
9026.66930 3.26484e-17
9027.53076 3.32844e-17
9028.39222 3.39209e-17
9029.25368 3.45301e-17
9030.11514 3.51390e-17
9030.97660 3.55986e-17
9031.83807 3.60575e-17
9032.70955 3.62763e-17
9033.57101 3.64944e-17
9034.43247 3.64642e-17
9035.29393 3.64333e-17
9036.15539 3.62007e-17
9037.01686 3.59673e-17
9037.87832 3.56515e-17
9038.73978 3.53354e-17
9039.60124 3.51200e-17
9040.46270 3.49053e-17
9041.32417 3.48394e-17
9042.18563 3.47740e-17
9043.05711 3.47234e-17
9043.91857 3.46726e-17
9044.78003 3.45664e-17
9045.64149 3.44599e-17
9046.50295 3.43405e-17
9047.36442 3.42211e-17
9048.22588 3.41254e-17
9049.08734 3.40298e-17
9049.94880 3.40169e-17
9050.81027 3.40037e-17
9051.67173 3.40891e-17
9052.54321 3.41750e-17
9053.40467 3.41841e-17
9054.26613 3.41926e-17
9055.12759 3.39721e-17
9055.98905 3.37511e-17
9056.85052 3.33828e-17
9057.71198 3.30140e-17
9058.57344 3.26088e-17
9059.43490 3.22035e-17
9060.29636 3.17751e-17
9061.16784 3.13467e-17
9062.02931 3.09007e-17
9062.89077 3.04546e-17
9063.75223 2.99747e-17
9064.61369 2.94947e-17
9065.47515 2.89452e-17
9066.33662 2.83954e-17
9067.19808 2.79162e-17
9068.05954 2.74372e-17
9068.92100 2.72606e-17
9069.78246 2.70849e-17
9070.64393 2.71596e-17
9071.51540 2.72351e-17
9072.37687 2.73009e-17
9073.23833 2.73668e-17
9074.09979 2.73279e-17
9074.96125 2.72886e-17
9075.82271 2.72175e-17
9076.68418 2.71462e-17
9077.54564 2.70883e-17
9078.40710 2.70304e-17
9079.26856 2.70120e-17
9080.13002 2.69937e-17
9080.99149 2.70138e-17
9081.86297 2.70339e-17
9082.72443 2.70022e-17
9083.58589 2.69703e-17
9084.44735 2.68365e-17
9085.30881 2.67025e-17
9086.17028 2.65659e-17
9087.03174 2.64294e-17
9087.89320 2.63666e-17
9088.75466 2.63041e-17
9089.61612 2.62174e-17
9090.48760 2.61307e-17
9091.34906 2.59265e-17
9092.21053 2.57232e-17
9093.07199 2.54981e-17
9093.93345 2.52731e-17
9094.79491 2.51453e-17
9095.65637 2.50178e-17
9096.51784 2.49538e-17
9097.37930 2.48901e-17
9098.24076 2.48194e-17
9099.10222 2.47487e-17
9099.97370 2.46896e-17
9100.83516 2.46305e-17
9101.69663 2.46206e-17
9102.55809 2.46109e-17
9103.41955 2.47227e-17
9104.28101 2.48347e-17
9105.14247 2.51715e-17
9106.00393 2.55090e-17
9106.86540 2.59481e-17
9107.72686 2.63875e-17
9108.58832 2.66142e-17
9109.45980 2.68403e-17
9110.32126 2.67203e-17
9111.18272 2.65994e-17
9112.04419 2.62110e-17
9112.90565 2.58218e-17
9113.76711 2.53253e-17
9114.62857 2.48286e-17
9115.49003 2.45535e-17
9116.35150 2.42791e-17
9117.21296 2.43972e-17
9118.07442 2.45164e-17
9118.93588 2.47734e-17
9119.80736 2.50308e-17
9120.66882 2.51786e-17
9121.53028 2.53261e-17
9122.39175 2.52057e-17
9123.25321 2.50846e-17
9124.11467 2.46006e-17
9124.97613 2.41156e-17
9125.83760 2.34918e-17
9126.69906 2.28677e-17
9127.56052 2.23766e-17
9128.43200 2.18859e-17
9129.29346 2.16683e-17
9130.15492 2.14515e-17
9131.01638 2.15981e-17
9131.87785 2.17457e-17
9132.73931 2.21953e-17
9133.60077 2.26457e-17
9134.46223 2.32602e-17
9135.32369 2.38750e-17
9136.18516 2.45103e-17
9137.04662 2.51457e-17
9137.90808 2.56534e-17
9138.76954 2.61608e-17
9139.64102 2.64454e-17
9140.50248 2.67294e-17
9141.36395 2.67586e-17
9142.22541 2.67871e-17
9143.08687 2.65126e-17
9143.94833 2.62372e-17
9144.80979 2.55892e-17
9145.67125 2.49402e-17
9146.53272 2.40029e-17
9147.39418 2.30647e-17
9148.26566 2.21211e-17
9149.12712 2.11774e-17
9149.98858 2.04844e-17
9150.85004 1.97920e-17
9151.71151 1.95575e-17
9152.57297 1.93242e-17
9153.43443 1.96292e-17
9154.29589 1.99357e-17
9155.15735 2.05137e-17
9156.01882 2.10924e-17
9156.88028 2.16617e-17
9157.75176 2.22310e-17
9158.61322 2.26599e-17
9159.47468 2.30885e-17
9160.33614 2.32753e-17
9161.19760 2.34615e-17
9162.05907 2.34130e-17
9162.92053 2.33639e-17
9163.78199 2.31354e-17
9164.64345 2.29064e-17
9165.50492 2.24902e-17
9166.36638 2.20734e-17
9167.22784 2.14597e-17
9168.09932 2.08454e-17
9168.96078 2.01864e-17
9169.82224 1.95273e-17
9170.68370 1.90292e-17
9171.54517 1.85316e-17
9172.40663 1.82974e-17
9173.26809 1.80639e-17
9174.12955 1.81384e-17
9174.99101 1.82138e-17
9175.85248 1.84703e-17
9176.71394 1.87274e-17
9177.58542 1.88780e-17
9178.44688 1.90284e-17
9179.30834 1.89894e-17
9180.16980 1.89499e-17
9181.03127 1.89102e-17
9181.89273 1.88705e-17
9182.75419 1.89340e-17
9183.61565 1.89979e-17
9184.47711 1.91277e-17
9185.33857 1.92576e-17
9186.20004 1.94089e-17
9187.07152 1.95601e-17
9187.93298 1.96243e-17
9188.79444 1.96883e-17
9189.65590 1.96053e-17
9190.51736 1.95218e-17
9191.37883 1.94593e-17
9192.24029 1.93967e-17
9193.10175 1.95038e-17
9193.96321 1.96113e-17
9194.82467 1.98216e-17
9195.68614 2.00322e-17
9196.55762 2.02511e-17
9197.41908 2.04701e-17
9198.28054 2.06121e-17
9199.14200 2.07538e-17
9200.00346 2.07366e-17
9200.86492 2.07190e-17
9201.72639 2.06033e-17
9202.58785 2.04872e-17
9203.44931 2.03920e-17
9204.31077 2.02969e-17
9205.17224 2.02258e-17
9206.04371 2.01547e-17
9206.90518 2.00553e-17
9207.76664 1.99557e-17
9208.62810 1.98447e-17
9209.48956 1.97335e-17
9210.35102 1.96668e-17
9211.21249 1.96001e-17
9212.07395 1.96339e-17
9212.93541 1.96680e-17
9213.79687 1.98668e-17
9214.65833 2.00660e-17
9215.52981 2.04169e-17
9216.39127 2.07682e-17
9217.25274 2.11378e-17
9218.11420 2.15075e-17
9218.97566 2.18094e-17
9219.83712 2.21110e-17
9220.69859 2.23727e-17
9221.56005 2.26343e-17
9222.42151 2.28714e-17
9223.28297 2.31084e-17
9224.14443 2.32944e-17
9225.00590 2.34804e-17
9225.87737 2.35969e-17
9226.73884 2.37133e-17
9227.60030 2.37410e-17
9228.46176 2.37685e-17
9229.32322 2.36999e-17
9230.18468 2.36311e-17
9231.04615 2.35444e-17
9231.90761 2.34577e-17
9232.76907 2.34431e-17
9233.63053 2.34288e-17
9234.49199 2.34666e-17
9235.35346 2.35045e-17
9236.22494 2.35439e-17
9237.08640 2.35832e-17
9237.94786 2.36471e-17
9238.80932 2.37112e-17
9239.67078 2.38476e-17
9240.53225 2.39841e-17
9241.39371 2.42158e-17
9242.25517 2.44478e-17
9243.11663 2.47840e-17
9243.97809 2.51206e-17
9244.84957 2.55322e-17
9245.71103 2.59440e-17
9246.57250 2.63642e-17
9247.43396 2.67843e-17
9248.29542 2.71747e-17
9249.15688 2.75651e-17
9250.01834 2.79337e-17
9250.87981 2.83023e-17
9251.74127 2.86306e-17
9252.60273 2.89587e-17
9253.46419 2.91678e-17
9254.32565 2.93767e-17
9255.19713 2.94539e-17
9256.05860 2.95306e-17
9256.92006 2.96288e-17
9257.78152 2.97270e-17
9258.64298 2.99613e-17
9259.50444 3.01958e-17
9260.36591 3.05313e-17
9261.22737 3.08670e-17
9262.08883 3.12419e-17
9262.95029 3.16169e-17
9263.81175 3.18958e-17
9264.68323 3.21745e-17
9265.54469 3.22280e-17
9266.40616 3.22808e-17
9267.26762 3.21125e-17
9268.12908 3.19436e-17
9268.99054 3.16068e-17
9269.85200 3.12696e-17
9270.71347 3.08897e-17
9271.57493 3.05097e-17
9272.43639 3.02362e-17
9273.29785 2.99631e-17
9274.16933 2.99139e-17
9275.03079 2.98654e-17
9275.89226 3.01269e-17
9276.75372 3.03893e-17
9277.61518 3.09175e-17
9278.47664 3.14464e-17
9279.33810 3.20959e-17
9280.19957 3.27456e-17
9281.06103 3.33593e-17
9281.92249 3.39728e-17
9282.79397 3.43992e-17
9283.65543 3.48252e-17
9284.51689 3.49439e-17
9285.37835 3.50616e-17
9286.23982 3.48011e-17
9287.10128 3.45396e-17
9287.96274 3.39314e-17
9288.82420 3.33219e-17
9289.68566 3.25587e-17
9290.54713 3.17952e-17
9291.40859 3.11013e-17
9292.27005 3.04077e-17
9293.14153 3.00785e-17
9294.00299 2.97502e-17
9294.86445 2.99782e-17
9295.72592 3.02078e-17
9296.58738 3.07946e-17
9297.44884 3.13824e-17
9298.31030 3.20644e-17
9299.17176 3.27466e-17
9300.03323 3.31646e-17
9300.89469 3.35817e-17
9301.75615 3.33911e-17
9302.62763 3.31988e-17
9303.48909 3.27305e-17
9304.35055 3.22614e-17
9305.21201 3.20566e-17
9306.07348 3.18526e-17
9306.93494 3.17851e-17
9307.79640 3.17180e-17
9308.65786 3.13954e-17
9309.51932 3.10719e-17
9310.38079 3.05122e-17
9311.24225 2.99518e-17
9312.11373 2.93867e-17
9312.97519 2.88217e-17
9313.83665 2.84784e-17
9314.69811 2.81357e-17
9315.55958 2.82725e-17
9316.42104 2.84107e-17
9317.28250 2.89773e-17
9318.14396 2.95452e-17
9319.00542 3.00450e-17
9319.86688 3.05445e-17
9320.72835 3.07825e-17
9321.58981 3.10197e-17
9322.46129 3.14536e-17
9323.32275 3.18880e-17
9324.18421 3.26180e-17
9325.04567 3.33487e-17
9325.90714 3.34388e-17
9326.76860 3.35270e-17
9327.63006 3.24000e-17
9328.49152 3.12695e-17
9329.35298 2.98315e-17
9330.21445 2.83926e-17
9331.07591 2.75208e-17
9331.94739 2.66506e-17
9332.80885 2.61758e-17
9333.67031 2.57021e-17
9334.53177 2.53709e-17
9335.39323 2.50401e-17
9336.25470 2.48583e-17
9337.11616 2.46769e-17
9337.97762 2.46009e-17
9338.83908 2.45253e-17
9339.70055 2.53277e-17
9340.56201 2.61326e-17
9341.43349 2.88594e-17
9342.29495 3.15916e-17
9343.15641 3.49029e-17
9344.01787 3.82155e-17
9344.87933 3.96459e-17
9345.74080 4.10705e-17
9346.60226 3.98847e-17
9347.46372 3.86910e-17
9348.32518 3.53086e-17
9349.18664 3.19200e-17
9350.04811 2.78965e-17
9350.90957 2.38713e-17
9351.78105 2.20754e-17
9352.64251 2.02861e-17
9353.50397 2.16592e-17
9354.36543 2.30413e-17
9355.22689 2.55080e-17
9356.08836 2.79778e-17
9356.94982 2.97933e-17
9357.81128 3.16069e-17
9358.67274 3.17304e-17
9359.53420 3.18491e-17
9360.39567 2.98306e-17
9361.26715 2.78060e-17
9362.12861 2.52804e-17
9362.99007 2.27535e-17
9363.85153 2.12638e-17
9364.71299 1.97772e-17
9365.57446 1.94124e-17
9366.43592 1.90509e-17
9367.29738 1.96623e-17
9368.15884 2.02765e-17
9369.02030 2.10975e-17
9369.89178 2.19190e-17
9370.75324 2.20716e-17
9371.61471 2.22223e-17
9372.47617 2.17603e-17
9373.33763 2.12967e-17
9374.19909 2.05482e-17
9375.06056 1.97990e-17
9375.92202 1.92656e-17
9376.78348 1.87329e-17
9377.64494 1.90275e-17
9378.50640 1.93244e-17
9379.37788 2.02145e-17
9380.23934 2.11062e-17
9381.10081 2.18028e-17
9381.96227 2.24988e-17
9382.82373 2.27506e-17
9383.68519 2.30011e-17
9384.54665 2.30349e-17
9385.40812 2.30681e-17
9386.26958 2.29467e-17
9387.13104 2.28249e-17
9387.99250 2.24421e-17
9388.85396 2.20585e-17
9389.72544 2.14082e-17
9390.58691 2.07571e-17
9391.44837 1.99375e-17
9392.30983 1.91174e-17
9393.17129 1.82629e-17
9394.03275 1.74084e-17
9394.89422 1.67576e-17
9395.75568 1.61075e-17
9396.61714 1.58220e-17
9397.47860 1.55376e-17
9398.34006 1.54977e-17
9399.21154 1.54584e-17
9400.07300 1.55136e-17
9400.93447 1.55690e-17
9401.79593 1.55746e-17
9402.65739 1.55800e-17
9403.51885 1.54095e-17
9404.38031 1.52384e-17
9405.24178 1.50340e-17
9406.10324 1.48294e-17
9406.96470 1.47908e-17
9407.82616 1.47527e-17
9408.69764 1.48821e-17
9409.55910 1.50120e-17
9410.42057 1.52400e-17
9411.28203 1.54682e-17
9412.14349 1.56869e-17
9413.00495 1.59055e-17
9413.86641 1.59870e-17
9414.72788 1.60680e-17
9415.58934 1.59269e-17
9416.45080 1.57852e-17
9417.31226 1.53952e-17
9418.17372 1.50045e-17
9419.04520 1.43930e-17
9419.90666 1.37808e-17
9420.76813 1.29885e-17
9421.62959 1.21957e-17
9422.49105 1.15062e-17
9423.35251 1.08170e-17
9424.21397 1.09071e-17
9425.07544 1.09994e-17
9425.93690 1.20863e-17
9426.79836 1.31760e-17
9427.65982 1.45503e-17
9428.53130 1.59252e-17
9429.39276 1.69028e-17
9430.25423 1.78791e-17
9431.11569 1.78266e-17
9431.97715 1.77712e-17
9432.83861 1.63680e-17
9433.70007 1.49609e-17
9434.56153 1.33196e-17
9435.42300 1.16777e-17
9436.28446 1.09621e-17
9437.14592 1.02492e-17
9438.01740 1.06427e-17
9438.87886 1.10394e-17
9439.74032 1.24665e-17
9440.60179 1.38967e-17
9441.46325 1.56327e-17
9442.32471 1.73696e-17
9443.18617 1.84816e-17
9444.04763 1.95918e-17
9444.90910 1.98129e-17
9445.77056 2.00314e-17
9446.63202 1.94198e-17
9447.49348 1.88058e-17
9448.36496 1.76917e-17
9449.22642 1.65762e-17
9450.08788 1.54908e-17
9450.94935 1.44054e-17
9451.81081 1.36947e-17
9452.67227 1.29852e-17
9453.53373 1.27841e-17
9454.39520 1.25846e-17
9455.25666 1.29269e-17
9456.11812 1.32707e-17
9456.98960 1.40733e-17
9457.85106 1.48772e-17
9458.71252 1.58998e-17
9459.57398 1.69229e-17
9460.43545 1.76806e-17
9461.29691 1.84375e-17
9462.15837 1.86380e-17
9463.01983 1.88370e-17
9463.88129 1.87087e-17
9464.74276 1.85796e-17
9465.60422 1.83612e-17
9466.47570 1.81425e-17
9467.33716 1.79806e-17
9468.19862 1.78188e-17
9469.06008 1.78310e-17
9469.92155 1.78438e-17
9470.78301 1.78496e-17
9471.64447 1.78555e-17
9472.50593 1.76626e-17
9473.36739 1.74691e-17
9474.22885 1.71979e-17
9475.09032 1.69265e-17
9475.96180 1.67407e-17
9476.82326 1.65553e-17
9477.68472 1.67947e-17
9478.54618 1.70354e-17
9479.40764 1.80829e-17
9480.26911 1.91327e-17
9481.13057 2.05724e-17
9481.99203 2.20133e-17
9482.85349 2.30408e-17
9483.71495 2.40670e-17
9484.57642 2.42583e-17
9485.43788 2.44471e-17
9486.30936 2.36537e-17
9487.17082 2.28574e-17
9488.03228 2.14023e-17
9488.89374 1.99454e-17
9489.75520 1.86796e-17
9490.61667 1.74145e-17
9491.47813 1.68821e-17
9492.33959 1.63519e-17
9493.20105 1.65429e-17
9494.06252 1.67361e-17
9494.92398 1.76479e-17
9495.79546 1.85617e-17
9496.65692 2.03103e-17
9497.51838 2.20613e-17
9498.37984 2.44624e-17
9499.24130 2.68654e-17
9500.10277 2.89795e-17
9500.96423 3.10927e-17
9501.82569 3.21070e-17
9502.68715 3.31180e-17
9503.54861 3.29041e-17
9504.41008 3.26866e-17
9505.28155 3.13274e-17
9506.14302 2.99649e-17
9507.00448 2.81664e-17
9507.86594 2.63667e-17
9508.72740 2.49687e-17
9509.58887 2.35720e-17
9510.45033 2.26568e-17
9511.31179 2.17431e-17
9512.17325 2.11448e-17
9513.03471 2.05474e-17
9513.89617 2.04293e-17
9514.75764 2.03126e-17
9515.62912 2.09086e-17
9516.49058 2.15067e-17
9517.35204 2.27486e-17
9518.21350 2.39923e-17
9519.07496 2.56508e-17
9519.93643 2.73104e-17
9520.79789 2.89817e-17
9521.65935 3.06531e-17
9522.52081 3.17812e-17
9523.38227 3.29077e-17
9524.24374 3.33053e-17
9525.11522 3.37008e-17
9525.97668 3.36601e-17
9526.83814 3.36181e-17
9527.69960 3.34085e-17
9528.56106 3.31984e-17
9529.42252 3.30328e-17
9530.28399 3.28673e-17
9531.14545 3.28650e-17
9532.00691 3.28632e-17
9532.86837 3.28352e-17
9533.72984 3.28071e-17
9534.60131 3.25938e-17
9535.46278 3.23798e-17
9536.32424 3.19328e-17
9537.18570 3.14850e-17
9538.04716 3.08299e-17
9538.90862 3.01742e-17
9539.77009 2.99090e-17
9540.63155 2.96448e-17
9541.49301 3.03336e-17
9542.35447 3.10252e-17
9543.21593 3.22639e-17
9544.08741 3.35041e-17
9544.94888 3.46909e-17
9545.81034 3.58774e-17
9546.67180 3.64252e-17
9547.53326 3.69710e-17
9548.39472 3.62776e-17
9549.25619 3.55809e-17
9550.11765 3.43449e-17
9550.97911 3.31073e-17
9551.84057 3.27344e-17
9552.70203 3.23641e-17
9553.57351 3.29499e-17
9554.43497 3.35385e-17
9555.29644 3.42520e-17
9556.15790 3.49656e-17
9557.01936 3.52468e-17
9557.88082 3.55267e-17
9558.74228 3.50026e-17
9559.60375 3.44765e-17
9560.46521 3.33786e-17
9561.32667 3.22791e-17
9562.18813 3.18766e-17
9563.05961 3.14762e-17
9563.92107 3.24238e-17
9564.78254 3.33755e-17
9565.64400 3.49992e-17
9566.50546 3.66250e-17
9567.36692 3.81996e-17
9568.22838 3.97738e-17
9569.08985 4.04335e-17
9569.95131 4.10909e-17
9570.81277 4.02402e-17
9571.67423 3.93851e-17
9572.53569 3.77735e-17
9573.40717 3.61599e-17
9574.26863 3.46783e-17
9575.13010 3.31974e-17
9575.99156 3.24412e-17
9576.85302 3.16873e-17
9577.71448 3.21269e-17
9578.57594 3.25700e-17
9579.43741 3.34662e-17
9580.29887 3.43636e-17
9581.16033 3.46366e-17
9582.02179 3.49080e-17
9582.89327 3.44151e-17
9583.75473 3.39202e-17
9584.61620 3.28733e-17
9585.47766 3.18246e-17
9586.33912 3.09786e-17
9587.20058 3.01332e-17
9588.06204 3.06376e-17
9588.92351 3.11459e-17
9589.78497 3.28569e-17
9590.64643 3.45715e-17
9591.51791 3.61701e-17
9592.37937 3.77688e-17
9593.24083 3.85442e-17
9594.10229 3.93175e-17
9594.96376 3.93379e-17
9595.82522 3.93562e-17
9596.68668 3.87647e-17
9597.54814 3.81714e-17
9598.40960 3.73014e-17
9599.27107 3.64310e-17
9600.13253 3.56508e-17
9600.99399 3.48707e-17
9601.86547 3.44714e-17
9602.72693 3.40732e-17
9603.58839 3.42448e-17
9604.44986 3.44185e-17
9605.31132 3.51295e-17
9606.17278 3.58421e-17
9607.03424 3.69323e-17
9607.89570 3.80232e-17
9608.75717 3.87993e-17
9609.61863 3.95743e-17
9610.48009 3.93681e-17
9611.35157 3.91588e-17
9612.21303 3.82535e-17
9613.07449 3.73465e-17
9613.93595 3.62766e-17
9614.79742 3.52061e-17
9615.65888 3.43432e-17
9616.52034 3.34807e-17
9617.38180 3.31344e-17
9618.24326 3.27897e-17
9619.10473 3.30396e-17
9619.96619 3.32913e-17
9620.82765 3.40515e-17
9621.69913 3.48133e-17
9622.56059 3.58096e-17
9623.42205 3.68065e-17
9624.28352 3.76572e-17
9625.14498 3.85075e-17
9626.00644 3.88491e-17
9626.86790 3.91890e-17
9627.72936 3.86805e-17
9628.59083 3.81697e-17
9629.45229 3.69113e-17
9630.31375 3.56508e-17
9631.17521 3.43873e-17
9632.04669 3.31236e-17
9632.90815 3.24329e-17
9633.76961 3.17439e-17
9634.63108 3.18511e-17
9635.49254 3.19607e-17
9636.35400 3.28420e-17
9637.21546 3.37256e-17
9638.07692 3.45450e-17
9638.93839 3.53642e-17
9639.79985 3.54307e-17
9640.67133 3.54948e-17
9641.53279 3.52397e-17
9642.39425 3.49836e-17
9643.25571 3.49110e-17
9644.11718 3.48391e-17
9644.97864 3.50708e-17
9645.84010 3.53038e-17
9646.70156 3.58893e-17
9647.56302 3.64757e-17
9648.42448 3.70239e-17
9649.28595 3.75717e-17
9650.15743 3.75731e-17
9651.01889 3.75724e-17
9651.88035 3.70249e-17
9652.74181 3.64757e-17
9653.60327 3.56081e-17
9654.46474 3.47390e-17
9655.32620 3.38648e-17
9656.18766 3.29904e-17
9657.04912 3.24718e-17
9657.91058 3.19543e-17
9658.77205 3.19937e-17
9659.64352 3.20348e-17
9660.50499 3.26817e-17
9661.36645 3.33305e-17
9662.22791 3.43802e-17
9663.08937 3.54310e-17
9663.95083 3.63485e-17
9664.81230 3.72657e-17
9665.67376 3.77416e-17
9666.53522 3.82165e-17
9667.39668 3.84146e-17
9668.25815 3.86120e-17
9669.11961 3.86263e-17
9669.99109 3.86398e-17
9670.85255 3.83118e-17
9671.71401 3.79825e-17
9672.57547 3.72688e-17
9673.43693 3.65538e-17
9674.29840 3.57461e-17
9675.15986 3.49378e-17
9676.02132 3.43273e-17
9676.88278 3.37174e-17
9677.74424 3.35072e-17
9678.61572 3.32983e-17
9679.47718 3.36231e-17
9680.33865 3.39494e-17
9681.20011 3.45416e-17
9682.06157 3.51342e-17
9682.92303 3.56210e-17
9683.78449 3.61074e-17
9684.64596 3.63784e-17
9685.50742 3.66484e-17
9686.36888 3.66884e-17
9687.23034 3.67278e-17
9688.10182 3.65755e-17
9688.96328 3.64228e-17
9689.82475 3.61725e-17
9690.68621 3.59218e-17
9691.54767 3.55904e-17
9692.40913 3.52587e-17
9693.27059 3.47964e-17
9694.13206 3.43334e-17
9694.99352 3.38082e-17
9695.85498 3.32828e-17
9696.71644 3.28814e-17
9697.57790 3.24804e-17
9698.44938 3.22954e-17
9699.31084 3.21112e-17
9700.17231 3.21075e-17
9701.03377 3.21045e-17
9701.89523 3.22058e-17
9702.75669 3.23075e-17
9703.61816 3.23442e-17
9704.47962 3.23807e-17
9705.34108 3.22430e-17
9706.20254 3.21049e-17
9707.06400 3.18987e-17
9707.93548 3.16923e-17
9708.79694 3.15271e-17
9709.65841 3.13620e-17
9710.51987 3.12976e-17
9711.38133 3.12334e-17
9712.24279 3.13086e-17
9713.10425 3.13843e-17
9713.96572 3.14952e-17
9714.82718 3.16062e-17
9715.68864 3.16275e-17
9716.55010 3.16487e-17
9717.41156 3.15446e-17
9718.28304 3.14403e-17
9719.14451 3.11965e-17
9720.00597 3.09522e-17
9720.86743 3.06990e-17
9721.72889 3.04458e-17
9722.59035 3.03838e-17
9723.45182 3.03224e-17
9724.31328 3.03636e-17
9725.17474 3.04051e-17
9726.03620 3.02877e-17
9726.89766 3.01698e-17
9727.76914 2.98012e-17
9728.63060 2.94317e-17
9729.49207 2.88605e-17
9730.35353 2.82886e-17
9731.21499 2.76366e-17
9732.07645 2.69843e-17
9732.93791 2.64757e-17
9733.79938 2.59676e-17
9734.66084 2.57421e-17
9735.52230 2.55175e-17
9736.38376 2.55479e-17
9737.25524 2.55790e-17
9738.11670 2.58025e-17
9738.97817 2.60266e-17
9739.83963 2.63195e-17
9740.70109 2.66126e-17
9741.56255 2.68525e-17
9742.42401 2.70924e-17
9743.28548 2.72146e-17
9744.14694 2.73364e-17
9745.00840 2.73025e-17
9745.86986 2.72681e-17
9746.74134 2.71301e-17
9747.60280 2.69918e-17
9748.46426 2.68214e-17
9749.32573 2.66508e-17
9750.18719 2.64648e-17
9751.04865 2.62787e-17
9751.91011 2.60862e-17
9752.77157 2.58937e-17
9753.63304 2.56882e-17
9754.49450 2.54828e-17
9755.35596 2.52512e-17
9756.22744 2.50195e-17
9757.08890 2.48099e-17
9757.95036 2.46003e-17
9758.81183 2.44839e-17
9759.67329 2.43678e-17
9760.53475 2.43998e-17
9761.39621 2.44321e-17
9762.25767 2.46596e-17
9763.11913 2.48877e-17
9763.98060 2.52391e-17
9764.84206 2.55908e-17
9765.71354 2.58645e-17
9766.57500 2.61379e-17
9767.43646 2.62349e-17
9768.29792 2.63314e-17
9769.15939 2.63166e-17
9770.02085 2.63014e-17
9770.88231 2.62301e-17
9771.74377 2.61585e-17
9772.60523 2.60582e-17
9773.46670 2.59578e-17
9774.32816 2.58635e-17
9775.19964 2.57692e-17
9776.06110 2.57087e-17
9776.92256 2.56483e-17
9777.78402 2.56400e-17
9778.64548 2.56318e-17
9779.50695 2.56993e-17
9780.36841 2.57671e-17
9781.22987 2.59169e-17
9782.09133 2.60670e-17
9782.95280 2.61695e-17
9783.81426 2.62718e-17
9784.68574 2.61859e-17
9785.54720 2.60994e-17
9786.40866 2.58935e-17
9787.27012 2.56872e-17
9788.13158 2.54897e-17
9788.99305 2.52922e-17
9789.85451 2.51483e-17
9790.71597 2.50046e-17
9791.57743 2.49332e-17
9792.43889 2.48621e-17
9793.30036 2.48150e-17
9794.16182 2.47680e-17
9795.03330 2.46439e-17
9795.89476 2.45196e-17
9796.75622 2.43482e-17
9797.61768 2.41766e-17
9798.47915 2.41057e-17
9799.34061 2.40350e-17
9800.20207 2.41141e-17
9801.06353 2.41936e-17
9801.92499 2.43525e-17
9802.78645 2.45116e-17
9803.64792 2.46795e-17
9804.51940 2.48475e-17
9805.38086 2.49414e-17
9806.24232 2.50351e-17
9807.10378 2.50149e-17
9807.96524 2.49942e-17
9808.82671 2.49393e-17
9809.68817 2.48843e-17
9810.54963 2.48706e-17
9811.41109 2.48571e-17
9812.27255 2.49326e-17
9813.13402 2.50084e-17
9813.99548 2.51954e-17
9814.86696 2.53828e-17
9815.72842 2.55481e-17
9816.58988 2.57134e-17
9817.45134 2.57158e-17
9818.31280 2.57177e-17
9819.17427 2.55760e-17
9820.03573 2.54338e-17
9820.89719 2.52074e-17
9821.75865 2.49807e-17
9822.62012 2.47569e-17
9823.48158 2.45331e-17
9824.35306 2.44135e-17
9825.21452 2.42943e-17
9826.07598 2.42642e-17
9826.93744 2.42344e-17
9827.79890 2.42114e-17
9828.66037 2.41885e-17
9829.52183 2.41523e-17
9830.38329 2.41161e-17
9831.24475 2.40912e-17
9832.10621 2.40662e-17
9832.97769 2.40468e-17
9833.83915 2.40274e-17
9834.70062 2.39816e-17
9835.56208 2.39357e-17
9836.42354 2.38487e-17
9837.28500 2.37616e-17
9838.14647 2.36421e-17
9839.00793 2.35225e-17
9839.86939 2.33802e-17
9840.73085 2.32379e-17
9841.59231 2.30778e-17
9842.45377 2.29177e-17
9843.32525 2.27582e-17
9844.18672 2.25986e-17
9845.04818 2.24962e-17
9845.90964 2.23938e-17
9846.77110 2.23929e-17
9847.63256 2.23923e-17
9848.49403 2.24791e-17
9849.35549 2.25663e-17
9850.21695 2.27156e-17
9851.07841 2.28652e-17
9851.93987 2.30528e-17
9852.81135 2.32406e-17
9853.67282 2.34380e-17
9854.53428 2.36354e-17
9855.39574 2.38245e-17
9856.25720 2.40136e-17
9857.11866 2.41811e-17
9857.98013 2.43486e-17
9858.84159 2.44587e-17
9859.70305 2.45686e-17
9860.56451 2.45802e-17
9861.42597 2.45915e-17
9862.29745 2.44991e-17
9863.15891 2.44064e-17
9864.02038 2.42275e-17
9864.88184 2.40484e-17
9865.74330 2.38157e-17
9866.60476 2.35829e-17
9867.46622 2.33431e-17
9868.32769 2.31033e-17
9869.18915 2.28832e-17
9870.05061 2.26631e-17
9870.92209 2.24595e-17
9871.78355 2.22560e-17
9872.64501 2.20724e-17
9873.50648 2.18890e-17
9874.36794 2.17412e-17
9875.22940 2.15936e-17
9876.09086 2.14940e-17
9876.95232 2.13946e-17
9877.81379 2.13547e-17
9878.67525 2.13150e-17
9879.53671 2.13400e-17
9880.39817 2.13652e-17
9881.26965 2.14472e-17
9882.13111 2.15293e-17
9882.99257 2.16535e-17
9883.85404 2.17778e-17
9884.71550 2.19173e-17
9885.57696 2.20569e-17
9886.43842 2.21828e-17
9887.29988 2.23086e-17
9888.16135 2.23935e-17
9889.02281 2.24783e-17
9889.88427 2.24995e-17
9890.74573 2.25204e-17
9891.61721 2.24773e-17
9892.47867 2.24340e-17
9893.34014 2.23381e-17
9894.20160 2.22421e-17
9895.06306 2.21058e-17
9895.92452 2.19693e-17
9896.78598 2.18055e-17
9897.64745 2.16416e-17
9898.50891 2.14716e-17
9899.37037 2.13016e-17
9900.23183 2.11536e-17
9901.09329 2.10057e-17
9901.96477 2.08843e-17
9902.82623 2.07630e-17
9903.68770 2.06444e-17
9904.54916 2.05258e-17
9905.41062 2.04153e-17
9906.27208 2.03049e-17
9907.13354 2.02548e-17
9907.99501 2.02048e-17
9908.85647 2.02397e-17
9909.71793 2.02748e-17
9910.57939 2.03710e-17
9911.45087 2.04674e-17
9912.31233 2.05862e-17
9913.17380 2.07051e-17
9914.03526 2.07648e-17
9914.89672 2.08244e-17
9915.75818 2.07601e-17
9916.61964 2.06955e-17
9917.48111 2.05299e-17
9918.34257 2.03640e-17
9919.20403 2.01368e-17
9920.07551 1.99095e-17
9920.93697 1.96657e-17
9921.79843 1.94219e-17
9922.65989 1.92075e-17
9923.52136 1.89931e-17
9924.38282 1.88281e-17
9925.24428 1.86632e-17
9926.10574 1.85554e-17
9926.96720 1.84478e-17
9927.82867 1.83674e-17
9928.69013 1.82872e-17
9929.56161 1.81868e-17
9930.42307 1.80864e-17
9931.28453 1.79505e-17
9932.14599 1.78146e-17
9933.00746 1.76500e-17
9933.86892 1.74854e-17
9934.73038 1.73061e-17
9935.59184 1.71267e-17
9936.45330 1.69529e-17
9937.31477 1.67790e-17
9938.17623 1.66372e-17
9939.03769 1.64955e-17
9939.90917 1.64193e-17
9940.77063 1.63433e-17
9941.63209 1.63418e-17
9942.49355 1.63406e-17
9943.35502 1.63792e-17
9944.21648 1.64180e-17
9945.07794 1.64668e-17
9945.93940 1.65156e-17
9946.80086 1.65670e-17
9947.66233 1.66184e-17
9948.52379 1.66637e-17
9949.39527 1.67090e-17
9950.25673 1.67316e-17
9951.11819 1.67541e-17
9951.97965 1.67433e-17
9952.84112 1.67324e-17
9953.70258 1.67096e-17
9954.56404 1.66869e-17
9955.42550 1.66759e-17
9956.28696 1.66649e-17
9957.14843 1.66498e-17
9958.00989 1.66346e-17
9958.88137 1.65937e-17
9959.74283 1.65526e-17
9960.60429 1.64746e-17
9961.46575 1.63965e-17
9962.32721 1.62742e-17
9963.18868 1.61519e-17
9964.05014 1.60221e-17
9964.91160 1.58922e-17
9965.77306 1.58159e-17
9966.63452 1.57397e-17
9967.49599 1.57311e-17
9968.36747 1.57228e-17
9969.22893 1.57585e-17
9970.09039 1.57943e-17
9970.95185 1.58706e-17
9971.81331 1.59470e-17
9972.67477 1.60814e-17
9973.53624 1.62160e-17
9974.39770 1.64012e-17
9975.25916 1.65865e-17
9976.12062 1.67829e-17
9976.98208 1.69792e-17
9977.85356 1.71552e-17
9978.71503 1.73311e-17
9979.57649 1.74716e-17
9980.43795 1.76120e-17
9981.29941 1.77117e-17
9982.16087 1.78114e-17
9983.02234 1.78915e-17
9983.88380 1.79716e-17
9984.74526 1.80536e-17
9985.60672 1.81356e-17
9986.46818 1.82301e-17
9987.32965 1.83246e-17
9988.20112 1.84370e-17
9989.06259 1.85495e-17
9989.92405 1.86403e-17
9990.78551 1.87310e-17
9991.64697 1.87553e-17
9992.50843 1.87793e-17
9993.36990 1.87708e-17
9994.23136 1.87621e-17
9995.09282 1.87782e-17
9995.95428 1.87945e-17
9996.81574 1.88257e-17
9997.67721 1.88569e-17
9998.54869 1.88663e-17
9999.41015 1.88756e-17
