# wavelength flux
3719.99538 1.37891e-17
3721.50320 1.23456e-17
3723.00084 1.32969e-17
3724.49848 1.71736e-17
3725.99611 1.53416e-17
3727.50394 1.24930e-17
3729.00157 1.13400e-17
3730.49921 1.20558e-17
3731.99684 1.25600e-17
3733.50467 1.26602e-17
3735.00230 1.06616e-17
3736.49994 1.02030e-17
3737.99758 1.48258e-17
3739.49521 1.31781e-17
3741.00304 1.26796e-17
3742.50067 1.09664e-17
3743.99831 1.43775e-17
3745.49594 1.40061e-17
3747.00377 1.13198e-17
3748.50140 1.12018e-17
3749.99904 9.76195e-18
3751.49668 1.14154e-17
3753.00450 1.43762e-17
3754.50214 1.36071e-17
3755.99977 1.17042e-17
3757.49741 1.15256e-17
3758.99504 1.23970e-17
3760.50287 1.26351e-17
3762.00050 1.32964e-17
3763.49814 1.12566e-17
3764.99578 1.21005e-17
3766.50360 1.39497e-17
3768.00124 1.27222e-17
3769.49887 1.24290e-17
3770.99651 1.25359e-17
3772.50433 1.26428e-17
3774.00197 1.24613e-17
3775.49960 1.30488e-17
3776.99724 1.11829e-17
3778.49488 1.11700e-17
3780.00270 1.11571e-17
3781.50034 1.12355e-17
3782.99797 1.13139e-17
3784.49561 1.13923e-17
3786.00343 1.14706e-17
3787.50107 1.15490e-17
3788.99870 1.16273e-17
3790.49634 1.17057e-17
3792.00416 1.17840e-17
3793.50180 1.18624e-17
3794.99944 1.19407e-17
3796.49707 1.20190e-17
3798.00490 1.20973e-17
3799.50253 1.21756e-17
3801.00017 1.22539e-17
3802.49780 1.23322e-17
3803.99544 1.24105e-17
3805.50326 1.24887e-17
3807.00090 1.25670e-17
3808.49854 1.26453e-17
3809.99617 1.27235e-17
3811.50400 1.28017e-17
3813.00163 1.28800e-17
3814.49927 1.29582e-17
3815.99690 1.30364e-17
3817.50473 1.31146e-17
3819.00236 1.28937e-17
3820.50000 1.23109e-17
3821.99764 1.15453e-17
3823.49527 1.17597e-17
3825.00310 1.16594e-17
3826.50073 1.15514e-17
3827.99837 1.27418e-17
3829.49600 1.27800e-17
3831.00383 1.19157e-17
3832.50146 1.29878e-17
3833.99910 1.39553e-17
3835.49674 1.18871e-17
3837.00456 1.20514e-17
3838.50220 1.31602e-17
3839.99983 1.23393e-17
3841.49747 1.17128e-17
3842.99510 1.25179e-17
3844.50293 1.24601e-17
3846.00056 1.27409e-17
3847.49820 1.26073e-17
3848.99584 1.19437e-17
3850.50366 1.16539e-17
3852.00130 1.27012e-17
3853.49893 1.39970e-17
3854.99657 1.35454e-17
3856.50439 1.41293e-17
3858.00203 1.57869e-17
3859.49966 1.50072e-17
3860.99730 1.33888e-17
3862.49494 1.26480e-17
3864.00276 1.26444e-17
3865.50040 1.38445e-17
3866.99803 1.32253e-17
3868.49567 1.26061e-17
3870.00349 1.26054e-17
3871.50113 1.27670e-17
3872.99876 1.23331e-17
3874.49640 1.22490e-17
3876.00422 1.51531e-17
3877.50186 1.32170e-17
3878.99950 1.20179e-17
3880.49713 1.17563e-17
3881.99477 1.34285e-17
3883.50259 1.31755e-17
3885.00023 1.39865e-17
3886.49786 1.41008e-17
3887.99550 1.27501e-17
3889.50332 1.37276e-17
3891.00096 1.44638e-17
3892.49860 1.25154e-17
3893.99623 1.36291e-17
3895.50406 1.47807e-17
3897.00169 1.35217e-17
3898.49933 1.34559e-17
3899.99696 1.43725e-17
3901.50479 1.35155e-17
3903.00242 1.28576e-17
3904.50006 1.36550e-17
3905.99770 1.37702e-17
3907.49533 1.36774e-17
3909.00316 1.46550e-17
3910.50079 1.43700e-17
3911.99843 1.33902e-17
3913.49606 1.39920e-17
3915.00389 1.41675e-17
3916.50152 1.33602e-17
3917.99916 1.41691e-17
3919.49680 1.52020e-17
3921.00462 1.49442e-17
3922.50226 1.46673e-17
3923.99989 1.22845e-17
3925.49753 1.27595e-17
3926.99516 1.52660e-17
3928.50299 1.52739e-17
3930.00062 1.33932e-17
3931.49826 1.18689e-17
3932.99590 1.23535e-17
3934.50372 1.39174e-17
3936.00136 1.39295e-17
3937.49899 1.28926e-17
3938.99663 1.56897e-17
3940.50445 1.38261e-17
3942.00209 1.34781e-17
3943.49972 1.16068e-17
3944.99736 1.10948e-17
3946.49500 1.35642e-17
3948.00282 1.34649e-17
3949.50046 1.33147e-17
3950.99809 1.42028e-17
3952.49573 1.23061e-17
3954.00355 1.35165e-17
3955.50119 1.39746e-17
3956.99882 1.22073e-17
3958.49646 1.29082e-17
3960.00428 1.31494e-17
3961.50192 1.31838e-17
3962.99956 1.47743e-17
3964.49719 1.66295e-17
3965.99483 1.53014e-17
3967.50265 1.48841e-17
3969.00029 1.52812e-17
3970.49792 1.50736e-17
3971.99556 1.42081e-17
3973.50338 1.36444e-17
3975.00102 1.32151e-17
3976.49866 1.38542e-17
3977.99629 1.35678e-17
3979.50412 1.31312e-17
3981.00175 1.35157e-17
3982.49939 1.39867e-17
3983.99702 1.49817e-17
3985.50485 1.47405e-17
3987.00248 1.40217e-17
3988.50012 1.42430e-17
3989.99776 1.38716e-17
3991.49539 1.45561e-17
3993.00322 1.43875e-17
3994.50085 1.39373e-17
3995.99849 1.41733e-17
3997.49612 1.39407e-17
3999.00395 1.44913e-17
4000.50158 1.30237e-17
4001.99922 1.25198e-17
4003.49686 1.46620e-17
4005.00468 1.39694e-17
4006.50232 1.36988e-17
4007.99995 1.29215e-17
4009.49759 1.25213e-17
4010.99522 1.32940e-17
4012.50305 1.38870e-17
4014.00068 1.48944e-17
4015.49832 1.47077e-17
4016.99596 1.31080e-17
4018.50378 1.34587e-17
4020.00142 1.42383e-17
4021.49905 1.48655e-17
4022.99669 1.43668e-17
4024.50451 1.39952e-17
4026.00215 1.36870e-17
4027.49978 1.37588e-17
4028.99742 1.43068e-17
4030.49506 1.43014e-17
4032.00288 1.37558e-17
4033.50052 1.25047e-17
4034.99815 1.25236e-17
4036.49579 1.29965e-17
4038.00361 1.39998e-17
4039.50125 1.49365e-17
4040.99888 1.47469e-17
4042.49652 1.39959e-17
4044.00434 1.40415e-17
4045.50198 1.36245e-17
4046.99962 1.45081e-17
4048.49725 1.51190e-17
4049.99489 1.38917e-17
4051.50271 1.35979e-17
4053.00035 1.40411e-17
4054.49798 1.57121e-17
4055.99562 1.48966e-17
4057.50344 1.45347e-17
4059.00108 1.58017e-17
4060.49872 1.59215e-17
4061.99635 1.41227e-17
4063.50418 1.45222e-17
4065.00181 1.52372e-17
4066.49945 1.43490e-17
4067.99708 1.44736e-17
4069.50491 1.44583e-17
4071.00254 1.50986e-17
4072.50018 1.61209e-17
4073.99782 1.63740e-17
4075.49545 1.48993e-17
4077.00328 1.43026e-17
4078.50091 1.38278e-17
4079.99855 1.26140e-17
4081.49618 1.32328e-17
4083.00401 1.42655e-17
4084.50164 1.45857e-17
4085.99928 1.45502e-17
4087.49692 1.55648e-17
4089.00474 1.47034e-17
4090.50238 1.38051e-17
4092.00001 1.57691e-17
4093.49765 1.67552e-17
4094.99528 1.51186e-17
4096.50311 1.45847e-17
4098.00074 1.37006e-17
4099.49838 1.39391e-17
4100.99602 1.55607e-17
4102.50384 1.43951e-17
4104.00148 1.39660e-17
4105.49911 1.49540e-17
4106.99675 1.42436e-17
4108.50457 1.51896e-17
4110.00221 1.53392e-17
4111.49984 1.31558e-17
4112.99748 1.29759e-17
4114.49512 1.41809e-17
4116.00294 1.59706e-17
4117.50058 1.56907e-17
4118.99821 1.39184e-17
4120.49585 1.42675e-17
4122.00367 1.40540e-17
4123.50131 1.34169e-17
4124.99894 1.37206e-17
4126.49658 1.40413e-17
4128.00440 1.40072e-17
4129.50204 1.47837e-17
4130.99968 1.42599e-17
4132.49731 1.43896e-17
4133.99495 1.39797e-17
4135.50277 1.33408e-17
4137.00041 1.43994e-17
4138.49804 1.38568e-17
4139.99568 1.34024e-17
4141.50350 1.29598e-17
4143.00114 1.32227e-17
4144.49878 1.51382e-17
4145.99641 1.39623e-17
4147.50424 1.37801e-17
4149.00187 1.57824e-17
4150.49951 1.56983e-17
4151.99714 1.29072e-17
4153.49478 1.24241e-17
4155.00260 1.41988e-17
4156.50024 1.50578e-17
4157.99788 1.30480e-17
4159.49551 1.47798e-17
4161.00334 1.40838e-17
4162.50097 1.35911e-17
4163.99861 1.33191e-17
4165.49624 1.40095e-17
4167.00407 1.42816e-17
4168.50170 1.42669e-17
4169.99934 1.28074e-17
4171.49698 1.30132e-17
4173.00480 1.41159e-17
4174.50244 1.42178e-17
4176.00007 1.43610e-17
4177.49771 1.60310e-17
4178.99534 1.67592e-17
4180.50317 1.71163e-17
4182.00080 1.56986e-17
4183.49844 1.43839e-17
4184.99608 1.45472e-17
4186.50390 1.33698e-17
4188.00154 1.38296e-17
4189.49917 1.59122e-17
4190.99681 1.49563e-17
4192.50463 1.39976e-17
4194.00227 1.48372e-17
4195.49990 1.46860e-17
4196.99754 1.35619e-17
4198.49518 1.39820e-17
4200.00300 1.45722e-17
4201.50064 1.41342e-17
4202.99827 1.27103e-17
4204.49591 1.42044e-17
4206.00373 1.46321e-17
4207.50137 1.43022e-17
4208.99900 1.38379e-17
4210.49664 1.46803e-17
4212.00446 1.48785e-17
4213.50210 1.37075e-17
4214.99974 1.22041e-17
4216.49737 1.14879e-17
4218.00520 1.24588e-17
4219.50283 1.40468e-17
4221.00047 1.38050e-17
4222.49810 1.34187e-17
4223.99574 1.33421e-17
4225.50356 1.28300e-17
4227.00120 1.27536e-17
4228.49884 1.37550e-17
4229.99647 1.28495e-17
4231.50430 1.24695e-17
4233.00193 1.39427e-17
4234.49957 1.34327e-17
4235.99720 1.32749e-17
4237.50503 1.34983e-17
4239.00266 1.38916e-17
4240.50030 1.39912e-17
4241.99794 1.33994e-17
4243.49557 1.36120e-17
4245.00340 1.30976e-17
4246.50103 1.21335e-17
4247.99867 1.15440e-17
4249.49630 1.23471e-17
4251.00413 1.39027e-17
4252.50176 1.40200e-17
4253.99940 1.31807e-17
4255.49704 1.25470e-17
4257.00486 1.19681e-17
4258.50250 1.26018e-17
4260.00013 1.30992e-17
4261.49777 1.38832e-17
4262.99540 1.39272e-17
4264.50323 1.25382e-17
4266.00086 1.28599e-17
4267.49850 1.40725e-17
4268.99614 1.37256e-17
4270.50396 1.26665e-17
4272.00160 1.20651e-17
4273.49923 1.16827e-17
4274.99687 1.22720e-17
4276.50469 1.32685e-17
4278.00233 1.35712e-17
4279.49996 1.26211e-17
4280.99760 1.30000e-17
4282.49524 1.22679e-17
4284.00306 1.25428e-17
4285.50070 1.33322e-17
4286.99833 1.22060e-17
4288.49597 1.31802e-17
4290.00379 1.26525e-17
4291.50143 1.25331e-17
4292.99906 1.28878e-17
4294.49670 1.26901e-17
4296.00452 1.21574e-17
4297.50216 1.27726e-17
4298.99980 1.23388e-17
4300.49743 1.30061e-17
4301.99507 1.28199e-17
4303.50289 1.30553e-17
4305.00053 1.24727e-17
4306.49816 1.23769e-17
4307.99580 1.23251e-17
4309.50362 1.20330e-17
4311.00126 1.20187e-17
4312.49890 1.09875e-17
4313.99653 1.14275e-17
4315.50436 1.23884e-17
4317.00199 1.28856e-17
4318.49963 1.24035e-17
4319.99726 1.19849e-17
4321.49490 1.16736e-17
4323.00272 1.27741e-17
4324.50036 1.27300e-17
4325.99800 1.16124e-17
4327.49563 1.25341e-17
4329.00346 1.34832e-17
4330.50109 1.32127e-17
4331.99873 1.18244e-17
4333.49636 1.17955e-17
4335.00419 1.26624e-17
4336.50182 1.23049e-17
4337.99946 1.24918e-17
4339.49710 1.38003e-17
4341.00492 1.24151e-17
4342.50256 1.12962e-17
4344.00019 1.25686e-17
4345.49783 1.27844e-17
4346.99546 1.26320e-17
4348.50329 1.20121e-17
4350.00092 1.25265e-17
4351.49856 1.30174e-17
4352.99620 1.24555e-17
4354.50402 1.30364e-17
4356.00166 1.34548e-17
4357.49929 1.27649e-17
4358.99693 1.26345e-17
4360.50475 1.29241e-17
4362.00239 1.29837e-17
4363.50002 1.36224e-17
4364.99766 1.41483e-17
4366.49530 1.27342e-17
4368.00312 1.26304e-17
4369.50076 1.41018e-17
4370.99839 1.31373e-17
4372.49603 1.38036e-17
4374.00385 1.29024e-17
4375.50149 1.23113e-17
4376.99912 1.35556e-17
4378.49676 1.42703e-17
4380.00458 1.29658e-17
4381.50222 1.23034e-17
4382.99986 1.26149e-17
4384.49749 1.29968e-17
4385.99513 1.30387e-17
4387.50295 1.29029e-17
4389.00059 1.31801e-17
4390.49822 1.41212e-17
4391.99586 1.38080e-17
4393.50368 1.32598e-17
4395.00132 1.36090e-17
4396.49896 1.37572e-17
4397.99659 1.38378e-17
4399.50442 1.35970e-17
4401.00205 1.28330e-17
4402.49969 1.35130e-17
4403.99732 1.32857e-17
4405.50515 1.32867e-17
4407.00278 1.44881e-17
4408.50042 1.45032e-17
4409.99806 1.40045e-17
4411.49569 1.37529e-17
4413.00352 1.37977e-17
4414.50115 1.39232e-17
4415.99879 1.39632e-17
4417.49642 1.40032e-17
4419.00425 1.40431e-17
4420.50188 1.40831e-17
4421.99952 1.41231e-17
4423.49716 1.41631e-17
4425.00498 1.42030e-17
4426.50262 1.42430e-17
4428.00025 1.42829e-17
4429.49789 1.43229e-17
4430.99552 1.43628e-17
4432.50335 1.44028e-17
4434.00098 1.44427e-17
4435.49862 1.44827e-17
4436.99626 1.45226e-17
4438.50408 1.45625e-17
4440.00172 1.46024e-17
4441.49935 1.46423e-17
4442.99699 1.46822e-17
4444.50481 1.47221e-17
4446.00245 1.47620e-17
4447.50008 1.48019e-17
4448.99772 1.48418e-17
4450.49536 1.48817e-17
4452.00318 1.49216e-17
4453.50082 1.49614e-17
4454.99845 1.50013e-17
4456.49609 1.50412e-17
4458.00391 1.50810e-17
4459.50155 1.51209e-17
4460.99918 1.51607e-17
4462.49682 1.52006e-17
4464.00464 1.52404e-17
4465.50228 1.52802e-17
4466.99992 1.53201e-17
4468.49755 1.53599e-17
4469.99519 1.53997e-17
4471.50301 1.54395e-17
4473.00065 1.54793e-17
4474.49828 1.55191e-17
4475.99592 1.55589e-17
4477.50374 1.46979e-17
4479.00138 1.53691e-17
4480.49902 1.40108e-17
4481.99665 1.45026e-17
4483.50448 1.55909e-17
4485.00211 1.50370e-17
4486.49975 1.52189e-17
4487.99738 1.50923e-17
4489.49502 1.50297e-17
4491.00284 1.50660e-17
4492.50048 1.44873e-17
4493.99812 1.49532e-17
4495.49575 1.52318e-17
4497.00358 1.58554e-17
4498.50121 1.58413e-17
4499.99885 1.57302e-17
4501.49648 1.53613e-17
4503.00431 1.46847e-17
4504.50194 1.49208e-17
4505.99958 1.52353e-17
4507.49722 1.45682e-17
4508.99485 1.57708e-17
4510.50268 1.55196e-17
4512.00031 1.53649e-17
4513.49795 1.50399e-17
4514.99558 1.64732e-17
4516.50341 1.61953e-17
4518.00104 1.62789e-17
4519.49868 1.51179e-17
4520.99632 1.48800e-17
4522.50414 1.58775e-17
4524.00178 1.61558e-17
4525.49941 1.54814e-17
4526.99705 1.63407e-17
4528.50487 1.61757e-17
4530.00251 1.50763e-17
4531.50014 1.52528e-17
4532.99778 1.58082e-17
4534.49542 1.59535e-17
4536.00324 1.60124e-17
4537.50088 1.57483e-17
4538.99851 1.62420e-17
4540.49615 1.59995e-17
4542.00397 1.55945e-17
4543.50161 1.60967e-17
4544.99924 1.58499e-17
4546.49688 1.55803e-17
4548.00470 1.59190e-17
4549.50234 1.68345e-17
4550.99998 1.67541e-17
4552.49761 1.63308e-17
4553.99525 1.65652e-17
4555.50307 1.63295e-17
4557.00071 1.67804e-17
4558.49834 1.62696e-17
4559.99598 1.63525e-17
4561.50380 1.66458e-17
4563.00144 1.59694e-17
4564.49908 1.63367e-17
4565.99671 1.67916e-17
4567.50454 1.66385e-17
4569.00217 1.59414e-17
4570.49981 1.64732e-17
4571.99744 1.59157e-17
4573.49508 1.51585e-17
4575.00290 1.62439e-17
4576.50054 1.61025e-17
4577.99818 1.67232e-17
4579.49581 1.75234e-17
4581.00364 1.61448e-17
4582.50127 1.61804e-17
4583.99891 1.68618e-17
4585.49654 1.66339e-17
4587.00437 1.57220e-17
4588.50200 1.53092e-17
4589.99964 1.49819e-17
4591.49728 1.56313e-17
4593.00510 1.54848e-17
4594.50274 1.44977e-17
4596.00037 1.52663e-17
4597.49801 1.62850e-17
4598.99564 1.72581e-17
4600.50347 1.62148e-17
4602.00110 1.57665e-17
4603.49874 1.65030e-17
4604.99638 1.59418e-17
4606.50420 1.56823e-17
4608.00184 1.57315e-17
4609.49947 1.50074e-17
4610.99711 1.53318e-17
4612.50493 1.63245e-17
4614.00257 1.62850e-17
4615.50020 1.50919e-17
4616.99784 1.55303e-17
4618.49548 1.57947e-17
4620.00330 1.52686e-17
4621.50094 1.59703e-17
4622.99857 1.55814e-17
4624.49621 1.43101e-17
4626.00403 1.48319e-17
4627.50167 1.64472e-17
4628.99930 1.63723e-17
4630.49694 1.57913e-17
4632.00476 1.57174e-17
4633.50240 1.51836e-17
4635.00004 1.53182e-17
4636.49767 1.51486e-17
4637.99531 1.60179e-17
4639.50313 1.56868e-17
4641.00077 1.56952e-17
4642.49840 1.54485e-17
4643.99604 1.48866e-17
4645.50386 1.47185e-17
4647.00150 1.48016e-17
4648.49914 1.61566e-17
4649.99677 1.61794e-17
4651.50460 1.61392e-17
4653.00223 1.57438e-17
4654.49987 1.54969e-17
4655.99750 1.53836e-17
4657.49514 1.57586e-17
4659.00296 1.58755e-17
4660.50060 1.56357e-17
4661.99824 1.53406e-17
4663.49587 1.48428e-17
4665.00370 1.47627e-17
4666.50133 1.46376e-17
4667.99897 1.46869e-17
4669.49660 1.47822e-17
4671.00443 1.47044e-17
4672.50206 1.45917e-17
4673.99970 1.44046e-17
4675.49734 1.45366e-17
4676.99497 1.49704e-17
4678.50280 1.46187e-17
4680.00043 1.41146e-17
4681.49807 1.40043e-17
4682.99570 1.43074e-17
4684.50353 1.48217e-17
4686.00116 1.51146e-17
4687.49880 1.50105e-17
4688.99644 1.49087e-17
4690.50426 1.47874e-17
4692.00190 1.47380e-17
4693.49953 1.36737e-17
4694.99717 1.34961e-17
4696.49480 1.43474e-17
4698.00263 1.48797e-17
4699.50026 1.49299e-17
4700.99790 1.44702e-17
4702.49554 1.42961e-17
4704.00336 1.43698e-17
4705.50100 1.46614e-17
4706.99863 1.47640e-17
4708.49627 1.49299e-17
4710.00409 1.44809e-17
4711.50173 1.40078e-17
4712.99936 1.46572e-17
4714.49700 1.38559e-17
4716.00482 1.36448e-17
4717.50246 1.35543e-17
4719.00010 1.39934e-17
4720.49773 1.40611e-17
4721.99537 1.43491e-17
4723.50319 1.39762e-17
4725.00083 1.40978e-17
4726.49846 1.41411e-17
4727.99610 1.44529e-17
4729.50392 1.33784e-17
4731.00156 1.36523e-17
4732.49920 1.40645e-17
4733.99683 1.37627e-17
4735.50466 1.34988e-17
4737.00229 1.33417e-17
4738.49993 1.37477e-17
4739.99756 1.40782e-17
4741.49520 1.44292e-17
4743.00302 1.39892e-17
4744.50066 1.36883e-17
4745.99830 1.40406e-17
4747.49593 1.38193e-17
4749.00376 1.35919e-17
4750.50139 1.40776e-17
4751.99903 1.38201e-17
4753.49666 1.25926e-17
4755.00449 1.22420e-17
4756.50212 1.27296e-17
4757.99976 1.31466e-17
4759.49740 1.31339e-17
4761.00522 1.36852e-17
4762.50286 1.39897e-17
4764.00049 1.38836e-17
4765.49813 1.39419e-17
4766.99576 1.33935e-17
4768.50359 1.30947e-17
4770.00122 1.36484e-17
4771.49886 1.30243e-17
4772.99650 1.25675e-17
4774.50432 1.31482e-17
4776.00196 1.34858e-17
4777.49959 1.29746e-17
4778.99723 1.30903e-17
4780.50505 1.27005e-17
4782.00269 1.26441e-17
4783.50032 1.25894e-17
4784.99796 1.33288e-17
4786.49560 1.30400e-17
4788.00342 1.33952e-17
4789.50106 1.38123e-17
4790.99869 1.30819e-17
4792.49633 1.25437e-17
4794.00415 1.17934e-17
4795.50179 1.23835e-17
4796.99942 1.35334e-17
4798.49706 1.43897e-17
4800.00488 1.30836e-17
4801.50252 1.32437e-17
4803.00016 1.37929e-17
4804.49779 1.39260e-17
4805.99543 1.33020e-17
4807.50325 1.29665e-17
4809.00089 1.29982e-17
4810.49852 1.31150e-17
4811.99616 1.26382e-17
4813.50398 1.20434e-17
4815.00162 1.19196e-17
4816.49926 1.28819e-17
4817.99689 1.38958e-17
4819.50472 1.35592e-17
4821.00235 1.33667e-17
4822.49999 1.33192e-17
4823.99762 1.29601e-17
4825.49526 1.29457e-17
4827.00308 1.30969e-17
4828.50072 1.28828e-17
4829.99836 1.35603e-17
4831.49599 1.35470e-17
4833.00382 1.26902e-17
4834.50145 1.32816e-17
4835.99909 1.36034e-17
4837.49672 1.25395e-17
4839.00455 1.30869e-17
4840.50218 1.25567e-17
4841.99982 1.24645e-17
4843.49746 1.21865e-17
4844.99509 1.22186e-17
4846.50292 1.27808e-17
4848.00055 1.22298e-17
4849.49819 1.29337e-17
4850.99582 1.24545e-17
4852.50365 1.24662e-17
4854.00128 1.30313e-17
4855.49892 1.30505e-17
4856.99656 1.28799e-17
4858.50438 1.28621e-17
4860.00202 1.23819e-17
4861.49965 1.19075e-17
4862.99729 1.22526e-17
4864.49492 1.21685e-17
4866.00275 1.27147e-17
4867.50038 1.27886e-17
4868.99802 1.32056e-17
4870.49566 1.30272e-17
4872.00348 1.26650e-17
4873.50112 1.22116e-17
4874.99875 1.22449e-17
4876.49639 1.25804e-17
4878.00421 1.25531e-17
4879.50185 1.24057e-17
4880.99948 1.20068e-17
4882.49712 1.22077e-17
4884.00494 1.30117e-17
4885.50258 1.28842e-17
4887.00022 1.19432e-17
4888.49785 1.22177e-17
4889.99549 1.20770e-17
4891.50331 1.23085e-17
4893.00095 1.28272e-17
4894.49858 1.23475e-17
4895.99622 1.15614e-17
4897.50404 1.14552e-17
4899.00168 1.21204e-17
4900.49932 1.26248e-17
4901.99695 1.24647e-17
4903.50478 1.21548e-17
4905.00241 1.21731e-17
4906.50005 1.20299e-17
4907.99768 1.19804e-17
4909.49532 1.21580e-17
4911.00314 1.22230e-17
4912.50078 1.16944e-17
4913.99842 1.15656e-17
4915.49605 1.14282e-17
4917.00388 1.18092e-17
4918.50151 1.11820e-17
4919.99915 1.26232e-17
4921.49678 1.28013e-17
4923.00461 1.26016e-17
4924.50224 1.20874e-17
4925.99988 1.13501e-17
4927.49752 1.09109e-17
4928.99515 1.25353e-17
4930.50298 1.32175e-17
4932.00061 1.22343e-17
4933.49825 1.19246e-17
4934.99588 1.19130e-17
4936.50371 1.19015e-17
4938.00134 1.18899e-17
4939.49898 1.18783e-17
4940.99662 1.18667e-17
4942.50444 1.18552e-17
4944.00208 1.18436e-17
4945.49971 1.18320e-17
4946.99735 1.18204e-17
4948.50517 1.18089e-17
4950.00281 1.17973e-17
4951.50044 1.17857e-17
4952.99808 1.17742e-17
4954.49572 1.17626e-17
4956.00354 1.17511e-17
4957.50118 1.17395e-17
4958.99881 1.17279e-17
4960.49645 1.17164e-17
4962.00427 1.17048e-17
4963.50191 1.16933e-17
4964.99954 1.16817e-17
4966.49718 1.16702e-17
4968.00500 1.16586e-17
4969.50264 1.16471e-17
4971.00028 1.16356e-17
4972.49791 1.16240e-17
4973.99555 1.25581e-17
4975.50337 1.25523e-17
4977.00101 1.15593e-17
4978.49864 1.25032e-17
4979.99628 1.23927e-17
4981.50410 1.23672e-17
4983.00174 1.28883e-17
4984.49938 1.26052e-17
4985.99701 1.19389e-17
4987.50484 1.18144e-17
4989.00247 1.21817e-17
4990.50011 1.22792e-17
4991.99774 1.28817e-17
4993.49538 1.26072e-17
4995.00320 1.11279e-17
4996.50084 1.13244e-17
4997.99848 1.13399e-17
4999.49611 1.18677e-17
5001.00394 1.21482e-17
5002.50157 1.20742e-17
5003.99921 1.18432e-17
5005.49684 1.18655e-17
5007.00467 1.13998e-17
5008.50230 1.16515e-17
5009.99994 1.22333e-17
5011.49758 1.19161e-17
5012.99521 1.20980e-17
5014.50304 1.19026e-17
5016.00067 1.17682e-17
5017.49831 1.25230e-17
5018.99594 1.29598e-17
5020.50377 1.28882e-17
5022.00140 1.24959e-17
5023.49904 1.13279e-17
5024.99668 1.21418e-17
5026.50450 1.16497e-17
5028.00214 1.21852e-17
5029.49977 1.29371e-17
5030.99741 1.24165e-17
5032.49504 1.22192e-17
5034.00287 1.23025e-17
5035.50050 1.23858e-17
5036.99814 1.24692e-17
5038.49578 1.25525e-17
5040.00360 1.26358e-17
5041.50124 1.27191e-17
5042.99887 1.28023e-17
5044.49651 1.28856e-17
5046.00433 1.29689e-17
5047.50197 1.30521e-17
5048.99960 1.31354e-17
5050.49724 1.32186e-17
5051.99488 1.33018e-17
5053.50270 1.33850e-17
5055.00034 1.34683e-17
5056.49797 1.35514e-17
5057.99561 1.36346e-17
5059.50343 1.37178e-17
5061.00107 1.38010e-17
5062.49870 1.38841e-17
5063.99634 1.39673e-17
5065.50416 1.40504e-17
5067.00180 1.41336e-17
5068.49944 1.42167e-17
5069.99707 1.42998e-17
5071.50490 1.43829e-17
5073.00253 1.36751e-17
5074.50017 1.38943e-17
5075.99780 1.30566e-17
5077.49544 1.34273e-17
5079.00326 1.36037e-17
5080.50090 1.33250e-17
5081.99854 1.44075e-17
5083.49617 1.43822e-17
5085.00400 1.43568e-17
5086.50163 1.43315e-17
5087.99927 1.43061e-17
5089.49690 1.42808e-17
5091.00473 1.42554e-17
5092.50236 1.42301e-17
5094.00000 1.42048e-17
5095.49764 1.41794e-17
5096.99527 1.41541e-17
5098.50310 1.41288e-17
5100.00073 1.41035e-17
5101.49837 1.40782e-17
5102.99600 1.40528e-17
5104.50383 1.40275e-17
5106.00146 1.40022e-17
5107.49910 1.39769e-17
5108.99674 1.39516e-17
5110.50456 1.39263e-17
5112.00220 1.39010e-17
5113.49983 1.38758e-17
5114.99747 1.38505e-17
5116.49510 1.38252e-17
5118.00293 1.37999e-17
5119.50056 1.37746e-17
5120.99820 1.39580e-17
5122.49584 1.45255e-17
5124.00366 1.47359e-17
5125.50130 1.44616e-17
5126.99893 1.50719e-17
5128.49657 1.51458e-17
5130.00439 1.46602e-17
5131.50203 1.42835e-17
5132.99966 1.51701e-17
5134.49730 1.43809e-17
5136.00512 1.38198e-17
5137.50276 1.43130e-17
5139.00040 1.51721e-17
5140.49803 1.49196e-17
5141.99567 1.46007e-17
5143.50349 1.47855e-17
5145.00113 1.50300e-17
5146.49876 1.48339e-17
5147.99640 1.47350e-17
5149.50422 1.46207e-17
5151.00186 1.54183e-17
5152.49950 1.53221e-17
5153.99713 1.50417e-17
5155.50496 1.45515e-17
5157.00259 1.51354e-17
5158.50023 1.52855e-17
5159.99786 1.57529e-17
5161.49550 1.58790e-17
5163.00332 1.42452e-17
5164.50096 1.41028e-17
5165.99860 1.42398e-17
5167.49623 1.45993e-17
5169.00406 1.40381e-17
5170.50169 1.41489e-17
5171.99933 1.44911e-17
5173.49696 1.50948e-17
5175.00479 1.50731e-17
5176.50242 1.43968e-17
5178.00006 1.44069e-17
5179.49770 1.50297e-17
5180.99533 1.50668e-17
5182.50316 1.46144e-17
5184.00079 1.48752e-17
5185.49843 1.55427e-17
5186.99606 1.52336e-17
5188.50389 1.51185e-17
5190.00152 1.54336e-17
5191.49916 1.55209e-17
5192.99680 1.51431e-17
5194.50462 1.50022e-17
5196.00226 1.53974e-17
5197.49989 1.54123e-17
5198.99753 1.48566e-17
5200.49516 1.49795e-17
5202.00299 1.50626e-17
5203.50062 1.47850e-17
5204.99826 1.49700e-17
5206.49590 1.44528e-17
5208.00372 1.48137e-17
5209.50136 1.58895e-17
5210.99899 1.57657e-17
5212.49663 1.45167e-17
5214.00445 1.54894e-17
5215.50209 1.46026e-17
5216.99972 1.55912e-17
5218.49736 1.54388e-17
5219.99500 1.49036e-17
5221.50282 1.59699e-17
5223.00046 1.47124e-17
5224.49809 1.43110e-17
5225.99573 1.46813e-17
5227.50355 1.51756e-17
5229.00119 1.51041e-17
5230.49882 1.45878e-17
5231.99646 1.45672e-17
5233.50428 1.42930e-17
5235.00192 1.51202e-17
5236.49956 1.55470e-17
5237.99719 1.53879e-17
5239.49483 1.49975e-17
5241.00265 1.50134e-17
5242.50029 1.52599e-17
5243.99792 1.51035e-17
5245.49556 1.51357e-17
5247.00338 1.49724e-17
5248.50102 1.46091e-17
5249.99866 1.49514e-17
5251.49629 1.52510e-17
5253.00412 1.47521e-17
5254.50175 1.46839e-17
5255.99939 1.48992e-17
5257.49702 1.44584e-17
5259.00485 1.47941e-17
5260.50248 1.56632e-17
5262.00012 1.54541e-17
5263.49776 1.51493e-17
5264.99539 1.49637e-17
5266.50322 1.49292e-17
5268.00085 1.42734e-17
5269.49849 1.48286e-17
5270.99612 1.49633e-17
5272.50395 1.48601e-17
5274.00158 1.43995e-17
5275.49922 1.46732e-17
5276.99686 1.51936e-17
5278.50468 1.46303e-17
5280.00232 1.45182e-17
5281.49995 1.48431e-17
5282.99759 1.45832e-17
5284.49522 1.45739e-17
5286.00305 1.41877e-17
5287.50068 1.42835e-17
5288.99832 1.46022e-17
5290.49596 1.46130e-17
5292.00378 1.52822e-17
5293.50142 1.53808e-17
5294.99905 1.52350e-17
5296.49669 1.49071e-17
5298.00451 1.41145e-17
5299.50215 1.37494e-17
5300.99978 1.43802e-17
5302.49742 1.41587e-17
5303.99506 1.47547e-17
5305.50288 1.47661e-17
5307.00052 1.43611e-17
5308.49815 1.47289e-17
5309.99579 1.38079e-17
5311.50361 1.37208e-17
5313.00125 1.43719e-17
5314.49888 1.42421e-17
5315.99652 1.45376e-17
5317.50434 1.43626e-17
5319.00198 1.41029e-17
5320.49962 1.42338e-17
5321.99725 1.38118e-17
5323.50508 1.36943e-17
5325.00271 1.43843e-17
5326.50035 1.41898e-17
5327.99798 1.39048e-17
5329.49562 1.41283e-17
5331.00344 1.36241e-17
5332.50108 1.36127e-17
5333.99872 1.41853e-17
5335.49635 1.38388e-17
5337.00418 1.36095e-17
5338.50181 1.41432e-17
5339.99945 1.39626e-17
5341.49708 1.36278e-17
5343.00491 1.37848e-17
5344.50254 1.38070e-17
5346.00018 1.35665e-17
5347.49782 1.43187e-17
5348.99545 1.39218e-17
5350.50328 1.29861e-17
5352.00091 1.34928e-17
5353.49855 1.37144e-17
5354.99618 1.34049e-17
5356.50401 1.36480e-17
5358.00164 1.39963e-17
5359.49928 1.40142e-17
5360.99692 1.31118e-17
5362.50474 1.34719e-17
5364.00238 1.34712e-17
5365.50001 1.42531e-17
5366.99765 1.33730e-17
5368.49528 1.36784e-17
5370.00311 1.39945e-17
5371.50074 1.39304e-17
5372.99838 1.40510e-17
5374.49602 1.35185e-17
5376.00384 1.36407e-17
5377.50148 1.38995e-17
5378.99911 1.37056e-17
5380.49675 1.38806e-17
5382.00457 1.42640e-17
5383.50221 1.39858e-17
5384.99984 1.34087e-17
5386.49748 1.35875e-17
5387.99512 1.38555e-17
5389.50294 1.38285e-17
5391.00058 1.41936e-17
5392.49821 1.45310e-17
5393.99585 1.44157e-17
5395.50367 1.42991e-17
5397.00131 1.39861e-17
5398.49894 1.41353e-17
5399.99658 1.44271e-17
5401.50440 1.40724e-17
5403.00204 1.37687e-17
5404.49968 1.37736e-17
5405.99731 1.36353e-17
5407.49495 1.33716e-17
5409.00277 1.34489e-17
5410.50041 1.39817e-17
5411.99804 1.31868e-17
5413.49568 1.30086e-17
5415.00350 1.36092e-17
5416.50114 1.32822e-17
5417.99878 1.30035e-17
5419.49641 1.32321e-17
5421.00424 1.41350e-17
5422.50187 1.43874e-17
5423.99951 1.33037e-17
5425.49714 1.28889e-17
5426.99478 1.33862e-17
5428.50260 1.34131e-17
5430.00024 1.32291e-17
5431.49788 1.22318e-17
5432.99551 1.28651e-17
5434.50334 1.36024e-17
5436.00097 1.34319e-17
5437.49861 1.27821e-17
5438.99624 1.31110e-17
5440.50407 1.31455e-17
5442.00170 1.29058e-17
5443.49934 1.34460e-17
5444.99698 1.38605e-17
5446.50480 1.32129e-17
5448.00244 1.31945e-17
5449.50007 1.24461e-17
5450.99771 1.32105e-17
5452.49534 1.31849e-17
5454.00317 1.23656e-17
5455.50080 1.30070e-17
5456.99844 1.33558e-17
5458.49608 1.36311e-17
5460.00390 1.31753e-17
5461.50154 1.26717e-17
5462.99917 1.27455e-17
5464.49681 1.31894e-17
5466.00463 1.32477e-17
5467.50227 1.32810e-17
5468.99990 1.34622e-17
5470.49754 1.37264e-17
5471.99518 1.32542e-17
5473.50300 1.26981e-17
5475.00064 1.29735e-17
5476.49827 1.28693e-17
5477.99591 1.27200e-17
5479.50373 1.29498e-17
5481.00137 1.31901e-17
5482.49900 1.28323e-17
5483.99664 1.28300e-17
5485.50446 1.29905e-17
5487.00210 1.27976e-17
5488.49974 1.27339e-17
5489.99737 1.20440e-17
5491.49501 1.27510e-17
5493.00283 1.32616e-17
5494.50047 1.27591e-17
5495.99810 1.21729e-17
5497.49574 1.36238e-17
5499.00356 1.27049e-17
5500.50120 1.23341e-17
5501.99884 1.29289e-17
5503.49647 1.33267e-17
5505.00430 1.26304e-17
5506.50193 1.22325e-17
5507.99957 1.22209e-17
5509.49720 1.27452e-17
5511.00503 1.27055e-17
5512.50266 1.23322e-17
5514.00030 1.28041e-17
5515.49794 1.26857e-17
5516.99557 1.21464e-17
5518.50340 1.23304e-17
5520.00103 1.19005e-17
5521.49867 1.27559e-17
5522.99630 1.32999e-17
5524.50413 1.26855e-17
5526.00176 1.24189e-17
5527.49940 1.29926e-17
5528.99704 1.29748e-17
5530.50486 1.25507e-17
5532.00250 1.22597e-17
5533.50013 1.23046e-17
5534.99777 1.22627e-17
5536.49540 1.21955e-17
5538.00323 1.16956e-17
5539.50086 1.18653e-17
5540.99850 1.25252e-17
5542.49614 1.21550e-17
5544.00396 1.22241e-17
5545.50160 1.25553e-17
5546.99923 1.22468e-17
5548.49687 1.20402e-17
5550.00469 1.24311e-17
5551.50233 1.20763e-17
5552.99996 1.12994e-17
5554.49760 1.13101e-17
5555.99524 1.26896e-17
5557.50306 1.15755e-17
5559.00070 1.14131e-17
5560.49833 1.19891e-17
5561.99597 1.15445e-17
5563.50379 1.17645e-17
5565.00143 1.20298e-17
5566.49906 1.23876e-17
5567.99670 1.24939e-17
5569.50452 1.21316e-17
5571.00216 1.20878e-17
5572.49980 1.21336e-17
5573.99743 1.21794e-17
5575.49507 1.22252e-17
5577.00289 1.22710e-17
5578.50053 1.23168e-17
5579.99816 1.23626e-17
5581.49580 1.23620e-17
5583.00362 1.11511e-17
5584.50126 1.12130e-17
5585.99890 1.19836e-17
5587.49653 1.21610e-17
5589.00436 1.17982e-17
5590.50199 1.21906e-17
5591.99963 1.18502e-17
5593.49726 1.15061e-17
5594.99490 1.15039e-17
5596.50272 1.19483e-17
5598.00036 1.21021e-17
5599.49800 1.19999e-17
5600.99563 1.19464e-17
5602.50346 1.18637e-17
5604.00109 1.21505e-17
5605.49873 1.15749e-17
5606.99636 1.17204e-17
5608.50419 1.22908e-17
5610.00182 1.19056e-17
5611.49946 1.15350e-17
5612.99710 1.14125e-17
5614.50492 1.14612e-17
5616.00256 1.20325e-17
5617.50019 1.23455e-17
5618.99783 1.19824e-17
5620.49546 1.14815e-17
5622.00329 1.12380e-17
5623.50092 1.18942e-17
5624.99856 1.21371e-17
5626.49620 1.18726e-17
5628.00402 1.19667e-17
5629.50166 1.23582e-17
5630.99929 1.22234e-17
5632.49693 1.15355e-17
5634.00475 1.18920e-17
5635.50239 1.19553e-17
5637.00002 1.11623e-17
5638.49766 1.18780e-17
5639.99530 1.17200e-17
5641.50312 1.12368e-17
5643.00076 1.13094e-17
5644.49839 1.13288e-17
5645.99603 1.09365e-17
5647.50385 1.07699e-17
5649.00149 1.16082e-17
5650.49912 1.18028e-17
5651.99676 1.16096e-17
5653.50458 1.13918e-17
5655.00222 1.09431e-17
5656.49986 1.11821e-17
5657.99749 1.13364e-17
5659.49513 1.11939e-17
5661.00295 1.12850e-17
5662.50059 1.16947e-17
5663.99822 1.13738e-17
5665.49586 1.06253e-17
5667.00368 1.11642e-17
5668.50132 1.17769e-17
5669.99896 1.16907e-17
5671.49659 1.18705e-17
5673.00442 1.15906e-17
5674.50205 1.13806e-17
5675.99969 1.13721e-17
5677.49732 1.14257e-17
5679.00515 1.18372e-17
5680.50278 1.16160e-17
5682.00042 1.09006e-17
5683.49806 1.07076e-17
5684.99569 1.09554e-17
5686.50352 1.06450e-17
5688.00115 1.02107e-17
5689.49879 1.08329e-17
5690.99642 1.18180e-17
5692.50425 1.12112e-17
5694.00188 1.02465e-17
5695.49952 1.09765e-17
5696.99716 1.13982e-17
5698.50498 1.08131e-17
5700.00262 1.07928e-17
5701.50025 1.07417e-17
5702.99789 1.03617e-17
5704.49552 1.05940e-17
5706.00335 1.04268e-17
5707.50098 1.04238e-17
5708.99862 1.07291e-17
5710.49626 1.13336e-17
5712.00408 1.13123e-17
5713.50172 1.06237e-17
5714.99935 1.12878e-17
5716.49699 1.15062e-17
5718.00481 1.06012e-17
5719.50245 1.06348e-17
5721.00008 1.10263e-17
5722.49772 1.06178e-17
5723.99536 1.10088e-17
5725.50318 1.12885e-17
5727.00082 1.12296e-17
5728.49845 1.11223e-17
5729.99609 1.05400e-17
5731.50391 1.07567e-17
5733.00155 1.08551e-17
5734.49918 1.04669e-17
5735.99682 1.05334e-17
5737.50464 1.03847e-17
5739.00228 1.08785e-17
5740.49992 1.13973e-17
5741.99755 1.08973e-17
5743.49519 1.10120e-17
5745.00301 1.13618e-17
5746.50065 1.11495e-17
5747.99828 1.16221e-17
5749.49592 1.14234e-17
5751.00374 1.08242e-17
5752.50138 1.08561e-17
5753.99902 1.15740e-17
5755.49665 1.17325e-17
5757.00448 1.11806e-17
5758.50211 1.12075e-17
5759.99975 1.08705e-17
5761.49738 1.03536e-17
5762.99502 1.06320e-17
5764.50284 1.14866e-17
5766.00048 1.10611e-17
5767.49812 1.10933e-17
5768.99575 1.06699e-17
5770.50358 9.78869e-18
5772.00121 1.09738e-17
5773.49885 1.13130e-17
5774.99648 1.13523e-17
5776.50431 1.12870e-17
5778.00194 1.13403e-17
5779.49958 1.12994e-17
5780.99722 1.05788e-17
5782.49485 1.11285e-17
5784.00268 1.10905e-17
5785.50031 1.12291e-17
5786.99795 1.10522e-17
5788.49558 1.07965e-17
5790.00341 1.12844e-17
5791.50104 1.15984e-17
5792.99868 1.12891e-17
5794.49632 1.11409e-17
5796.00414 1.13143e-17
5797.50178 1.12883e-17
5798.99941 1.12294e-17
5800.49705 1.12491e-17
5802.00487 1.11856e-17
5803.50251 1.07569e-17
5805.00014 1.02838e-17
5806.49778 1.07999e-17
5807.99542 1.09943e-17
5809.50324 1.07024e-17
5811.00088 1.06271e-17
5812.49851 1.06771e-17
5813.99615 1.09046e-17
5815.50397 1.09516e-17
5817.00161 1.07849e-17
5818.49924 1.10167e-17
5819.99688 1.10280e-17
5821.50470 1.07392e-17
5823.00234 1.03665e-17
5824.49998 1.09116e-17
5825.99761 1.11001e-17
5827.49525 1.10614e-17
5829.00307 1.10477e-17
5830.50071 1.10153e-17
5831.99834 1.12588e-17
5833.49598 1.14741e-17
5835.00380 1.13002e-17
5836.50144 1.10615e-17
5837.99908 1.10128e-17
5839.49671 1.10012e-17
5841.00454 1.22083e-17
5842.50217 1.16465e-17
5843.99981 1.06595e-17
5845.49744 1.03500e-17
5846.99508 1.06785e-17
5848.50290 1.11088e-17
5850.00054 1.11079e-17
5851.49818 1.13775e-17
5852.99581 1.10317e-17
5854.50364 1.11542e-17
5856.00127 1.06663e-17
5857.49891 1.08417e-17
5858.99654 1.10353e-17
5860.50437 1.11962e-17
5862.00200 1.08022e-17
5863.49964 1.03124e-17
5864.99728 1.08238e-17
5866.50510 1.05442e-17
5868.00274 1.03325e-17
5869.50037 1.09387e-17
5870.99801 1.12587e-17
5872.49564 1.06454e-17
5874.00347 1.02905e-17
5875.50110 1.09273e-17
5876.99874 1.05707e-17
5878.49638 1.02824e-17
5880.00420 1.04873e-17
5881.50184 1.05769e-17
5882.99947 1.01667e-17
5884.49711 9.93873e-18
5886.00493 1.05605e-17
5887.50257 1.06756e-17
5889.00020 1.02367e-17
5890.49784 1.06591e-17
5891.99548 1.11057e-17
5893.50330 1.08067e-17
5895.00094 1.07095e-17
5896.49857 1.10017e-17
5897.99621 1.06394e-17
5899.50403 1.01941e-17
5901.00167 1.07580e-17
5902.49930 1.07714e-17
5903.99694 1.05681e-17
5905.50476 1.03940e-17
5907.00240 1.04207e-17
5908.50004 1.05047e-17
5909.99767 9.83353e-18
5911.49531 9.74340e-18
5913.00313 1.04233e-17
5914.50077 1.03105e-17
5915.99840 9.92290e-18
5917.49604 1.02313e-17
5919.00386 1.02222e-17
5920.50150 1.09342e-17
5921.99914 1.06064e-17
5923.49677 1.01341e-17
5925.00460 1.04606e-17
5926.50223 1.01100e-17
5927.99987 1.04343e-17
5929.49750 1.07667e-17
5930.99514 1.08302e-17
5932.50296 1.00676e-17
5934.00060 1.00509e-17
5935.49824 1.03231e-17
5936.99587 9.85679e-18
5938.50370 9.62766e-18
5940.00133 9.68901e-18
5941.49897 9.46789e-18
5942.99660 9.66407e-18
5944.50443 9.67775e-18
5946.00206 9.87093e-18
5947.49970 9.95196e-18
5948.99734 1.03634e-17
5950.49497 1.05781e-17
5952.00280 1.01277e-17
5953.50043 1.01046e-17
5954.99807 9.82014e-18
5956.49570 9.82683e-18
5958.00353 9.83352e-18
5959.50116 9.84021e-18
5960.99880 9.84691e-18
5962.49644 9.85360e-18
5964.00426 9.86029e-18
5965.50190 9.86698e-18
5966.99953 9.87367e-18
5968.49717 9.88037e-18
5969.99480 9.88706e-18
5971.50263 9.89375e-18
5973.00026 9.90044e-18
5974.49790 9.90714e-18
5975.99554 9.91383e-18
5977.50336 9.92052e-18
5979.00100 9.92721e-18
5980.49863 9.93390e-18
5981.99627 9.94059e-18
5983.50409 9.94728e-18
5985.00173 9.95397e-18
5986.49936 9.96066e-18
5987.99700 9.96735e-18
5989.50482 9.97404e-18
5991.00246 9.98073e-18
5992.50010 9.98742e-18
5993.99773 9.99411e-18
5995.49537 1.00008e-17
5997.00319 1.00075e-17
5998.50083 1.00142e-17
5999.99846 1.00209e-17
6001.49610 1.00276e-17
6003.00392 1.00342e-17
6004.50156 1.00409e-17
6005.99920 1.00476e-17
6007.49683 1.00543e-17
6009.00466 1.00610e-17
6010.50229 1.00677e-17
6011.99993 1.00744e-17
6013.49756 1.00811e-17
6014.99520 1.00878e-17
6016.50302 1.00944e-17
6018.00066 1.01011e-17
6019.49830 1.02823e-17
6020.99593 1.02744e-17
6022.50376 1.03718e-17
6024.00139 1.00995e-17
6025.49903 9.95492e-18
6026.99666 9.64875e-18
6028.50449 9.42740e-18
6030.00212 9.53137e-18
6031.49976 9.79699e-18
6032.99740 9.82283e-18
6034.49503 9.70362e-18
6036.00286 9.62091e-18
6037.50049 9.18980e-18
6038.99813 9.50143e-18
6040.49576 9.30973e-18
6042.00359 9.05173e-18
6043.50122 9.42013e-18
6044.99886 9.59065e-18
6046.49650 9.90175e-18
6048.00432 9.81244e-18
6049.50196 9.98235e-18
6050.99959 9.92482e-18
6052.49723 9.69103e-18
6054.00505 9.37565e-18
6055.50269 9.79210e-18
6057.00032 9.80241e-18
6058.49796 9.80930e-18
6059.99560 9.81619e-18
6061.50342 9.82308e-18
6063.00106 9.82278e-18
6064.49869 1.02572e-17
6065.99633 9.70711e-18
6067.50415 9.65408e-18
6069.00179 9.71803e-18
6070.49942 1.02433e-17
6071.99706 9.89254e-18
6073.50488 9.31286e-18
6075.00252 9.29728e-18
6076.50016 8.85047e-18
6077.99779 9.01951e-18
6079.49543 9.53771e-18
6081.00325 9.60020e-18
6082.50089 9.58609e-18
6083.99852 9.43767e-18
6085.49616 9.33086e-18
6087.00398 9.23633e-18
6088.50162 9.72860e-18
6089.99926 1.00436e-17
6091.49689 9.30810e-18
6093.00472 9.19292e-18
6094.50235 9.19166e-18
6095.99999 9.19040e-18
6097.49762 9.18913e-18
6098.99526 9.18786e-18
6100.50308 9.18758e-18
6102.00072 9.60353e-18
6103.49836 9.07965e-18
6104.99599 8.60635e-18
6106.50382 9.38734e-18
6108.00145 9.18657e-18
6109.49909 8.36253e-18
6110.99672 8.56959e-18
6112.50455 9.16300e-18
6114.00218 9.31661e-18
6115.49982 9.11047e-18
6116.99746 9.25457e-18
6118.49509 9.01655e-18
6120.00292 8.31664e-18
6121.50055 7.96552e-18
6122.99819 8.35603e-18
6124.49582 9.28573e-18
6126.00365 9.25947e-18
6127.50128 8.60147e-18
6128.99892 8.48762e-18
6130.49656 8.50619e-18
6132.00438 8.49776e-18
6133.50202 8.75854e-18
6134.99965 8.71333e-18
6136.49729 8.29857e-18
6137.99492 8.10335e-18
6139.50275 8.98034e-18
6141.00038 8.83978e-18
6142.49802 8.08531e-18
6143.99566 8.47802e-18
6145.50348 8.45991e-18
6147.00112 7.95706e-18
6148.49875 8.27128e-18
6149.99639 8.65974e-18
6151.50421 8.42484e-18
6153.00185 8.05811e-18
6154.49948 8.64632e-18
6155.99712 8.73491e-18
6157.50494 8.73864e-18
6159.00258 8.87643e-18
6160.50022 9.09177e-18
6161.99785 8.88866e-18
6163.49549 8.39310e-18
6165.00331 8.02005e-18
6166.50095 8.35244e-18
6167.99858 8.96637e-18
6169.49622 8.77096e-18
6171.00404 8.32055e-18
6172.50168 8.31726e-18
6173.99932 8.48240e-18
6175.49695 7.93489e-18
6177.00478 7.94241e-18
6178.50241 8.10532e-18
6180.00005 8.19865e-18
6181.49768 8.10644e-18
6182.99532 8.11308e-18
6184.50314 8.50255e-18
6186.00078 8.90367e-18
6187.49842 8.78019e-18
6188.99605 8.61431e-18
6190.50388 8.52753e-18
6192.00151 8.64650e-18
6193.49915 8.94135e-18
6194.99678 8.96942e-18
6196.50461 8.85275e-18
6198.00224 8.92523e-18
6199.49988 9.09820e-18
6200.99752 8.55933e-18
6202.49515 8.24081e-18
6204.00298 8.80781e-18
6205.50061 8.83068e-18
6206.99825 8.97669e-18
6208.49588 8.43214e-18
6210.00371 8.14871e-18
6211.50134 8.13188e-18
6212.99898 8.24051e-18
6214.49662 8.71470e-18
6216.00444 8.80192e-18
6217.50208 8.99105e-18
6218.99971 8.69707e-18
6220.49735 8.43406e-18
6221.99498 8.50752e-18
6223.50281 8.85308e-18
6225.00044 8.82831e-18
6226.49808 8.42299e-18
6227.99572 8.30538e-18
6229.50354 8.92968e-18
6231.00118 8.87968e-18
6232.49881 8.70492e-18
6233.99645 8.48243e-18
6235.50427 8.45458e-18
6237.00191 8.86737e-18
6238.49954 8.85922e-18
6239.99718 8.30112e-18
6241.50500 8.09652e-18
6243.00264 8.89997e-18
6244.50028 9.43920e-18
6245.99791 9.69686e-18
6247.49555 9.49219e-18
6249.00337 8.81619e-18
6250.50101 8.87985e-18
6251.99864 9.60366e-18
6253.49628 9.41750e-18
6255.00410 9.33959e-18
6256.50174 9.77532e-18
6257.99938 9.45020e-18
6259.49701 9.11866e-18
6261.00484 9.26557e-18
6262.50247 8.64467e-18
6264.00011 9.18065e-18
6265.49774 9.36091e-18
6266.99538 8.49807e-18
6268.50320 8.64894e-18
6270.00084 9.19994e-18
6271.49848 9.16761e-18
6272.99611 8.77489e-18
6274.50394 8.72656e-18
6276.00157 9.00026e-18
6277.49921 8.88366e-18
6278.99684 9.28964e-18
6280.50467 9.25773e-18
6282.00230 8.39732e-18
6283.49994 8.68385e-18
6284.99758 9.61194e-18
6286.49521 9.06032e-18
6288.00304 8.53232e-18
6289.50067 9.13619e-18
6290.99831 9.17835e-18
6292.49594 9.30813e-18
6294.00377 8.95514e-18
6295.50140 8.16445e-18
6296.99904 8.76931e-18
6298.49668 8.77477e-18
6300.00450 8.51201e-18
6301.50214 8.24926e-18
6302.99977 8.24903e-18
6304.49741 8.61302e-18
6305.99504 8.89853e-18
6307.50287 8.64565e-18
6309.00050 8.38201e-18
6310.49814 8.58308e-18
6311.99578 8.47782e-18
6313.50360 8.50826e-18
6315.00124 9.07025e-18
6316.49887 8.83511e-18
6317.99651 8.47088e-18
6319.50433 8.89682e-18
6321.00197 8.93842e-18
6322.49960 8.59412e-18
6323.99724 8.59033e-18
6325.49488 8.71364e-18
6327.00270 8.54764e-18
6328.50034 9.21749e-18
6329.99797 9.41986e-18
6331.49561 8.88784e-18
6333.00343 8.90117e-18
6334.50107 8.86444e-18
6335.99870 9.04154e-18
6337.49634 9.21095e-18
6339.00416 9.33317e-18
6340.50180 9.24641e-18
6341.99944 8.98266e-18
6343.49707 8.97446e-18
6345.00490 8.87223e-18
6346.50253 8.87684e-18
6348.00017 8.87479e-18
6349.49780 8.55176e-18
6350.99544 9.02149e-18
6352.50326 8.84497e-18
6354.00090 8.71465e-18
6355.49854 9.26670e-18
6356.99617 9.56355e-18
6358.50400 9.43461e-18
6360.00163 8.90878e-18
6361.49927 8.93760e-18
6362.99690 9.04352e-18
6364.50473 9.73387e-18
6366.00236 9.44647e-18
6367.50000 9.09988e-18
6368.99764 9.33225e-18
6370.49527 9.21712e-18
6372.00310 8.97463e-18
6373.50073 9.09821e-18
6374.99837 8.54128e-18
6376.49600 8.64049e-18
6378.00383 9.72847e-18
6379.50146 1.00758e-17
6380.99910 9.78512e-18
6382.49674 9.23699e-18
6384.00456 9.00172e-18
6385.50220 9.29969e-18
6386.99983 9.16979e-18
6388.49747 8.82595e-18
6389.99510 8.63469e-18
6391.50293 9.04992e-18
6393.00056 9.36803e-18
6394.49820 9.22510e-18
6395.99584 9.62557e-18
6397.50366 1.00522e-17
6399.00130 9.43372e-18
6400.49893 9.21047e-18
6401.99657 9.32062e-18
6403.50439 9.43472e-18
6405.00203 9.43181e-18
6406.49966 9.58714e-18
6407.99730 9.49571e-18
6409.49494 9.43370e-18
6411.00276 8.98533e-18
6412.50040 8.72449e-18
6413.99803 9.65496e-18
6415.49567 9.60217e-18
6417.00349 9.33002e-18
6418.50113 9.05760e-18
6419.99876 9.58529e-18
6421.49640 9.42325e-18
6423.00422 9.44510e-18
6424.50186 9.88809e-18
6425.99950 9.13080e-18
6427.49713 9.12134e-18
6429.00496 9.35920e-18
6430.50259 9.67035e-18
6432.00023 1.01341e-17
6433.49786 1.01066e-17
6434.99550 9.36832e-18
6436.50332 9.29934e-18
6438.00096 1.00823e-17
6439.49860 9.33575e-18
6440.99623 9.40284e-18
6442.50406 9.22152e-18
6444.00169 9.53173e-18
6445.49933 9.97709e-18
6446.99696 9.72122e-18
6448.50479 1.01490e-17
6450.00242 9.90503e-18
6451.50006 9.94430e-18
6452.99770 9.95346e-18
6454.49533 9.65077e-18
6456.00316 9.46571e-18
6457.50079 9.53185e-18
6458.99843 9.57439e-18
6460.49606 9.30317e-18
6462.00389 9.30966e-18
6463.50152 9.35859e-18
6464.99916 9.39700e-18
6466.49680 9.16445e-18
6468.00462 9.14331e-18
6469.50226 9.55024e-18
6470.99989 9.39005e-18
6472.49753 9.30179e-18
6473.99516 9.53258e-18
6475.50299 9.30852e-18
6477.00062 9.35491e-18
6478.49826 9.56745e-18
6479.99590 9.51553e-18
6481.50372 9.40180e-18
6483.00136 9.83766e-18
6484.49899 9.69512e-18
6485.99663 9.09989e-18
6487.50445 9.16654e-18
6489.00209 9.52748e-18
6490.49972 9.30762e-18
6491.99736 9.10328e-18
6493.49500 9.38888e-18
6495.00282 9.39624e-18
6496.50046 9.07707e-18
6497.99809 8.94628e-18
6499.49573 9.28299e-18
6501.00355 9.69009e-18
6502.50119 9.80372e-18
6503.99882 9.45022e-18
6505.49646 9.32533e-18
6507.00428 9.81815e-18
6508.50192 1.01338e-17
6509.99956 9.60653e-18
6511.49719 9.08837e-18
6512.99483 9.17802e-18
6514.50265 9.28140e-18
6516.00029 9.23701e-18
6517.49792 9.45746e-18
6518.99556 9.51307e-18
6520.50338 9.31774e-18
6522.00102 9.72290e-18
6523.49866 1.02385e-17
6524.99629 1.01521e-17
6526.50412 9.81940e-18
6528.00175 9.44056e-18
6529.49939 9.25609e-18
6530.99702 9.68609e-18
6532.50485 1.01571e-17
6534.00248 9.40234e-18
6535.50012 8.83278e-18
6536.99776 9.11200e-18
6538.49539 8.79144e-18
6540.00322 8.93612e-18
6541.50085 9.26154e-18
6542.99849 9.21270e-18
6544.49612 9.54786e-18
6546.00395 9.42793e-18
6547.50158 9.18667e-18
6548.99922 9.02111e-18
6550.49686 9.09420e-18
6552.00468 9.11924e-18
6553.50232 9.24665e-18
6554.99995 9.54453e-18
6556.49759 9.29350e-18
6557.99522 8.68049e-18
6559.50305 9.29102e-18
6561.00068 8.94350e-18
6562.49832 8.93821e-18
6563.99596 9.45292e-18
6565.50378 9.28745e-18
6567.00142 9.26993e-18
6568.49905 9.45439e-18
6569.99669 9.19979e-18
6571.50451 9.31753e-18
6573.00215 9.21359e-18
6574.49978 9.23109e-18
6575.99742 9.84441e-18
6577.49506 9.93215e-18
6579.00288 9.90121e-18
6580.50052 9.25551e-18
6581.99815 9.24191e-18
6583.49579 9.73366e-18
6585.00361 9.36767e-18
6586.50125 9.15225e-18
6587.99888 9.52389e-18
6589.49652 9.47375e-18
6591.00434 9.07277e-18
6592.50198 9.66238e-18
6593.99962 9.63883e-18
6595.49725 9.41006e-18
6596.99489 9.71162e-18
6598.50271 9.29202e-18
6600.00035 9.11622e-18
6601.49798 9.59493e-18
6602.99562 9.47302e-18
6604.50344 8.72105e-18
6606.00108 8.77508e-18
6607.49872 9.35204e-18
6608.99635 9.61011e-18
6610.50418 9.36657e-18
6612.00181 9.21749e-18
6613.49945 9.29075e-18
6614.99708 9.49719e-18
6616.50491 8.94621e-18
6618.00254 9.04905e-18
6619.50018 8.88734e-18
6620.99782 8.87487e-18
6622.49545 9.39637e-18
6624.00328 9.46878e-18
6625.50091 9.13219e-18
6626.99855 9.22662e-18
6628.49618 9.91534e-18
6630.00401 8.93387e-18
6631.50164 8.83830e-18
6632.99928 9.54988e-18
6634.49692 9.91673e-18
6636.00474 8.86990e-18
6637.50238 8.63007e-18
6639.00001 9.00839e-18
6640.49765 9.12924e-18
6641.99528 9.17832e-18
6643.50311 9.38574e-18
6645.00074 9.17106e-18
6646.49838 9.10845e-18
6647.99602 9.20665e-18
6649.50384 9.04433e-18
6651.00148 9.40079e-18
6652.49911 9.11047e-18
6653.99675 9.10720e-18
6655.50457 9.10394e-18
6657.00221 9.10068e-18
6658.49984 9.09741e-18
6659.99748 9.09415e-18
6661.49512 9.09088e-18
6663.00294 9.08762e-18
6664.50058 9.08436e-18
6665.99821 9.08109e-18
6667.49585 9.07783e-18
6669.00367 9.07457e-18
6670.50131 9.07131e-18
6671.99894 9.06805e-18
6673.49658 9.06478e-18
6675.00440 9.06152e-18
6676.50204 9.05826e-18
6677.99968 9.05500e-18
6679.49731 9.05174e-18
6680.99495 9.04848e-18
6682.50277 9.04522e-18
6684.00041 9.04195e-18
6685.49804 9.03869e-18
6686.99568 9.03543e-18
6688.50350 9.03217e-18
6690.00114 9.02891e-18
6691.49878 9.02560e-18
6692.99641 9.02228e-18
6694.50424 9.01897e-18
6696.00187 9.01565e-18
6697.49951 9.01234e-18
6698.99714 9.00902e-18
6700.49478 9.00571e-18
6702.00260 9.00239e-18
6703.50024 8.99908e-18
6704.99788 8.99577e-18
6706.49551 8.99245e-18
6708.00334 8.98914e-18
6709.50097 8.98583e-18
6710.99861 8.98251e-18
6712.49624 8.97920e-18
6714.00407 8.97589e-18
6715.50170 8.97257e-18
6716.99934 8.96926e-18
6718.49698 8.96595e-18
6720.00480 8.96264e-18
6721.50244 8.95932e-18
6723.00007 8.95601e-18
6724.49771 8.95270e-18
6725.99534 8.94939e-18
6727.50317 8.90423e-18
6729.00080 8.75369e-18
6730.49844 8.47658e-18
6731.99608 8.57894e-18
6733.50390 8.22237e-18
6735.00154 8.37531e-18
6736.49917 8.42326e-18
6737.99681 8.07952e-18
6739.50463 8.53096e-18
6741.00227 8.59141e-18
6742.49990 8.23002e-18
6743.99754 8.14459e-18
6745.49518 8.30477e-18
6747.00300 8.15998e-18
6748.50064 8.27785e-18
6749.99827 8.35019e-18
6751.49591 8.57338e-18
6753.00373 8.91234e-18
6754.50137 8.46896e-18
6755.99900 8.32837e-18
6757.49664 8.48911e-18
6759.00446 8.60385e-18
6760.50210 8.98468e-18
6761.99974 8.51570e-18
6763.49737 8.20557e-18
6764.99501 8.93606e-18
6766.50283 8.89859e-18
6768.00047 8.69966e-18
6769.49810 8.73441e-18
6770.99574 8.48435e-18
6772.50356 8.20496e-18
6774.00120 8.00455e-18
6775.49884 8.39505e-18
6776.99647 8.53071e-18
6778.50430 8.74175e-18
6780.00193 8.46542e-18
6781.49957 8.15597e-18
6782.99720 8.39289e-18
6784.50503 8.50933e-18
6786.00266 8.80634e-18
6787.50030 8.42638e-18
6788.99794 8.70921e-18
6790.49557 8.37247e-18
6792.00340 8.14827e-18
6793.50103 8.25010e-18
6794.99867 8.45096e-18
6796.49630 8.30878e-18
6798.00413 8.05476e-18
6799.50176 7.96265e-18
6800.99940 7.95202e-18
6802.49704 8.47300e-18
6804.00486 7.82307e-18
6805.50250 8.05653e-18
6807.00013 8.37760e-18
6808.49777 7.92230e-18
6809.99540 7.63753e-18
6811.50323 7.65025e-18
6813.00086 7.97968e-18
6814.49850 8.43713e-18
6815.99614 8.40382e-18
6817.50396 8.52724e-18
6819.00160 8.26657e-18
6820.49923 8.13639e-18
6821.99687 8.00703e-18
6823.50469 7.66910e-18
6825.00233 7.66518e-18
6826.49996 7.66126e-18
6827.99760 7.65734e-18
6829.49524 7.65343e-18
6831.00306 7.64951e-18
6832.50070 7.64559e-18
6833.99833 7.64167e-18
6835.49597 7.63775e-18
6837.00379 7.63384e-18
6838.50143 7.62992e-18
6839.99906 7.65850e-18
6841.49670 7.68709e-18
6843.00452 7.71568e-18
6844.50216 7.74426e-18
6845.99980 7.77284e-18
6847.49743 7.80142e-18
6848.99507 7.83000e-18
6850.50289 7.85857e-18
6852.00053 7.88716e-18
6853.49816 7.91573e-18
6854.99580 7.94430e-18
6856.50362 7.97286e-18
6858.00126 8.00144e-18
6859.49890 8.03001e-18
6860.99653 8.05857e-18
6862.50436 8.08714e-18
6864.00199 8.11570e-18
6865.49963 8.14427e-18
6866.99726 8.17283e-18
6868.49490 8.20139e-18
6870.00272 8.22994e-18
6871.50036 8.25851e-18
6872.99800 8.28706e-18
6874.49563 8.31561e-18
6876.00346 8.34417e-18
6877.50109 8.16896e-18
6878.99873 8.07557e-18
6880.49636 7.75968e-18
6882.00419 7.36362e-18
6883.50182 7.54578e-18
6884.99946 7.69337e-18
6886.49710 8.14731e-18
6888.00492 8.87417e-18
6889.50256 8.78917e-18
6891.00019 7.94440e-18
6892.49783 7.54386e-18
6893.99546 7.70861e-18
6895.50329 7.75830e-18
6897.00092 7.89836e-18
6898.49856 7.82660e-18
6899.99620 7.79693e-18
6901.50402 7.76725e-18
6903.00166 7.73757e-18
6904.49929 7.73737e-18
6905.99693 7.27531e-18
6907.50475 7.75724e-18
6909.00239 7.89144e-18
6910.50002 8.08346e-18
6911.99766 7.32161e-18
6913.49530 7.65059e-18
6915.00312 7.78498e-18
6916.50076 7.70087e-18
6917.99839 7.15039e-18
6919.49603 7.48151e-18
6921.00385 7.83126e-18
6922.50149 7.66577e-18
6923.99912 6.97144e-18
6925.49676 7.39087e-18
6927.00458 7.58767e-18
6928.50222 7.62331e-18
6929.99986 7.81366e-18
6931.49749 7.38768e-18
6932.99513 7.36294e-18
6934.50295 7.68922e-18
6936.00059 7.63101e-18
6937.49822 7.44279e-18
6938.99586 7.47324e-18
6940.50368 7.45953e-18
6942.00132 7.82622e-18
6943.49896 7.34046e-18
6944.99659 7.14212e-18
6946.50442 7.94121e-18
6948.00205 7.42754e-18
6949.49969 6.94080e-18
6950.99732 7.31025e-18
6952.49496 7.03821e-18
6954.00278 6.72347e-18
6955.50042 7.32770e-18
6956.99806 7.42044e-18
6958.49569 7.03896e-18
6960.00352 7.48761e-18
6961.50115 7.66434e-18
6962.99879 7.45874e-18
6964.49642 6.89903e-18
6966.00425 6.71475e-18
6967.50188 7.13773e-18
6968.99952 7.38763e-18
6970.49716 7.80494e-18
6972.00498 7.37522e-18
6973.50262 6.84223e-18
6975.00025 7.26740e-18
6976.49789 7.47108e-18
6977.99552 7.17165e-18
6979.50335 7.11709e-18
6981.00098 7.36025e-18
6982.49862 7.48972e-18
6983.99626 7.39044e-18
6985.50408 6.81353e-18
6987.00172 7.24784e-18
6988.49935 7.63149e-18
6989.99699 7.01289e-18
6991.50481 6.94759e-18
6993.00245 6.93992e-18
6994.50008 6.77379e-18
6995.99772 6.97506e-18
6997.49536 7.35650e-18
6999.00318 7.54979e-18
7000.50082 6.98551e-18
7001.99845 6.63899e-18
7003.49609 7.00792e-18
7005.00391 6.67367e-18
7006.50155 7.02637e-18
7007.99918 7.61656e-18
7009.49682 7.61972e-18
7011.00464 7.12520e-18
7012.50228 6.89490e-18
7013.99992 7.32751e-18
7015.49755 7.41514e-18
7016.99519 7.17888e-18
7018.50301 6.85473e-18
7020.00065 6.87423e-18
7021.49828 6.71828e-18
7022.99592 7.31536e-18
7024.50374 7.77226e-18
7026.00138 7.39873e-18
7027.49902 7.12710e-18
7028.99665 7.21426e-18
7030.50448 7.30699e-18
7032.00211 7.29466e-18
7033.49975 7.20500e-18
7034.99738 7.40574e-18
7036.49502 7.35858e-18
7038.00284 7.53788e-18
7039.50048 7.63324e-18
7040.99812 7.37104e-18
7042.49575 7.28347e-18
7044.00358 7.15363e-18
7045.50121 7.06610e-18
7046.99885 6.96276e-18
7048.49648 6.97685e-18
7050.00431 6.88717e-18
7051.50194 7.12139e-18
7052.99958 7.36186e-18
7054.49722 6.85595e-18
7055.99485 6.61083e-18
7057.50268 7.29854e-18
7059.00031 7.11488e-18
7060.49795 7.23630e-18
7061.99558 7.18894e-18
7063.50341 7.64507e-18
7065.00104 6.88031e-18
7066.49868 6.90752e-18
7067.99632 7.23302e-18
7069.50414 7.17124e-18
7071.00178 6.89795e-18
7072.49941 7.18932e-18
7073.99705 7.83989e-18
7075.50487 7.31984e-18
7077.00251 8.49285e-18
7078.50014 7.96662e-18
7079.99778 6.78652e-18
7081.49542 7.53454e-18
7083.00324 6.76237e-18
7084.50088 6.59600e-18
7085.99851 6.97935e-18
7087.49615 7.27945e-18
7089.00397 7.32844e-18
7090.50161 7.11032e-18
7091.99924 7.08163e-18
7093.49688 7.35394e-18
7095.00470 7.12330e-18
7096.50234 7.13065e-18
7097.99998 7.13704e-18
7099.49761 7.22323e-18
7100.99525 7.54972e-18
7102.50307 7.60654e-18
7104.00071 7.37841e-18
7105.49834 6.70713e-18
7106.99598 6.78047e-18
7108.50380 7.42098e-18
7110.00144 7.16999e-18
7111.49908 6.76666e-18
7112.99671 7.42467e-18
7114.50454 7.47928e-18
7116.00217 7.53664e-18
7117.49981 7.57720e-18
7118.99744 7.20682e-18
7120.49508 7.10045e-18
7122.00290 7.27562e-18
7123.50054 7.10595e-18
7124.99818 7.35672e-18
7126.49581 7.65869e-18
7128.00364 7.49788e-18
7129.50127 7.06908e-18
7130.99891 7.16451e-18
7132.49654 7.03299e-18
7134.00437 7.18485e-18
7135.50200 6.89372e-18
7136.99964 6.76434e-18
7138.49728 7.58081e-18
7139.99491 7.74514e-18
7141.50274 7.51332e-18
7143.00037 7.54453e-18
7144.49801 7.47385e-18
7145.99564 7.37406e-18
7147.50347 7.28663e-18
7149.00110 7.22474e-18
7150.49874 7.22316e-18
7151.99638 6.75214e-18
7153.50420 6.63726e-18
7155.00184 6.90113e-18
7156.49947 7.29673e-18
7157.99711 7.14861e-18
7159.50493 7.35929e-18
7161.00257 7.67067e-18
7162.50020 7.35669e-18
7163.99784 7.15500e-18
7165.49548 7.41717e-18
7167.00330 7.36552e-18
7168.50094 6.75003e-18
7169.99857 6.70719e-18
7171.49621 6.81968e-18
7173.00403 6.80344e-18
7174.50167 6.99888e-18
7175.99930 6.84575e-18
7177.49694 6.55277e-18
7179.00476 7.16934e-18
7180.50240 7.73731e-18
7182.00004 7.52934e-18
7183.49767 7.02706e-18
7184.99531 7.23147e-18
7186.50313 7.19897e-18
7188.00077 7.16647e-18
7189.49840 7.13398e-18
7190.99604 7.13379e-18
7192.50386 7.39312e-18
7194.00150 6.95416e-18
7195.49914 6.37674e-18
7196.99677 6.55604e-18
7198.50460 7.72574e-18
7200.00223 7.20172e-18
7201.49987 7.20214e-18
7202.99750 7.19173e-18
7204.49514 6.90969e-18
7206.00296 7.20683e-18
7207.50060 6.96116e-18
7208.99824 7.10338e-18
7210.49587 7.00048e-18
7212.00370 6.93841e-18
7213.50133 7.02474e-18
7214.99897 6.97022e-18
7216.49660 6.95599e-18
7218.00443 6.89782e-18
7219.50206 7.02769e-18
7220.99970 6.75289e-18
7222.49734 7.19117e-18
7223.99497 6.84365e-18
7225.50280 6.54515e-18
7227.00043 6.67329e-18
7228.49807 6.88628e-18
7229.99570 6.92939e-18
7231.50353 7.12377e-18
7233.00116 7.18705e-18
7234.49880 7.22362e-18
7235.99644 7.05448e-18
7237.50426 6.65418e-18
7239.00190 7.37614e-18
7240.49953 7.58962e-18
7241.99717 7.33278e-18
7243.49480 6.83101e-18
7245.00263 6.86919e-18
7246.50026 7.33683e-18
7247.99790 6.59313e-18
7249.49554 6.17632e-18
7251.00336 7.11103e-18
7252.50100 7.43331e-18
7253.99863 6.56087e-18
7255.49627 6.68958e-18
7257.00409 6.90807e-18
7258.50173 6.71204e-18
7259.99936 6.94632e-18
7261.49700 7.11703e-18
7263.00482 6.73510e-18
7264.50246 6.69743e-18
7266.00010 6.86421e-18
7267.49773 6.68101e-18
7268.99537 7.14157e-18
7270.50319 7.22001e-18
7272.00083 7.17233e-18
7273.49846 7.56293e-18
7274.99610 7.69621e-18
7276.50392 7.15480e-18
7278.00156 6.69950e-18
7279.49920 6.42967e-18
7280.99683 5.98450e-18
7282.50466 7.15948e-18
7284.00229 7.16432e-18
7285.49993 6.39002e-18
7286.99756 6.65434e-18
7288.49520 6.91390e-18
7290.00302 7.00189e-18
7291.50066 6.66346e-18
7292.99830 6.62035e-18
7294.49593 6.88568e-18
7296.00376 7.42016e-18
7297.50139 7.12972e-18
7298.99903 6.53523e-18
7300.49666 6.92685e-18
7302.00449 6.92040e-18
7303.50212 6.24958e-18
7304.99976 6.32982e-18
7306.49740 6.47936e-18
7307.99503 6.50554e-18
7309.50286 6.97047e-18
7311.00049 6.70013e-18
7312.49813 6.34561e-18
7313.99576 6.40012e-18
7315.50359 5.68716e-18
7317.00122 5.60328e-18
7318.49886 6.50332e-18
7319.99650 6.59208e-18
7321.50432 6.56231e-18
7323.00196 6.68478e-18
7324.49959 6.61868e-18
7325.99723 6.45688e-18
7327.49486 6.61197e-18
7329.00269 7.01688e-18
7330.50032 6.39623e-18
7331.99796 6.18145e-18
7333.49560 6.78436e-18
7335.00342 6.22003e-18
7336.50106 5.97530e-18
7337.99869 6.41476e-18
7339.49633 6.36852e-18
7341.00415 6.27245e-18
7342.50179 6.26928e-18
7343.99942 6.77602e-18
7345.49706 6.71251e-18
7347.00488 6.44591e-18
7348.50252 5.90796e-18
7350.00016 5.68575e-18
7351.49779 5.91527e-18
7352.99543 6.10740e-18
7354.50325 6.37639e-18
7356.00089 6.55143e-18
7357.49852 6.32397e-18
7358.99616 6.26600e-18
7360.50398 5.98635e-18
7362.00162 6.02138e-18
7363.49926 6.28013e-18
7364.99689 6.24947e-18
7366.50472 6.31070e-18
7368.00235 6.18323e-18
7369.49999 6.61298e-18
7370.99762 6.28141e-18
7372.49526 6.13586e-18
7374.00308 6.31528e-18
7375.50072 5.82022e-18
7376.99836 5.59518e-18
7378.49599 5.77892e-18
7380.00382 5.95376e-18
7381.50145 5.83961e-18
7382.99909 5.57444e-18
7384.49672 5.71701e-18
7386.00455 5.82144e-18
7387.50218 5.42080e-18
7388.99982 6.04121e-18
7390.49746 6.32376e-18
7391.99509 6.09059e-18
7393.50292 5.59263e-18
7395.00055 5.66999e-18
7396.49819 6.09281e-18
7397.99582 5.79109e-18
7399.50365 6.05524e-18
7401.00128 5.98890e-18
7402.49892 5.73013e-18
7403.99656 6.32743e-18
7405.50438 5.93826e-18
7407.00202 5.97853e-18
7408.49965 6.26864e-18
7409.99729 5.76106e-18
7411.49492 5.86307e-18
7413.00275 5.71455e-18
7414.50038 5.45950e-18
7415.99802 5.45690e-18
7417.49566 5.47022e-18
7419.00348 5.54299e-18
7420.50112 5.33495e-18
7421.99875 5.72350e-18
7423.49639 5.61408e-18
7425.00421 5.96900e-18
7426.50185 6.47082e-18
7427.99948 5.60447e-18
7429.49712 4.84938e-18
7431.00494 4.97374e-18
7432.50258 5.04058e-18
7434.00022 5.23406e-18
7435.49785 5.65084e-18
7436.99549 5.70869e-18
7438.50331 5.68223e-18
7440.00095 5.72165e-18
7441.49858 5.48719e-18
7442.99622 5.70429e-18
7444.50404 5.52979e-18
7446.00168 5.04291e-18
7447.49932 5.11939e-18
7448.99695 5.43528e-18
7450.50478 5.43139e-18
7452.00241 5.51156e-18
7453.50005 5.80469e-18
7454.99768 5.77909e-18
7456.49532 5.49959e-18
7458.00314 5.64260e-18
7459.50078 5.78351e-18
7460.99842 5.58994e-18
7462.49605 5.39910e-18
7464.00388 4.91897e-18
7465.50151 4.96847e-18
7466.99915 5.56036e-18
7468.49678 5.50351e-18
7470.00461 5.93377e-18
7471.50224 6.10430e-18
7472.99988 5.20382e-18
7474.49752 4.81370e-18
7475.99515 4.90243e-18
7477.50298 5.20971e-18
7479.00061 5.27650e-18
7480.49825 5.37351e-18
7481.99588 5.25194e-18
7483.50371 4.96786e-18
7485.00134 5.37791e-18
7486.49898 5.69410e-18
7487.99662 5.75324e-18
7489.50444 5.40946e-18
7491.00208 4.93699e-18
7492.49971 4.84986e-18
7493.99735 4.92113e-18
7495.49498 4.96732e-18
7497.00281 5.34254e-18
7498.50044 5.29100e-18
7499.99808 5.11038e-18
7501.49572 5.55282e-18
7503.00354 5.91714e-18
7504.50118 4.95789e-18
7505.99881 4.99123e-18
7507.49645 5.56407e-18
7509.00427 5.86151e-18
7510.50191 5.65531e-18
7511.99954 5.49853e-18
7513.49718 5.15556e-18
7514.99482 5.77707e-18
7516.50264 5.82888e-18
7518.00028 5.62811e-18
7519.49791 5.20234e-18
7520.99555 4.96146e-18
7522.50337 4.60962e-18
7524.00101 5.02392e-18
7525.49864 5.75718e-18
7526.99628 5.60755e-18
7528.50410 5.03066e-18
7530.00174 5.07474e-18
7531.49938 5.26811e-18
7532.99701 5.54880e-18
7534.50484 5.26000e-18
7536.00247 4.57754e-18
7537.50011 4.80441e-18
7538.99774 4.41373e-18
7540.49538 4.65426e-18
7542.00320 4.65426e-18
7544.00005 4.66516e-18
7545.99690 4.71528e-18
7548.00394 4.66811e-18
7550.00078 4.49703e-18
7551.99763 4.39134e-18
7554.00467 4.33869e-18
7556.00152 4.34796e-18
7557.99836 4.46921e-18
7559.99521 4.76884e-18
7562.00225 4.79391e-18
7563.99910 4.55677e-18
7565.99594 4.42758e-18
7568.00298 4.42645e-18
7569.99983 4.44532e-18
7571.99668 4.35911e-18
7574.00371 4.20964e-18
7576.00056 4.21772e-18
7577.99741 4.45657e-18
7580.00444 4.48157e-18
7582.00129 4.24339e-18
7583.99814 4.04382e-18
7585.99499 4.06694e-18
7588.00202 4.23737e-18
7589.99887 4.32879e-18
7591.99572 4.40769e-18
7594.00276 4.47599e-18
7595.99960 4.46592e-18
7597.99645 4.51473e-18
7600.00349 4.74408e-18
7602.00034 5.03854e-18
7603.99718 5.00345e-18
7606.00422 4.62049e-18
7608.00107 4.47447e-18
7609.99792 4.41708e-18
7612.00495 4.41838e-18
7614.00180 4.49300e-18
7615.99865 4.59590e-18
7617.99550 4.65590e-18
7620.00253 4.58058e-18
7621.99938 4.79433e-18
7623.99623 5.49764e-18
7626.00326 5.74587e-18
7628.00011 5.37700e-18
7629.99696 4.84157e-18
7632.00400 4.59089e-18
7634.00084 4.43621e-18
7635.99769 4.29060e-18
7638.00473 4.12415e-18
7640.00158 4.12252e-18
7641.99842 4.36193e-18
7643.99527 4.60842e-18
7646.00231 4.64243e-18
7647.99916 4.57127e-18
7649.99600 4.51067e-18
7652.00304 4.31914e-18
7653.99989 4.26253e-18
7655.99674 4.32159e-18
7658.00377 4.41457e-18
7660.00062 4.52908e-18
7661.99747 4.67496e-18
7664.00450 4.68795e-18
7666.00135 4.60224e-18
7667.99820 4.49550e-18
7669.99505 4.33043e-18
7672.00208 4.17581e-18
7673.99893 4.03318e-18
7675.99578 3.92190e-18
7678.00282 3.90346e-18
7679.99966 3.98774e-18
7681.99651 4.13536e-18
7684.00355 4.40705e-18
7686.00040 4.62069e-18
7687.99724 4.78414e-18
7690.00428 4.89454e-18
7692.00113 4.88317e-18
7693.99798 4.73111e-18
7695.99482 4.68158e-18
7698.00186 4.69015e-18
7699.99871 4.67937e-18
7701.99556 4.67624e-18
7704.00259 4.64240e-18
7705.99944 4.50732e-18
7707.99629 4.27171e-18
7710.00332 4.33602e-18
7712.00017 4.78277e-18
7713.99702 4.90020e-18
7716.00406 4.70754e-18
7718.00090 4.51419e-18
7719.99775 4.43422e-18
7722.00479 4.38850e-18
7724.00164 4.45641e-18
7725.99848 4.72825e-18
7727.99533 4.79822e-18
7730.00237 4.71894e-18
7731.99922 4.63518e-18
7733.99606 4.53128e-18
7736.00310 4.45011e-18
7737.99995 4.50745e-18
7739.99680 4.72480e-18
7742.00383 4.87291e-18
7744.00068 5.11463e-18
7745.99753 5.16748e-18
7748.00456 4.93563e-18
7750.00141 4.58990e-18
7751.99826 4.40821e-18
7753.99511 4.24631e-18
7756.00214 4.30558e-18
7757.99899 4.73102e-18
7759.99584 4.94629e-18
7762.00288 4.95845e-18
7763.99972 4.85147e-18
7765.99657 4.59044e-18
7768.00361 4.11079e-18
7770.00046 4.01260e-18
7771.99730 4.19357e-18
7774.00434 4.33660e-18
7776.00119 4.54952e-18
7777.99804 4.70374e-18
7780.00507 4.72420e-18
7782.00192 4.63584e-18
7783.99877 4.56912e-18
7785.99562 4.41447e-18
7788.00265 4.36253e-18
7789.99950 4.40402e-18
7791.99635 4.48501e-18
7794.00338 4.62965e-18
7796.00023 4.81267e-18
7797.99708 4.81698e-18
7800.00412 4.55313e-18
7802.00096 4.52927e-18
7803.99781 4.67809e-18
7806.00485 4.76821e-18
7808.00170 4.75901e-18
7809.99854 4.67524e-18
7811.99539 4.62442e-18
7814.00243 4.50646e-18
7815.99928 4.62284e-18
7817.99612 5.04044e-18
7820.00316 5.27097e-18
7822.00001 5.29807e-18
7823.99686 5.20582e-18
7826.00389 4.95293e-18
7828.00074 4.45767e-18
7829.99759 4.29578e-18
7832.00462 4.33028e-18
7834.00147 4.43624e-18
7835.99832 4.73722e-18
7837.99517 4.98217e-18
7840.00220 4.91125e-18
7841.99905 4.61526e-18
7843.99590 4.41875e-18
7846.00294 4.13622e-18
7847.99978 4.03095e-18
7849.99663 4.01909e-18
7852.00367 4.15647e-18
7854.00052 4.52384e-18
7855.99736 5.00712e-18
7858.00440 5.17306e-18
7860.00125 5.16275e-18
7861.99810 5.02389e-18
7863.99494 4.63081e-18
7866.00198 4.30692e-18
7867.99883 4.14995e-18
7869.99568 4.08522e-18
7872.00271 4.07096e-18
7873.99956 4.20290e-18
7875.99641 4.23582e-18
7878.00344 4.21539e-18
7880.00029 4.23649e-18
7881.99714 4.29451e-18
7884.00418 4.34753e-18
7886.00102 4.39264e-18
7887.99787 4.39186e-18
7889.99472 4.44386e-18
7892.00176 4.58076e-18
7893.99860 4.64748e-18
7895.99545 4.70303e-18
7898.00249 4.70301e-18
7899.99934 4.55137e-18
7901.99618 4.24527e-18
7904.00322 4.08949e-18
7906.00007 3.99042e-18
7907.99692 4.01814e-18
7910.00395 4.20831e-18
7912.00080 4.40072e-18
7913.99765 4.53113e-18
7916.00468 4.63561e-18
7918.00153 4.58673e-18
7919.99838 4.31568e-18
7921.99523 4.24228e-18
7924.00226 4.23903e-18
7925.99911 4.35871e-18
7927.99596 4.69101e-18
7930.00300 5.12580e-18
7931.99984 5.16559e-18
7933.99669 4.83491e-18
7936.00373 4.64562e-18
7938.00058 4.32823e-18
7939.99742 4.18358e-18
7942.00446 4.33694e-18
7944.00131 4.60584e-18
7945.99816 4.68434e-18
7947.99500 4.69726e-18
7950.00204 4.67032e-18
7951.99889 4.53155e-18
7953.99574 4.49639e-18
7956.00277 4.68183e-18
7957.99962 4.84603e-18
7959.99647 4.69228e-18
7962.00350 4.28677e-18
7964.00035 4.19854e-18
7965.99720 4.30716e-18
7968.00424 4.35667e-18
7970.00108 4.38471e-18
7971.99793 4.42584e-18
7973.99478 4.46140e-18
7976.00182 4.50188e-18
7977.99866 4.47400e-18
7979.99551 4.33198e-18
7982.00255 4.27162e-18
7983.99940 4.22738e-18
7985.99624 4.26041e-18
7988.00328 4.49521e-18
7990.00013 4.84391e-18
7991.99698 4.84373e-18
7994.00401 4.53701e-18
7996.00086 4.34440e-18
7997.99771 4.05816e-18
8000.00474 3.91035e-18
8002.00159 4.03601e-18
8003.99844 4.27892e-18
8005.99529 4.42438e-18
8008.00232 4.63296e-18
8009.99917 4.68028e-18
8011.99602 4.60090e-18
8014.00306 4.46240e-18
8015.99990 4.25899e-18
8017.99675 4.02357e-18
8020.00379 3.83158e-18
8022.00064 3.56455e-18
8023.99748 3.65057e-18
8026.00452 4.23191e-18
8028.00137 4.49464e-18
8029.99822 4.31524e-18
8031.99506 4.09363e-18
8034.00210 4.17474e-18
8035.99895 4.41252e-18
8037.99580 4.44138e-18
8040.00283 4.29646e-18
8041.99968 4.24546e-18
8043.99653 4.28022e-18
8046.00356 4.33148e-18
8048.00041 4.35165e-18
8049.99726 4.37176e-18
8052.00430 4.44149e-18
8054.00114 4.64689e-18
8055.99799 4.67117e-18
8057.99484 4.51560e-18
8060.00188 4.38911e-18
8061.99872 4.34699e-18
8063.99557 4.33192e-18
8066.00261 4.32527e-18
8067.99946 4.37206e-18
8069.99630 4.38997e-18
8072.00334 4.36685e-18
8074.00019 4.40036e-18
8075.99704 4.60831e-18
8078.00407 4.82907e-18
8080.00092 4.71208e-18
8081.99777 4.26716e-18
8084.00480 4.13380e-18
8086.00165 4.19929e-18
8087.99850 4.22557e-18
8089.99535 4.21434e-18
8092.00238 4.19551e-18
8093.99923 4.12642e-18
8095.99608 4.00298e-18
8098.00312 3.99564e-18
8099.99996 4.08492e-18
8101.99681 4.16641e-18
8104.00385 4.27239e-18
8106.00070 4.37265e-18
8107.99754 4.42389e-18
8110.00458 4.44952e-18
8112.00143 4.50498e-18
8113.99828 4.66518e-18
8115.99512 4.64965e-18
8118.00216 4.43421e-18
8119.99901 4.23872e-18
8121.99586 4.19823e-18
8124.00289 4.21099e-18
8125.99974 4.06750e-18
8127.99659 3.67367e-18
8130.00362 3.62834e-18
8132.00047 3.86731e-18
8133.99732 4.07388e-18
8136.00436 4.18401e-18
8138.00120 4.27128e-18
8139.99805 4.38476e-18
8141.99490 4.51924e-18
8144.00194 4.54198e-18
8145.99878 4.41855e-18
8147.99563 4.38343e-18
8150.00267 4.48177e-18
8151.99952 4.61879e-18
8153.99636 4.66423e-18
8156.00340 4.67225e-18
8158.00025 4.65705e-18
8159.99710 4.62048e-18
8162.00413 4.50043e-18
8164.00098 4.15834e-18
8165.99783 3.91528e-18
8167.99468 4.14669e-18
8170.00171 4.73100e-18
8171.99856 4.90361e-18
8173.99541 4.84508e-18
8176.00244 4.83905e-18
8177.99929 4.84506e-18
8179.99614 4.81958e-18
8182.00318 4.73565e-18
8184.00002 4.58574e-18
8185.99687 4.39009e-18
8188.00391 3.98049e-18
8190.00076 3.90161e-18
8191.99760 4.12071e-18
8194.00464 4.36296e-18
8196.00149 4.59569e-18
8197.99834 4.81485e-18
8199.99518 4.70858e-18
8202.00222 4.16731e-18
8203.99907 4.05572e-18
8205.99592 4.23052e-18
8208.00295 4.34464e-18
8209.99980 4.38536e-18
8211.99665 4.37523e-18
8214.00368 4.26553e-18
8216.00053 4.02860e-18
8217.99738 4.01621e-18
8220.00442 4.18572e-18
8222.00126 4.35109e-18
8223.99811 4.54265e-18
8225.99496 4.71649e-18
8228.00200 4.83508e-18
8229.99884 4.94484e-18
8231.99569 4.88960e-18
8234.00273 4.67887e-18
8235.99958 4.52288e-18
8237.99642 4.33895e-18
8240.00346 4.21751e-18
8242.00031 4.23606e-18
8243.99716 4.36063e-18
8246.00419 4.36477e-18
8248.00104 4.33122e-18
8249.99789 4.37760e-18
8252.00492 4.43648e-18
8254.00177 4.50935e-18
8255.99862 4.70065e-18
8257.99547 4.86108e-18
8260.00250 4.75823e-18
8261.99935 4.55397e-18
8263.99620 4.38588e-18
8266.00324 4.24217e-18
8268.00008 4.16607e-18
8269.99693 4.17134e-18
8272.00397 4.23981e-18
8274.00082 4.35242e-18
8275.99766 4.55882e-18
8278.00470 4.66930e-18
8280.00155 4.80072e-18
8281.99840 4.78254e-18
8283.99524 4.53112e-18
8286.00228 4.22922e-18
8287.99913 4.09297e-18
8289.99598 4.02589e-18
8292.00301 4.05151e-18
8293.99986 4.24286e-18
8295.99671 4.35171e-18
8298.00374 4.36324e-18
8300.00059 4.38756e-18
8301.99744 4.52248e-18
8304.00448 4.73242e-18
8306.00132 4.80018e-18
8307.99817 4.76462e-18
8309.99502 4.73738e-18
8312.00206 4.67095e-18
8313.99890 4.62523e-18
8315.99575 4.66728e-18
8318.00279 4.74643e-18
8319.99964 4.63107e-18
8321.99648 4.22123e-18
8324.00352 4.12885e-18
8326.00037 4.25938e-18
8327.99722 4.40706e-18
8330.00425 4.54392e-18
8332.00110 4.67857e-18
8333.99795 4.72157e-18
8335.99480 4.72903e-18
8338.00183 4.61330e-18
8339.99868 4.22811e-18
8341.99553 4.06954e-18
8344.00256 4.21335e-18
8345.99941 4.51811e-18
8347.99626 4.90156e-18
8350.00330 5.54296e-18
8352.00014 5.62996e-18
8353.99699 5.20585e-18
8356.00403 4.91765e-18
8358.00088 4.74221e-18
8359.99772 4.59214e-18
8362.00476 4.42366e-18
8364.00161 4.24282e-18
8365.99846 4.19870e-18
8367.99530 4.25155e-18
8370.00234 4.37054e-18
8371.99919 4.63449e-18
8373.99604 4.86570e-18
8376.00307 4.96477e-18
8377.99992 4.98465e-18
8379.99677 4.87413e-18
8382.00380 4.51217e-18
8384.00065 4.35630e-18
8385.99750 4.28816e-18
8388.00454 4.31494e-18
8390.00138 4.46045e-18
8391.99823 4.69759e-18
8393.99508 4.93480e-18
8396.00212 5.31289e-18
8397.99896 5.44568e-18
8399.99581 5.45044e-18
8402.00285 5.32246e-18
8403.99970 4.97563e-18
8405.99654 4.55847e-18
8408.00358 4.38451e-18
8410.00043 4.36850e-18
8411.99728 4.32055e-18
8414.00431 4.30585e-18
8416.00116 4.30656e-18
8417.99801 4.27960e-18
8419.99486 4.31629e-18
8422.00189 4.55633e-18
8423.99874 4.99399e-18
8425.99559 5.20505e-18
8428.00262 5.40778e-18
8429.99947 5.35354e-18
8431.99632 4.89989e-18
8434.00336 4.46536e-18
8436.00020 4.36862e-18
8437.99705 4.45792e-18
8440.00409 4.54094e-18
8442.00094 4.80577e-18
8443.99778 4.85603e-18
8446.00482 4.65686e-18
8448.00167 4.52415e-18
8449.99852 4.65157e-18
8451.99536 4.89517e-18
8454.00240 4.87607e-18
8455.99925 4.57496e-18
8457.99610 4.51843e-18
8460.00313 4.57923e-18
8461.99998 4.68847e-18
8463.99683 4.90932e-18
8466.00386 5.13383e-18
8468.00071 5.02465e-18
8469.99756 4.54275e-18
8472.00460 4.39790e-18
8474.00144 4.42933e-18
8475.99829 4.47315e-18
8477.99514 4.55632e-18
8480.00218 4.63196e-18
8481.99902 4.58469e-18
8483.99587 4.42312e-18
8486.00291 4.38869e-18
8487.99976 4.42741e-18
8489.99660 4.46878e-18
8492.00364 4.49369e-18
8494.00049 4.56258e-18
8495.99734 4.75826e-18
8498.00437 5.06853e-18
8500.00122 5.15065e-18
8501.99807 5.06151e-18
8504.00510 4.98517e-18
8506.00195 4.85395e-18
8507.99880 4.74629e-18
8509.99565 4.73731e-18
8512.00268 4.78078e-18
8513.99953 4.68113e-18
8515.99638 4.35863e-18
8518.00342 4.30641e-18
8520.00026 4.50389e-18
8521.99711 4.65939e-18
8524.00415 4.68029e-18
8526.00100 4.64040e-18
8527.99784 4.58839e-18
8529.99469 4.52611e-18
8532.00173 4.37786e-18
8533.99858 3.99114e-18
8535.99542 3.86215e-18
8538.00246 4.17242e-18
8539.99931 4.61978e-18
8541.99616 4.76147e-18
8544.00319 4.72291e-18
8546.00004 4.77731e-18
8547.99689 4.85908e-18
8550.00392 4.90808e-18
8552.00077 4.93295e-18
8553.99762 4.92504e-18
8556.00466 4.86394e-18
8558.00150 4.75285e-18
8559.99835 4.64299e-18
8561.99520 4.40193e-18
8564.00224 4.39123e-18
8565.99908 4.70022e-18
8567.99593 4.97714e-18
8570.00297 4.99268e-18
8571.99982 4.86349e-18
8573.99666 4.64316e-18
8576.00370 4.11496e-18
8578.00055 3.92561e-18
8579.99740 3.98507e-18
8582.00443 4.13033e-18
8584.00128 4.34252e-18
8585.99813 4.61552e-18
8587.99498 4.74337e-18
8590.00201 4.75005e-18
8591.99886 4.81154e-18
8593.99571 4.91824e-18
8596.00274 4.95266e-18
8597.99959 4.87333e-18
8599.99644 4.73416e-18
8602.00348 4.61285e-18
8604.00032 4.45785e-18
8605.99717 4.36237e-18
8608.00421 4.30466e-18
8610.00106 4.26425e-18
8611.99790 4.23609e-18
8613.99475 4.23169e-18
8616.00179 4.27399e-18
8617.99864 4.37773e-18
8619.99548 4.38020e-18
8622.00252 4.27262e-18
8623.99937 4.24259e-18
8625.99622 4.27886e-18
8628.00325 4.35221e-18
8630.00010 4.44163e-18
8631.99695 4.55242e-18
8634.00398 4.76340e-18
8636.00083 5.19987e-18
8637.99768 5.37483e-18
8640.00472 5.39805e-18
8642.00156 5.24801e-18
8643.99841 4.80029e-18
8645.99526 4.15522e-18
8648.00230 3.98712e-18
8649.99914 4.15231e-18
8651.99599 4.32829e-18
8654.00303 4.76641e-18
8655.99988 5.02882e-18
8657.99672 4.96860e-18
8660.00376 4.72373e-18
8662.00061 4.43610e-18
8663.99746 3.84130e-18
8665.99430 3.76659e-18
8668.00134 4.15439e-18
8669.99819 4.45184e-18
8671.99504 4.64458e-18
8674.00207 4.75111e-18
8675.99892 4.65961e-18
8677.99577 4.36477e-18
8680.00280 4.14567e-18
8681.99965 3.82138e-18
8683.99650 3.67087e-18
8686.00354 3.68260e-18
8688.00038 3.82599e-18
8689.99723 4.14496e-18
8692.00427 4.67702e-18
8694.00112 4.84727e-18
8695.99796 4.75347e-18
8698.00500 4.68678e-18
8700.00185 4.58223e-18
8701.99870 4.47261e-18
8703.99554 4.39436e-18
8706.00258 4.32829e-18
8707.99943 4.22140e-18
8709.99628 3.99299e-18
8712.00331 3.96869e-18
8714.00016 4.12454e-18
8715.99701 4.31150e-18
8718.00404 4.52865e-18
8720.00089 4.74998e-18
8721.99774 4.72443e-18
8724.00478 4.43442e-18
8726.00162 4.27314e-18
8727.99847 4.05531e-18
8729.99532 3.97069e-18
8732.00236 4.10987e-18
8733.99920 4.33561e-18
8735.99605 4.42095e-18
8738.00309 4.47367e-18
8739.99994 4.41155e-18
8741.99678 4.15688e-18
8744.00382 4.01414e-18
8746.00067 3.94712e-18
8747.99752 3.99726e-18
8750.00455 4.30020e-18
8752.00140 4.87847e-18
8753.99825 5.13361e-18
8755.99510 5.20958e-18
8758.00213 5.26190e-18
8759.99898 5.22262e-18
8761.99583 5.19754e-18
8764.00286 5.33302e-18
8765.99971 5.57962e-18
8767.99656 5.42086e-18
8770.00360 4.82286e-18
8772.00044 4.46323e-18
8773.99729 4.16867e-18
8776.00433 4.00027e-18
8778.00118 4.01727e-18
8779.99802 4.17583e-18
8782.00506 4.34091e-18
8784.00191 4.72544e-18
8785.99876 4.77684e-18
8787.99560 4.48664e-18
8790.00264 4.30765e-18
8791.99949 4.39740e-18
8793.99634 4.58285e-18
8796.00337 4.62015e-18
8798.00022 4.62523e-18
8799.99707 4.50687e-18
8802.00410 4.19360e-18
8804.00095 3.97214e-18
8805.99780 3.83489e-18
8807.99465 3.79069e-18
8810.00168 3.93630e-18
8811.99853 4.31058e-18
8813.99538 4.44757e-18
8816.00242 4.36726e-18
8817.99926 4.45947e-18
8819.99611 4.74503e-18
8822.00315 5.08496e-18
8824.00000 5.42903e-18
8825.99684 5.84545e-18
8828.00388 5.80141e-18
8830.00073 5.26548e-18
8831.99758 4.90170e-18
8834.00461 4.52644e-18
8836.00146 4.28047e-18
8837.99831 4.29307e-18
8840.00534 4.48956e-18
8842.00219 4.63385e-18
8843.99904 4.98811e-18
8845.99589 4.95959e-18
8848.00292 4.52208e-18
8849.99977 4.15303e-18
8851.99662 4.02072e-18
8854.00366 3.98933e-18
8856.00050 3.92644e-18
8857.99735 3.76961e-18
8860.00439 3.93377e-18
8862.00124 4.51261e-18
8863.99808 4.89016e-18
8865.99493 4.92597e-18
8868.00197 4.83214e-18
8869.99882 4.83630e-18
8871.99566 4.82265e-18
8874.00270 4.91098e-18
8875.99955 5.16529e-18
8877.99640 5.28363e-18
8880.00343 5.29205e-18
8882.00028 5.17976e-18
8883.99713 4.85149e-18
8886.00416 4.27383e-18
8888.00101 4.07070e-18
8889.99786 4.00707e-18
8892.00490 4.17925e-18
8894.00174 4.83278e-18
8895.99859 5.35267e-18
8897.99544 5.25116e-18
8900.00248 4.76196e-18
8901.99932 4.41397e-18
8903.99617 3.89690e-18
8906.00321 3.62895e-18
8908.00006 3.49892e-18
8909.99690 3.54280e-18
8912.00394 3.87170e-18
8914.00079 4.37364e-18
8915.99764 4.52665e-18
8918.00467 4.52560e-18
8920.00152 4.35377e-18
8921.99837 3.78275e-18
8923.99522 3.45478e-18
8926.00225 3.56834e-18
8927.99910 3.88648e-18
8929.99595 4.11034e-18
8932.00298 4.43475e-18
8933.99983 4.52041e-18
8935.99668 4.33458e-18
8938.00372 4.27669e-18
8940.00056 4.42786e-18
8941.99741 4.60526e-18
8944.00445 4.60665e-18
8946.00130 4.49180e-18
8947.99814 4.42791e-18
8949.99499 4.40751e-18
8952.00203 4.28922e-18
8953.99888 4.04812e-18
8955.99572 3.77976e-18
8958.00276 3.51679e-18
8959.99961 3.21684e-18
8961.99646 3.27676e-18
8964.00349 3.82296e-18
8966.00034 4.02410e-18
8967.99719 3.95261e-18
8970.00422 3.84816e-18
8972.00107 3.80668e-18
8973.99792 3.77583e-18
8976.00496 3.81238e-18
8978.00180 3.88997e-18
8979.99865 4.02913e-18
8981.99550 4.26701e-18
8984.00254 4.48915e-18
8985.99938 4.69946e-18
8987.99623 4.87254e-18
8990.00327 4.84640e-18
8992.00012 4.61965e-18
8993.99696 4.43458e-18
8996.00400 4.08916e-18
8998.00085 3.95005e-18
8999.99770 4.11528e-18
9001.99454 4.41483e-18
9004.00158 4.64757e-18
9005.99843 4.92939e-18
9007.99528 5.08159e-18
9010.00231 5.09454e-18
9011.99916 5.16613e-18
9013.99601 5.36950e-18
9016.00304 5.51089e-18
9017.99989 5.36373e-18
9019.99674 4.97847e-18
9022.00378 4.84753e-18
9024.00062 4.90081e-18
9025.99747 4.84836e-18
9028.00451 4.73065e-18
9030.00136 4.56996e-18
9031.99820 4.31787e-18
9033.99505 3.99618e-18
9036.00209 4.01169e-18
9037.99894 4.48584e-18
9039.99578 4.55839e-18
9042.00282 4.34555e-18
9043.99967 4.09190e-18
9045.99652 3.82937e-18
9048.00355 3.56274e-18
9050.00040 3.55138e-18
9051.99725 3.81722e-18
9054.00428 3.94794e-18
9056.00113 4.01935e-18
9057.99798 4.16201e-18
9059.99483 4.46735e-18
9062.00186 4.79513e-18
9063.99871 4.87414e-18
9065.99556 4.77212e-18
9068.00260 4.66892e-18
9069.99944 4.38136e-18
9071.99629 4.28405e-18
9074.00333 4.49540e-18
9076.00018 4.74005e-18
9077.99702 4.69782e-18
9080.00406 4.47303e-18
9082.00091 4.30652e-18
9083.99776 4.03861e-18
9085.99460 3.92143e-18
9088.00164 4.02159e-18
9089.99849 4.10573e-18
9091.99534 3.94681e-18
9094.00237 3.62969e-18
9095.99922 3.67770e-18
9097.99607 4.05085e-18
9100.00310 4.30567e-18
9101.99995 4.64679e-18
9103.99680 4.79911e-18
9106.00384 4.54807e-18
9108.00068 4.04771e-18
9109.99753 3.79864e-18
9112.00457 3.55930e-18
9114.00142 3.53788e-18
9115.99826 3.79383e-18
9117.99511 4.00691e-18
9120.00215 4.08558e-18
9121.99900 4.11671e-18
9123.99584 4.17629e-18
9126.00288 4.24874e-18
9127.99973 4.27947e-18
9129.99658 4.24361e-18
9132.00361 4.26053e-18
9134.00046 4.40860e-18
9135.99731 4.53830e-18
9138.00434 4.41293e-18
9140.00119 4.06055e-18
9141.99804 3.88203e-18
9143.99489 3.65857e-18
9146.00192 3.66682e-18
9147.99877 4.01426e-18
9149.99562 4.40272e-18
9152.00266 4.56747e-18
9153.99950 4.63217e-18
9155.99635 4.58364e-18
9158.00339 4.33494e-18
9160.00024 4.17512e-18
9161.99708 4.04402e-18
9164.00412 3.95788e-18
9166.00097 3.93152e-18
9167.99782 3.95709e-18
9170.00485 4.05295e-18
9172.00170 4.26108e-18
9173.99855 4.42176e-18
9175.99540 4.64104e-18
9178.00243 4.74703e-18
9179.99928 4.64420e-18
9181.99613 4.42287e-18
9184.00316 4.28178e-18
9186.00001 4.09271e-18
9187.99686 4.05395e-18
9190.00390 4.22734e-18
9192.00074 4.27213e-18
9193.99759 4.07051e-18
9196.00463 3.80402e-18
9198.00148 3.73992e-18
9199.99832 3.80739e-18
9201.99517 3.83092e-18
9204.00221 3.84689e-18
9205.99906 3.90993e-18
9207.99590 4.03047e-18
9210.00294 4.17955e-18
9211.99979 4.35815e-18
9213.99664 4.61543e-18
9216.00367 4.56067e-18
9218.00052 4.04419e-18
9219.99737 3.92737e-18
9222.00440 4.27249e-18
9224.00125 4.62579e-18
9225.99810 4.65637e-18
9227.99495 4.51836e-18
9230.00198 4.58099e-18
9231.99883 4.79897e-18
9233.99568 4.90902e-18
9236.00272 4.99983e-18
9237.99956 4.99811e-18
9239.99641 4.81478e-18
9242.00345 4.52852e-18
9244.00030 4.46085e-18
9245.99714 4.62668e-18
9248.00418 4.58221e-18
9250.00103 4.41508e-18
9251.99788 4.24066e-18
9254.00491 4.05420e-18
9256.00176 3.87878e-18
9257.99861 3.83651e-18
9259.99546 3.96457e-18
9262.00249 3.90402e-18
9263.99934 3.66536e-18
9265.99619 3.53783e-18
9268.00322 3.56533e-18
9270.00007 3.64957e-18
9271.99692 3.70581e-18
9274.00396 3.79108e-18
9276.00080 3.77350e-18
9277.99765 3.57775e-18
9279.99450 3.56240e-18
9282.00154 3.76443e-18
9283.99838 4.00651e-18
9285.99523 4.14524e-18
9288.00227 4.24019e-18
9289.99912 4.40383e-18
9291.99596 4.77536e-18
9294.00300 4.79056e-18
9295.99985 4.20226e-18
9297.99670 3.89884e-18
9300.00373 4.52077e-18
9302.00058 5.67383e-18
9303.99743 6.10495e-18
9306.00446 6.62197e-18
9308.00131 6.01331e-18
9309.99816 3.63016e-18
9312.00520 2.06726e-18
9314.00204 2.41282e-18
9315.99889 3.62567e-18
9317.99574 3.97788e-18
9320.00278 3.91937e-18
9321.99962 4.21316e-18
9323.99647 4.68742e-18
9326.00351 5.17622e-18
9328.00036 5.81451e-18
9329.99720 6.35120e-18
9332.00424 6.23861e-18
9334.00109 5.51066e-18
9335.99794 5.14293e-18
9337.99478 4.74561e-18
9340.00182 4.56700e-18
9341.99867 4.77472e-18
9343.99552 4.96909e-18
9346.00255 4.67269e-18
9347.99940 4.00718e-18
9349.99625 3.80437e-18
9352.00328 3.87377e-18
9354.00013 3.95521e-18
9355.99698 4.08158e-18
9358.00402 4.27778e-18
9360.00086 4.58650e-18
9361.99771 4.98994e-18
9364.00475 5.20298e-18
9366.00160 5.30723e-18
9367.99844 5.35804e-18
9369.99529 5.21049e-18
9372.00233 5.20586e-18
9373.99918 5.60282e-18
9375.99602 6.16760e-18
9378.00306 6.18529e-18
9379.99991 5.84624e-18
9381.99676 5.39863e-18
9384.00379 4.39866e-18
9386.00064 3.87187e-18
9387.99749 4.24513e-18
9390.00452 4.92677e-18
9392.00137 4.92412e-18
9393.99822 4.47860e-18
9395.99507 4.25545e-18
9398.00210 3.96311e-18
9399.99895 3.85349e-18
9401.99580 4.06599e-18
9404.00284 4.30027e-18
9405.99968 4.15978e-18
9407.99653 3.74344e-18
9410.00357 3.53666e-18
9412.00042 3.37751e-18
9413.99726 3.28242e-18
9416.00430 3.22111e-18
9418.00115 3.25780e-18
9419.99800 3.48870e-18
9421.99484 3.89020e-18
9424.00188 4.05597e-18
9425.99873 4.03520e-18
9427.99558 4.11156e-18
9430.00261 4.15764e-18
9431.99946 4.34294e-18
9433.99631 4.74026e-18
9436.00334 5.31122e-18
9438.00019 6.13791e-18
9439.99704 7.95392e-18
9442.00408 8.20696e-18
9444.00092 7.13075e-18
9445.99777 6.00867e-18
9448.00481 5.00521e-18
9450.00166 4.08641e-18
9451.99850 3.92855e-18
9453.99535 4.72039e-18
9456.00239 4.68640e-18
9457.99924 4.19158e-18
9459.99608 3.73624e-18
9462.00312 3.31241e-18
9463.99997 2.93774e-18
9465.99682 2.73397e-18
9468.00385 2.57768e-18
9470.00070 2.87505e-18
9471.99755 3.80669e-18
9474.00458 4.43960e-18
9476.00143 4.90105e-18
9477.99828 5.10897e-18
9479.99513 4.80729e-18
9482.00216 4.01365e-18
9483.99901 3.76923e-18
9485.99586 3.90959e-18
9488.00290 3.86410e-18
9489.99974 3.65550e-18
9491.99659 3.47794e-18
9494.00363 3.40090e-18
9496.00048 3.38796e-18
9497.99732 3.65836e-18
9500.00436 4.29405e-18
9502.00121 4.77350e-18
9503.99806 5.39865e-18
9505.99490 5.72132e-18
9508.00194 5.52019e-18
9509.99879 4.98590e-18
9511.99564 4.46652e-18
9514.00267 3.58154e-18
9515.99952 3.23662e-18
9517.99637 3.24893e-18
9520.00340 3.37246e-18
9522.00025 3.60642e-18
9523.99710 3.93199e-18
9526.00414 4.25670e-18
9528.00098 4.78030e-18
9529.99783 4.73067e-18
9532.00487 3.99916e-18
9534.00172 3.61752e-18
9535.99856 3.77422e-18
9537.99541 3.95908e-18
9540.00245 3.54980e-18
9541.99930 2.57908e-18
9543.99614 2.85663e-18
9546.00318 4.41295e-18
9548.00003 5.32910e-18
9549.99688 5.89130e-18
9552.00391 6.09087e-18
9554.00076 5.76591e-18
9555.99761 4.97522e-18
9557.99446 4.26896e-18
9560.00149 2.88224e-18
9561.99834 2.68262e-18
9563.99519 3.73377e-18
9566.00222 4.81102e-18
9567.99907 5.50428e-18
9569.99592 6.02543e-18
9572.00296 5.82925e-18
9573.99980 4.68106e-18
9575.99665 4.03440e-18
9578.00369 3.45985e-18
9580.00054 2.98502e-18
9581.99738 2.53886e-18
9584.00442 2.23605e-18
9586.00127 2.42598e-18
9587.99812 3.22495e-18
9590.00515 3.58571e-18
9592.00200 3.78690e-18
9593.99885 3.94958e-18
9595.99570 4.06282e-18
9598.00273 4.14411e-18
9599.99958 4.24359e-18
9601.99643 4.34090e-18
9604.00346 4.43181e-18
9606.00031 4.63374e-18
9607.99716 4.59367e-18
9610.00420 4.30878e-18
9612.00104 3.87315e-18
9613.99789 3.21302e-18
9615.99474 2.25146e-18
9618.00178 2.38773e-18
9619.99862 3.97809e-18
9621.99547 4.40134e-18
9624.00251 3.81100e-18
9625.99936 3.07757e-18
9627.99620 2.50322e-18
9630.00324 1.93757e-18
9632.00009 2.13316e-18
9633.99694 3.31580e-18
9636.00397 3.85827e-18
9638.00082 4.23259e-18
9639.99767 4.32114e-18
9642.00470 3.90806e-18
9644.00155 3.25876e-18
9645.99840 3.22267e-18
9647.99525 3.69758e-18
9650.00228 3.87354e-18
9651.99913 4.06696e-18
9653.99598 4.07250e-18
9656.00302 3.79917e-18
9657.99986 3.39916e-18
9659.99671 3.08135e-18
9662.00375 2.65609e-18
9664.00060 2.65400e-18
9665.99744 3.13678e-18
9668.00448 3.42418e-18
9670.00133 3.52028e-18
9671.99818 3.52266e-18
9673.99502 3.45643e-18
9676.00206 3.29614e-18
9677.99891 3.16340e-18
9679.99576 2.85171e-18
9682.00279 2.88160e-18
9683.99964 3.44459e-18
9685.99649 3.88784e-18
9688.00352 3.70012e-18
9690.00037 3.12732e-18
9691.99722 2.88962e-18
9694.00426 2.74845e-18
9696.00110 2.67268e-18
9697.99795 2.69779e-18
9699.99480 2.75115e-18
9702.00184 2.78755e-18
9703.99868 2.84375e-18
9705.99553 3.01353e-18
9708.00257 3.36327e-18
9709.99942 3.54871e-18
9711.99626 3.66001e-18
9714.00330 3.72960e-18
9716.00015 3.72794e-18
9717.99700 3.70691e-18
9720.00403 3.81745e-18
9722.00088 4.09577e-18
9723.99773 4.12403e-18
9726.00476 4.05790e-18
9728.00161 3.81892e-18
9729.99846 3.26085e-18
9731.99531 2.67998e-18
9734.00234 2.47200e-18
9735.99919 2.46064e-18
9737.99604 2.69426e-18
9740.00308 3.34592e-18
9741.99992 3.83724e-18
9743.99677 4.29648e-18
9746.00381 4.59931e-18
9748.00066 4.57526e-18
9749.99750 4.28775e-18
9751.99435 4.03005e-18
9754.00139 3.58005e-18
9755.99824 3.33244e-18
9757.99508 3.16187e-18
9760.00212 3.17794e-18
9761.99897 3.57317e-18
9763.99582 4.20267e-18
9766.00285 4.21925e-18
9767.99970 3.70323e-18
9769.99655 3.39267e-18
9772.00358 2.87953e-18
9774.00043 2.71735e-18
9775.99728 3.27354e-18
9778.00432 4.11565e-18
9780.00116 4.21725e-18
9781.99801 3.70044e-18
9784.00505 3.61064e-18
9786.00190 3.83602e-18
9787.99874 3.79099e-18
9789.99559 3.28573e-18
9792.00263 2.66127e-18
9793.99948 2.33866e-18
9795.99632 2.03845e-18
9798.00336 2.33680e-18
9800.00021 3.65399e-18
9801.99706 4.17864e-18
9804.00409 3.74908e-18
9806.00094 3.06823e-18
9807.99779 2.63904e-18
9809.99464 2.16982e-18
9812.00167 2.27724e-18
9813.99852 3.25799e-18
9815.99537 3.53642e-18
9818.00240 3.19278e-18
9819.99925 2.69892e-18
9821.99610 2.18230e-18
9824.00314 1.57254e-18
9825.99998 1.73270e-18
9827.99683 2.90600e-18
9830.00387 3.30879e-18
9832.00072 3.25120e-18
9833.99756 3.07561e-18
9836.00460 2.79528e-18
9838.00145 2.45211e-18
9839.99830 2.53277e-18
9841.99514 3.06572e-18
9844.00218 3.31251e-18
9845.99903 3.47892e-18
9847.99588 3.60504e-18
9850.00291 3.72109e-18
9851.99976 3.77955e-18
9853.99661 3.67488e-18
9856.00364 3.34640e-18
9858.00049 3.26974e-18
9859.99734 3.37907e-18
9862.00438 3.43330e-18
9864.00122 3.48136e-18
9865.99807 3.44821e-18
9868.00511 3.17540e-18
9870.00196 2.67260e-18
9871.99880 2.36941e-18
9873.99565 1.98001e-18
9876.00269 1.95728e-18
9877.99954 2.48033e-18
9879.99638 2.98618e-18
9882.00342 3.02411e-18
9884.00027 2.79900e-18
9885.99712 2.68642e-18
9888.00415 2.42537e-18
9890.00100 2.44578e-18
9891.99785 2.96159e-18
9893.99470 3.19245e-18
9896.00173 2.58886e-18
9897.99858 1.55391e-18
9899.99543 1.34447e-18
9902.00246 1.73459e-18
9903.99931 1.96493e-18
9905.99616 2.36224e-18
9908.00320 2.62568e-18
9910.00004 2.62952e-18
9911.99689 2.51850e-18
9914.00393 2.53271e-18
9916.00078 2.52536e-18
9917.99762 2.72001e-18
9920.00466 3.30214e-18
9922.00151 3.54007e-18
9923.99836 3.27412e-18
9925.99520 2.82187e-18
9928.00224 2.48960e-18
9929.99909 2.00908e-18
9931.99594 2.19949e-18
9934.00297 3.17228e-18
9935.99982 3.79863e-18
9937.99667 4.23246e-18
9940.00370 4.39827e-18
9942.00055 3.97992e-18
9943.99740 2.98085e-18
9946.00444 3.07756e-18
9948.00128 4.38441e-18
9949.99813 4.76622e-18
9951.99498 4.32207e-18
9954.00202 3.79540e-18
9955.99886 3.56626e-18
9957.99571 3.42577e-18
9960.00275 3.25644e-18
9961.99960 2.80140e-18
9963.99644 3.04606e-18
9966.00348 4.55002e-18
9968.00033 5.15826e-18
9969.99718 3.69291e-18
9972.00421 1.30373e-18
9974.00106 5.63106e-19
9975.99791 8.48541e-19
9978.00494 9.14223e-19
9980.00179 1.19581e-18
9981.99864 1.51967e-18
9983.99549 1.88622e-18
9986.00252 2.28385e-18
9987.99937 2.64465e-18
9989.99622 3.02966e-18
9992.00326 3.27280e-18
9994.00010 3.43382e-18
9995.99695 3.48951e-18
9998.00399 3.36996e-18
10000.00084 3.22495e-18
