# wavelength flux
3719.99538 1.05828e-17
3721.50320 1.34339e-17
3723.00084 1.41717e-17
3724.49848 1.34566e-17
3725.99611 1.29202e-17
3727.50394 1.10512e-17
3729.00157 1.18451e-17
3730.49921 1.32926e-17
3731.99684 1.26413e-17
3733.50467 1.19390e-17
3735.00230 1.04139e-17
3736.49994 9.99550e-18
3737.99758 1.11833e-17
3739.49521 1.32750e-17
3741.00304 1.30813e-17
3742.50067 1.25036e-17
3743.99831 1.26648e-17
3745.49594 1.28797e-17
3747.00377 1.29434e-17
3748.50140 1.24070e-17
3749.99904 1.24333e-17
3751.49668 1.33701e-17
3753.00450 1.25962e-17
3754.50214 1.20775e-17
3755.99977 1.20103e-17
3757.49741 1.15759e-17
3758.99504 1.30766e-17
3760.50287 1.23915e-17
3762.00050 1.29572e-17
3763.49814 1.12857e-17
3764.99578 1.05963e-17
3766.50360 1.30125e-17
3768.00124 1.30091e-17
3769.49887 1.27258e-17
3770.99651 1.29812e-17
3772.50433 1.12111e-17
3774.00197 1.13130e-17
3775.49960 1.09418e-17
3776.99724 1.28257e-17
3778.49488 1.27155e-17
3780.00270 1.26053e-17
3781.50034 1.25807e-17
3782.99797 1.25560e-17
3784.49561 1.25314e-17
3786.00343 1.25067e-17
3787.50107 1.24821e-17
3788.99870 1.24575e-17
3790.49634 1.24328e-17
3792.00416 1.24082e-17
3793.50180 1.23836e-17
3794.99944 1.23590e-17
3796.49707 1.23344e-17
3798.00490 1.23098e-17
3799.50253 1.22852e-17
3801.00017 1.22606e-17
3802.49780 1.22360e-17
3803.99544 1.22114e-17
3805.50326 1.21868e-17
3807.00090 1.21622e-17
3808.49854 1.21377e-17
3809.99617 1.21131e-17
3811.50400 1.20885e-17
3813.00163 1.20640e-17
3814.49927 1.20394e-17
3815.99690 1.20149e-17
3817.50473 1.19903e-17
3819.00236 1.09763e-17
3820.50000 1.17164e-17
3821.99764 1.20448e-17
3823.49527 1.18642e-17
3825.00310 1.23341e-17
3826.50073 1.18951e-17
3827.99837 1.21915e-17
3829.49600 1.29669e-17
3831.00383 1.36773e-17
3832.50146 1.25372e-17
3833.99910 1.28198e-17
3835.49674 1.34664e-17
3837.00456 1.34243e-17
3838.50220 1.22275e-17
3839.99983 1.45338e-17
3841.49747 1.37557e-17
3842.99510 1.22302e-17
3844.50293 1.37783e-17
3846.00056 1.20866e-17
3847.49820 1.27529e-17
3848.99584 1.17800e-17
3850.50366 1.26297e-17
3852.00130 1.20623e-17
3853.49893 1.25905e-17
3854.99657 1.33137e-17
3856.50439 1.28548e-17
3858.00203 1.27889e-17
3859.49966 1.16953e-17
3860.99730 1.29495e-17
3862.49494 1.30025e-17
3864.00276 1.19162e-17
3865.50040 1.24195e-17
3866.99803 1.22991e-17
3868.49567 1.22320e-17
3870.00349 1.21835e-17
3871.50113 1.33297e-17
3872.99876 1.13812e-17
3874.49640 1.07641e-17
3876.00422 1.14892e-17
3877.50186 1.24535e-17
3878.99950 1.32011e-17
3880.49713 1.27943e-17
3881.99477 1.22904e-17
3883.50259 1.29737e-17
3885.00023 1.27378e-17
3886.49786 1.21338e-17
3887.99550 1.23899e-17
3889.50332 1.38877e-17
3891.00096 1.48391e-17
3892.49860 1.42848e-17
3893.99623 1.32580e-17
3895.50406 1.24538e-17
3897.00169 1.16119e-17
3898.49933 1.21757e-17
3899.99696 1.35742e-17
3901.50479 1.31562e-17
3903.00242 1.23062e-17
3904.50006 1.21587e-17
3905.99770 1.36885e-17
3907.49533 1.33976e-17
3909.00316 1.42018e-17
3910.50079 1.37945e-17
3911.99843 1.28588e-17
3913.49606 1.36071e-17
3915.00389 1.26468e-17
3916.50152 1.38774e-17
3917.99916 1.38945e-17
3919.49680 1.21301e-17
3921.00462 1.34011e-17
3922.50226 1.29971e-17
3923.99989 1.40014e-17
3925.49753 1.43528e-17
3926.99516 1.36964e-17
3928.50299 1.33232e-17
3930.00062 1.39296e-17
3931.49826 1.31991e-17
3932.99590 1.24566e-17
3934.50372 1.25789e-17
3936.00136 1.35618e-17
3937.49899 1.33051e-17
3938.99663 1.35160e-17
3940.50445 1.38633e-17
3942.00209 1.45041e-17
3943.49972 1.39230e-17
3944.99736 1.27134e-17
3946.49500 1.24103e-17
3948.00282 1.23746e-17
3949.50046 1.28576e-17
3950.99809 1.23739e-17
3952.49573 1.25322e-17
3954.00355 1.36255e-17
3955.50119 1.39568e-17
3956.99882 1.35159e-17
3958.49646 1.31075e-17
3960.00428 1.28479e-17
3961.50192 1.27561e-17
3962.99956 1.38993e-17
3964.49719 1.39561e-17
3965.99483 1.22300e-17
3967.50265 1.24497e-17
3969.00029 1.28867e-17
3970.49792 1.19837e-17
3971.99556 1.25721e-17
3973.50338 1.37306e-17
3975.00102 1.25717e-17
3976.49866 1.25851e-17
3977.99629 1.39213e-17
3979.50412 1.39674e-17
3981.00175 1.31877e-17
3982.49939 1.28555e-17
3983.99702 1.27913e-17
3985.50485 1.38123e-17
3987.00248 1.38513e-17
3988.50012 1.13438e-17
3989.99776 1.26523e-17
3991.49539 1.41281e-17
3993.00322 1.25885e-17
3994.50085 1.31315e-17
3995.99849 1.32544e-17
3997.49612 1.24451e-17
3999.00395 1.21621e-17
4000.50158 1.35087e-17
4001.99922 1.19949e-17
4003.49686 1.13177e-17
4005.00468 1.14776e-17
4006.50232 1.24714e-17
4007.99995 1.21187e-17
4009.49759 1.24594e-17
4010.99522 1.39520e-17
4012.50305 1.42068e-17
4014.00068 1.39163e-17
4015.49832 1.28985e-17
4016.99596 1.35158e-17
4018.50378 1.50367e-17
4020.00142 1.33988e-17
4021.49905 1.31155e-17
4022.99669 1.34407e-17
4024.50451 1.26303e-17
4026.00215 1.41205e-17
4027.49978 1.32255e-17
4028.99742 1.30244e-17
4030.49506 1.27594e-17
4032.00288 1.34214e-17
4033.50052 1.41315e-17
4034.99815 1.38533e-17
4036.49579 1.36180e-17
4038.00361 1.38817e-17
4039.50125 1.32781e-17
4040.99888 1.21252e-17
4042.49652 1.50115e-17
4044.00434 1.49376e-17
4045.50198 1.30593e-17
4046.99962 1.22944e-17
4048.49725 1.44240e-17
4049.99489 1.46210e-17
4051.50271 1.30445e-17
4053.00035 1.35349e-17
4054.49798 1.41410e-17
4055.99562 1.44364e-17
4057.50344 1.42971e-17
4059.00108 1.29885e-17
4060.49872 1.38890e-17
4061.99635 1.36828e-17
4063.50418 1.42995e-17
4065.00181 1.36847e-17
4066.49945 1.42158e-17
4067.99708 1.52585e-17
4069.50491 1.55383e-17
4071.00254 1.44465e-17
4072.50018 1.37823e-17
4073.99782 1.45214e-17
4075.49545 1.47484e-17
4077.00328 1.45294e-17
4078.50091 1.49801e-17
4079.99855 1.50733e-17
4081.49618 1.57852e-17
4083.00401 1.43848e-17
4084.50164 1.30886e-17
4085.99928 1.47915e-17
4087.49692 1.54928e-17
4089.00474 1.38672e-17
4090.50238 1.34272e-17
4092.00001 1.44106e-17
4093.49765 1.46147e-17
4094.99528 1.36569e-17
4096.50311 1.47312e-17
4098.00074 1.49728e-17
4099.49838 1.32995e-17
4100.99602 1.38365e-17
4102.50384 1.54185e-17
4104.00148 1.49094e-17
4105.49911 1.41615e-17
4106.99675 1.46831e-17
4108.50457 1.53521e-17
4110.00221 1.46761e-17
4111.49984 1.39924e-17
4112.99748 1.49357e-17
4114.49512 1.50554e-17
4116.00294 1.42417e-17
4117.50058 1.30241e-17
4118.99821 1.38168e-17
4120.49585 1.47435e-17
4122.00367 1.52295e-17
4123.50131 1.41799e-17
4124.99894 1.38744e-17
4126.49658 1.55830e-17
4128.00440 1.37463e-17
4129.50204 1.37409e-17
4130.99968 1.43547e-17
4132.49731 1.32045e-17
4133.99495 1.30384e-17
4135.50277 1.37764e-17
4137.00041 1.37060e-17
4138.49804 1.54046e-17
4139.99568 1.42736e-17
4141.50350 1.43147e-17
4143.00114 1.33006e-17
4144.49878 1.32658e-17
4145.99641 1.34331e-17
4147.50424 1.43303e-17
4149.00187 1.51303e-17
4150.49951 1.48039e-17
4151.99714 1.30444e-17
4153.49478 1.36346e-17
4155.00260 1.46159e-17
4156.50024 1.47424e-17
4157.99788 1.38396e-17
4159.49551 1.35153e-17
4161.00334 1.24577e-17
4162.50097 1.31825e-17
4163.99861 1.50097e-17
4165.49624 1.52984e-17
4167.00407 1.45582e-17
4168.50170 1.45860e-17
4169.99934 1.48111e-17
4171.49698 1.50361e-17
4173.00480 1.50354e-17
4174.50244 1.45475e-17
4176.00007 1.44220e-17
4177.49771 1.35592e-17
4178.99534 1.40782e-17
4180.50317 1.36766e-17
4182.00080 1.36524e-17
4183.49844 1.53107e-17
4184.99608 1.54801e-17
4186.50390 1.44226e-17
4188.00154 1.46652e-17
4189.49917 1.39800e-17
4190.99681 1.40326e-17
4192.50463 1.43303e-17
4194.00227 1.40876e-17
4195.49990 1.39136e-17
4196.99754 1.40406e-17
4198.49518 1.39490e-17
4200.00300 1.45761e-17
4201.50064 1.42153e-17
4202.99827 1.38027e-17
4204.49591 1.39281e-17
4206.00373 1.35581e-17
4207.50137 1.44177e-17
4208.99900 1.46585e-17
4210.49664 1.42745e-17
4212.00446 1.34223e-17
4213.50210 1.37161e-17
4214.99974 1.49668e-17
4216.49737 1.46677e-17
4218.00520 1.31919e-17
4219.50283 1.30096e-17
4221.00047 1.39809e-17
4222.49810 1.44292e-17
4223.99574 1.36781e-17
4225.50356 1.24425e-17
4227.00120 1.27357e-17
4228.49884 1.28345e-17
4229.99647 1.31482e-17
4231.50430 1.27520e-17
4233.00193 1.23564e-17
4234.49957 1.35232e-17
4235.99720 1.36977e-17
4237.50503 1.26103e-17
4239.00266 1.30122e-17
4240.50030 1.33650e-17
4241.99794 1.28792e-17
4243.49557 1.37382e-17
4245.00340 1.29217e-17
4246.50103 1.24171e-17
4247.99867 1.29296e-17
4249.49630 1.35476e-17
4251.00413 1.36130e-17
4252.50176 1.36356e-17
4253.99940 1.22356e-17
4255.49704 1.27967e-17
4257.00486 1.40125e-17
4258.50250 1.30338e-17
4260.00013 1.26371e-17
4261.49777 1.28155e-17
4262.99540 1.18656e-17
4264.50323 1.30349e-17
4266.00086 1.36147e-17
4267.49850 1.32733e-17
4268.99614 1.24022e-17
4270.50396 1.23687e-17
4272.00160 1.29920e-17
4273.49923 1.31652e-17
4274.99687 1.27171e-17
4276.50469 1.32199e-17
4278.00233 1.30869e-17
4279.49996 1.19793e-17
4280.99760 1.24510e-17
4282.49524 1.18981e-17
4284.00306 1.18662e-17
4285.50070 1.24892e-17
4286.99833 1.30470e-17
4288.49597 1.18100e-17
4290.00379 1.14172e-17
4291.50143 1.27180e-17
4292.99906 1.37566e-17
4294.49670 1.24427e-17
4296.00452 1.16883e-17
4297.50216 1.23314e-17
4298.99980 1.26805e-17
4300.49743 1.23444e-17
4301.99507 1.22639e-17
4303.50289 1.23549e-17
4305.00053 1.15840e-17
4306.49816 1.17052e-17
4307.99580 1.23308e-17
4309.50362 1.26895e-17
4311.00126 1.19868e-17
4312.49890 1.20468e-17
4313.99653 1.22906e-17
4315.50436 1.17984e-17
4317.00199 1.13515e-17
4318.49963 1.16919e-17
4319.99726 1.21801e-17
4321.49490 1.15649e-17
4323.00272 1.20666e-17
4324.50036 1.33311e-17
4325.99800 1.26233e-17
4327.49563 1.26496e-17
4329.00346 1.24447e-17
4330.50109 1.29472e-17
4331.99873 1.22469e-17
4333.49636 1.26843e-17
4335.00419 1.24371e-17
4336.50182 1.11421e-17
4337.99946 1.14706e-17
4339.49710 1.22720e-17
4341.00492 1.29183e-17
4342.50256 1.18728e-17
4344.00019 1.15031e-17
4345.49783 1.14424e-17
4346.99546 1.18409e-17
4348.50329 1.30157e-17
4350.00092 1.30364e-17
4351.49856 1.22040e-17
4352.99620 1.21546e-17
4354.50402 1.16111e-17
4356.00166 1.15978e-17
4357.49929 1.28449e-17
4358.99693 1.31752e-17
4360.50475 1.31853e-17
4362.00239 1.37302e-17
4363.50002 1.35671e-17
4364.99766 1.31830e-17
4366.49530 1.27471e-17
4368.00312 1.25438e-17
4369.50076 1.35146e-17
4370.99839 1.36030e-17
4372.49603 1.18604e-17
4374.00385 1.18013e-17
4375.50149 1.31211e-17
4376.99912 1.29133e-17
4378.49676 1.28225e-17
4380.00458 1.34713e-17
4381.50222 1.28169e-17
4382.99986 1.22976e-17
4384.49749 1.26973e-17
4385.99513 1.30362e-17
4387.50295 1.32415e-17
4389.00059 1.26191e-17
4390.49822 1.35762e-17
4391.99586 1.32482e-17
4393.50368 1.30003e-17
4395.00132 1.34357e-17
4396.49896 1.27752e-17
4397.99659 1.35206e-17
4399.50442 1.33306e-17
4401.00205 1.33422e-17
4402.49969 1.38328e-17
4403.99732 1.40937e-17
4405.50515 1.47615e-17
4407.00278 1.36158e-17
4408.50042 1.35242e-17
4409.99806 1.28554e-17
4411.49569 1.44410e-17
4413.00352 1.39695e-17
4414.50115 1.42658e-17
4415.99879 1.43096e-17
4417.49642 1.43534e-17
4419.00425 1.43971e-17
4420.50188 1.44409e-17
4421.99952 1.44846e-17
4423.49716 1.45284e-17
4425.00498 1.45721e-17
4426.50262 1.46158e-17
4428.00025 1.46595e-17
4429.49789 1.47033e-17
4430.99552 1.47470e-17
4432.50335 1.47907e-17
4434.00098 1.48344e-17
4435.49862 1.48781e-17
4436.99626 1.49218e-17
4438.50408 1.49655e-17
4440.00172 1.50091e-17
4441.49935 1.50528e-17
4442.99699 1.50965e-17
4444.50481 1.51402e-17
4446.00245 1.51838e-17
4447.50008 1.52275e-17
4448.99772 1.52711e-17
4450.49536 1.53148e-17
4452.00318 1.53584e-17
4453.50082 1.54020e-17
4454.99845 1.54457e-17
4456.49609 1.54893e-17
4458.00391 1.55329e-17
4459.50155 1.55765e-17
4460.99918 1.56201e-17
4462.49682 1.56637e-17
4464.00464 1.57073e-17
4465.50228 1.57509e-17
4466.99992 1.57945e-17
4468.49755 1.58381e-17
4469.99519 1.58816e-17
4471.50301 1.59252e-17
4473.00065 1.59688e-17
4474.49828 1.60123e-17
4475.99592 1.60559e-17
4477.50374 1.59845e-17
4479.00138 1.58991e-17
4480.49902 1.68300e-17
4481.99665 1.68794e-17
4483.50448 1.57138e-17
4485.00211 1.44771e-17
4486.49975 1.44160e-17
4487.99738 1.42343e-17
4489.49502 1.41607e-17
4491.00284 1.52580e-17
4492.50048 1.50719e-17
4493.99812 1.51752e-17
4495.49575 1.43129e-17
4497.00358 1.54743e-17
4498.50121 1.61306e-17
4499.99885 1.47317e-17
4501.49648 1.45293e-17
4503.00431 1.49059e-17
4504.50194 1.44308e-17
4505.99958 1.48332e-17
4507.49722 1.61313e-17
4508.99485 1.61283e-17
4510.50268 1.59629e-17
4512.00031 1.51749e-17
4513.49795 1.48991e-17
4514.99558 1.56962e-17
4516.50341 1.51237e-17
4518.00104 1.50192e-17
4519.49868 1.57961e-17
4520.99632 1.63607e-17
4522.50414 1.63804e-17
4524.00178 1.60676e-17
4525.49941 1.55072e-17
4526.99705 1.56450e-17
4528.50487 1.59935e-17
4530.00251 1.55103e-17
4531.50014 1.66236e-17
4532.99778 1.65081e-17
4534.49542 1.54658e-17
4536.00324 1.58517e-17
4537.50088 1.60472e-17
4538.99851 1.61952e-17
4540.49615 1.61460e-17
4542.00397 1.57634e-17
4543.50161 1.55766e-17
4544.99924 1.61488e-17
4546.49688 1.61873e-17
4548.00470 1.60879e-17
4549.50234 1.62524e-17
4550.99998 1.58046e-17
4552.49761 1.63835e-17
4553.99525 1.68380e-17
4555.50307 1.65200e-17
4557.00071 1.69915e-17
4558.49834 1.70001e-17
4559.99598 1.68099e-17
4561.50380 1.67511e-17
4563.00144 1.57438e-17
4564.49908 1.55710e-17
4565.99671 1.51280e-17
4567.50454 1.62539e-17
4569.00217 1.64582e-17
4570.49981 1.63279e-17
4571.99744 1.76240e-17
4573.49508 1.72891e-17
4575.00290 1.62290e-17
4576.50054 1.57761e-17
4577.99818 1.53928e-17
4579.49581 1.57523e-17
4581.00364 1.61273e-17
4582.50127 1.61133e-17
4583.99891 1.59225e-17
4585.49654 1.51755e-17
4587.00437 1.56119e-17
4588.50200 1.59614e-17
4589.99964 1.61905e-17
4591.49728 1.66181e-17
4593.00510 1.65749e-17
4594.50274 1.65205e-17
4596.00037 1.65061e-17
4597.49801 1.63465e-17
4598.99564 1.58032e-17
4600.50347 1.62522e-17
4602.00110 1.65270e-17
4603.49874 1.58609e-17
4604.99638 1.64011e-17
4606.50420 1.70811e-17
4608.00184 1.75974e-17
4609.49947 1.69738e-17
4610.99711 1.62760e-17
4612.50493 1.65515e-17
4614.00257 1.60017e-17
4615.50020 1.61390e-17
4616.99784 1.56110e-17
4618.49548 1.67356e-17
4620.00330 1.69981e-17
4621.50094 1.59357e-17
4622.99857 1.55378e-17
4624.49621 1.56701e-17
4626.00403 1.62188e-17
4627.50167 1.61201e-17
4628.99930 1.54580e-17
4630.49694 1.58885e-17
4632.00476 1.54579e-17
4633.50240 1.55799e-17
4635.00004 1.54236e-17
4636.49767 1.65247e-17
4637.99531 1.59491e-17
4639.50313 1.51063e-17
4641.00077 1.55550e-17
4642.49840 1.59464e-17
4643.99604 1.63240e-17
4645.50386 1.59328e-17
4647.00150 1.65665e-17
4648.49914 1.59848e-17
4649.99677 1.49719e-17
4651.50460 1.54792e-17
4653.00223 1.57773e-17
4654.49987 1.52469e-17
4655.99750 1.54904e-17
4657.49514 1.63332e-17
4659.00296 1.62843e-17
4660.50060 1.53719e-17
4661.99824 1.54068e-17
4663.49587 1.60821e-17
4665.00370 1.55153e-17
4666.50133 1.52436e-17
4667.99897 1.53756e-17
4669.49660 1.55101e-17
4671.00443 1.54791e-17
4672.50206 1.42928e-17
4673.99970 1.43574e-17
4675.49734 1.51026e-17
4676.99497 1.60920e-17
4678.50280 1.52317e-17
4680.00043 1.49843e-17
4681.49807 1.53161e-17
4682.99570 1.49860e-17
4684.50353 1.42359e-17
4686.00116 1.54455e-17
4687.49880 1.63507e-17
4688.99644 1.52969e-17
4690.50426 1.51291e-17
4692.00190 1.45302e-17
4693.49953 1.35764e-17
4694.99717 1.44454e-17
4696.49480 1.51842e-17
4698.00263 1.58180e-17
4699.50026 1.42882e-17
4700.99790 1.47360e-17
4702.49554 1.45998e-17
4704.00336 1.45119e-17
4705.50100 1.42185e-17
4706.99863 1.45339e-17
4708.49627 1.41865e-17
4710.00409 1.44998e-17
4711.50173 1.45396e-17
4712.99936 1.41553e-17
4714.49700 1.48282e-17
4716.00482 1.52955e-17
4717.50246 1.47018e-17
4719.00010 1.42726e-17
4720.49773 1.37145e-17
4721.99537 1.37070e-17
4723.50319 1.41125e-17
4725.00083 1.39887e-17
4726.49846 1.39980e-17
4727.99610 1.46348e-17
4729.50392 1.48650e-17
4731.00156 1.51122e-17
4732.49920 1.48439e-17
4733.99683 1.42776e-17
4735.50466 1.38211e-17
4737.00229 1.38227e-17
4738.49993 1.44560e-17
4739.99756 1.45682e-17
4741.49520 1.41350e-17
4743.00302 1.44521e-17
4744.50066 1.40862e-17
4745.99830 1.36132e-17
4747.49593 1.35757e-17
4749.00376 1.35955e-17
4750.50139 1.44013e-17
4751.99903 1.45172e-17
4753.49666 1.39597e-17
4755.00449 1.33302e-17
4756.50212 1.40250e-17
4757.99976 1.40948e-17
4759.49740 1.42088e-17
4761.00522 1.34178e-17
4762.50286 1.41556e-17
4764.00049 1.41950e-17
4765.49813 1.41814e-17
4766.99576 1.27734e-17
4768.50359 1.31081e-17
4770.00122 1.37779e-17
4771.49886 1.29422e-17
4772.99650 1.31450e-17
4774.50432 1.31445e-17
4776.00196 1.28711e-17
4777.49959 1.31698e-17
4778.99723 1.30509e-17
4780.50505 1.35377e-17
4782.00269 1.28096e-17
4783.50032 1.28161e-17
4784.99796 1.25644e-17
4786.49560 1.34656e-17
4788.00342 1.30420e-17
4789.50106 1.27412e-17
4790.99869 1.30046e-17
4792.49633 1.33601e-17
4794.00415 1.39722e-17
4795.50179 1.32408e-17
4796.99942 1.28370e-17
4798.49706 1.39457e-17
4800.00488 1.38411e-17
4801.50252 1.29825e-17
4803.00016 1.29888e-17
4804.49779 1.34157e-17
4805.99543 1.30015e-17
4807.50325 1.35218e-17
4809.00089 1.39402e-17
4810.49852 1.35057e-17
4811.99616 1.33371e-17
4813.50398 1.30503e-17
4815.00162 1.33288e-17
4816.49926 1.39494e-17
4817.99689 1.37469e-17
4819.50472 1.44775e-17
4821.00235 1.32323e-17
4822.49999 1.25040e-17
4823.99762 1.27963e-17
4825.49526 1.32672e-17
4827.00308 1.38404e-17
4828.50072 1.28960e-17
4829.99836 1.24923e-17
4831.49599 1.17515e-17
4833.00382 1.25990e-17
4834.50145 1.29102e-17
4835.99909 1.31602e-17
4837.49672 1.24579e-17
4839.00455 1.32109e-17
4840.50218 1.28013e-17
4841.99982 1.32693e-17
4843.49746 1.32650e-17
4844.99509 1.35902e-17
4846.50292 1.31993e-17
4848.00055 1.30932e-17
4849.49819 1.29771e-17
4850.99582 1.24873e-17
4852.50365 1.29749e-17
4854.00128 1.30489e-17
4855.49892 1.35243e-17
4856.99656 1.29342e-17
4858.50438 1.29214e-17
4860.00202 1.30598e-17
4861.49965 1.33033e-17
4862.99729 1.30490e-17
4864.49492 1.26015e-17
4866.00275 1.21869e-17
4867.50038 1.16987e-17
4868.99802 1.26142e-17
4870.49566 1.27468e-17
4872.00348 1.24852e-17
4873.50112 1.24121e-17
4874.99875 1.28562e-17
4876.49639 1.26245e-17
4878.00421 1.27374e-17
4879.50185 1.29293e-17
4880.99948 1.28837e-17
4882.49712 1.24281e-17
4884.00494 1.23369e-17
4885.50258 1.21037e-17
4887.00022 1.26159e-17
4888.49785 1.27774e-17
4889.99549 1.32024e-17
4891.50331 1.31031e-17
4893.00095 1.27592e-17
4894.49858 1.29463e-17
4895.99622 1.26314e-17
4897.50404 1.27651e-17
4899.00168 1.21272e-17
4900.49932 1.28711e-17
4901.99695 1.24441e-17
4903.50478 1.22178e-17
4905.00241 1.22406e-17
4906.50005 1.18398e-17
4907.99768 1.20583e-17
4909.49532 1.21053e-17
4911.00314 1.23000e-17
4912.50078 1.29887e-17
4913.99842 1.21735e-17
4915.49605 1.26286e-17
4917.00388 1.24953e-17
4918.50151 1.25777e-17
4919.99915 1.22118e-17
4921.49678 1.23009e-17
4923.00461 1.22798e-17
4924.50224 1.17475e-17
4925.99988 1.26394e-17
4927.49752 1.29179e-17
4928.99515 1.23516e-17
4930.50298 1.21250e-17
4932.00061 1.24692e-17
4933.49825 1.21478e-17
4934.99588 1.21580e-17
4936.50371 1.21681e-17
4938.00134 1.21783e-17
4939.49898 1.21884e-17
4940.99662 1.21985e-17
4942.50444 1.22087e-17
4944.00208 1.22188e-17
4945.49971 1.22290e-17
4946.99735 1.22391e-17
4948.50517 1.22492e-17
4950.00281 1.22594e-17
4951.50044 1.22695e-17
4952.99808 1.22796e-17
4954.49572 1.22898e-17
4956.00354 1.22999e-17
4957.50118 1.23100e-17
4958.99881 1.23202e-17
4960.49645 1.23303e-17
4962.00427 1.23404e-17
4963.50191 1.23506e-17
4964.99954 1.23607e-17
4966.49718 1.23708e-17
4968.00500 1.23809e-17
4969.50264 1.23911e-17
4971.00028 1.24012e-17
4972.49791 1.24113e-17
4973.99555 1.20442e-17
4975.50337 1.22186e-17
4977.00101 1.19617e-17
4978.49864 1.17781e-17
4979.99628 1.25639e-17
4981.50410 1.27071e-17
4983.00174 1.21857e-17
4984.49938 1.19021e-17
4985.99701 1.18847e-17
4987.50484 1.18089e-17
4989.00247 1.15491e-17
4990.50011 1.13388e-17
4991.99774 1.10489e-17
4993.49538 1.20291e-17
4995.00320 1.19196e-17
4996.50084 1.21503e-17
4997.99848 1.17699e-17
4999.49611 1.25626e-17
5001.00394 1.19316e-17
5002.50157 1.19220e-17
5003.99921 1.29401e-17
5005.49684 1.27125e-17
5007.00467 1.17340e-17
5008.50230 1.14282e-17
5009.99994 1.22389e-17
5011.49758 1.25391e-17
5012.99521 1.25288e-17
5014.50304 1.27442e-17
5016.00067 1.30792e-17
5017.49831 1.26354e-17
5018.99594 1.21795e-17
5020.50377 1.20620e-17
5022.00140 1.23239e-17
5023.49904 1.25455e-17
5024.99668 1.20508e-17
5026.50450 1.22161e-17
5028.00214 1.27014e-17
5029.49977 1.26123e-17
5030.99741 1.22913e-17
5032.49504 1.29194e-17
5034.00287 1.29600e-17
5035.50050 1.30006e-17
5036.99814 1.30411e-17
5038.49578 1.30817e-17
5040.00360 1.31223e-17
5041.50124 1.31628e-17
5042.99887 1.32034e-17
5044.49651 1.32439e-17
5046.00433 1.32845e-17
5047.50197 1.33250e-17
5048.99960 1.33655e-17
5050.49724 1.34061e-17
5051.99488 1.34466e-17
5053.50270 1.34871e-17
5055.00034 1.35276e-17
5056.49797 1.35682e-17
5057.99561 1.36087e-17
5059.50343 1.36492e-17
5061.00107 1.36897e-17
5062.49870 1.37302e-17
5063.99634 1.37707e-17
5065.50416 1.38111e-17
5067.00180 1.38516e-17
5068.49944 1.38921e-17
5069.99707 1.39326e-17
5071.50490 1.39730e-17
5073.00253 1.28899e-17
5074.50017 1.30142e-17
5075.99780 1.37607e-17
5077.49544 1.41021e-17
5079.00326 1.39209e-17
5080.50090 1.41850e-17
5081.99854 1.40064e-17
5083.49617 1.40263e-17
5085.00400 1.40463e-17
5086.50163 1.40662e-17
5087.99927 1.40861e-17
5089.49690 1.41060e-17
5091.00473 1.41259e-17
5092.50236 1.41459e-17
5094.00000 1.41658e-17
5095.49764 1.41857e-17
5096.99527 1.42056e-17
5098.50310 1.42255e-17
5100.00073 1.42454e-17
5101.49837 1.42653e-17
5102.99600 1.42852e-17
5104.50383 1.43051e-17
5106.00146 1.43250e-17
5107.49910 1.43449e-17
5108.99674 1.43648e-17
5110.50456 1.43847e-17
5112.00220 1.44046e-17
5113.49983 1.44245e-17
5114.99747 1.44444e-17
5116.49510 1.44643e-17
5118.00293 1.44842e-17
5119.50056 1.45040e-17
5120.99820 1.51446e-17
5122.49584 1.47157e-17
5124.00366 1.47595e-17
5125.50130 1.46904e-17
5126.99893 1.48387e-17
5128.49657 1.46931e-17
5130.00439 1.51195e-17
5131.50203 1.46500e-17
5132.99966 1.51345e-17
5134.49730 1.46663e-17
5136.00512 1.38604e-17
5137.50276 1.42763e-17
5139.00040 1.44093e-17
5140.49803 1.47910e-17
5141.99567 1.51984e-17
5143.50349 1.57564e-17
5145.00113 1.56100e-17
5146.49876 1.50686e-17
5147.99640 1.58966e-17
5149.50422 1.55362e-17
5151.00186 1.47499e-17
5152.49950 1.52764e-17
5153.99713 1.52822e-17
5155.50496 1.48087e-17
5157.00259 1.45449e-17
5158.50023 1.50298e-17
5159.99786 1.48056e-17
5161.49550 1.46726e-17
5163.00332 1.52504e-17
5164.50096 1.54571e-17
5165.99860 1.52471e-17
5167.49623 1.46194e-17
5169.00406 1.50668e-17
5170.50169 1.56684e-17
5171.99933 1.49018e-17
5173.49696 1.53063e-17
5175.00479 1.55577e-17
5176.50242 1.58374e-17
5178.00006 1.57160e-17
5179.49770 1.45249e-17
5180.99533 1.47961e-17
5182.50316 1.57330e-17
5184.00079 1.50050e-17
5185.49843 1.58147e-17
5186.99606 1.55883e-17
5188.50389 1.46867e-17
5190.00152 1.40123e-17
5191.49916 1.51929e-17
5192.99680 1.65044e-17
5194.50462 1.54950e-17
5196.00226 1.57848e-17
5197.49989 1.55245e-17
5198.99753 1.59589e-17
5200.49516 1.54296e-17
5202.00299 1.47212e-17
5203.50062 1.50465e-17
5204.99826 1.49682e-17
5206.49590 1.58421e-17
5208.00372 1.55779e-17
5209.50136 1.56083e-17
5210.99899 1.51543e-17
5212.49663 1.50566e-17
5214.00445 1.53516e-17
5215.50209 1.55464e-17
5216.99972 1.57766e-17
5218.49736 1.58969e-17
5219.99500 1.55465e-17
5221.50282 1.50735e-17
5223.00046 1.51208e-17
5224.49809 1.51005e-17
5225.99573 1.57915e-17
5227.50355 1.59529e-17
5229.00119 1.55448e-17
5230.49882 1.56724e-17
5231.99646 1.57774e-17
5233.50428 1.54660e-17
5235.00192 1.45412e-17
5236.49956 1.51767e-17
5237.99719 1.54811e-17
5239.49483 1.53059e-17
5241.00265 1.51973e-17
5242.50029 1.46830e-17
5243.99792 1.55007e-17
5245.49556 1.55158e-17
5247.00338 1.47322e-17
5248.50102 1.46089e-17
5249.99866 1.44125e-17
5251.49629 1.50844e-17
5253.00412 1.53323e-17
5254.50175 1.59225e-17
5255.99939 1.67130e-17
5257.49702 1.62538e-17
5259.00485 1.52731e-17
5260.50248 1.53894e-17
5262.00012 1.50315e-17
5263.49776 1.49697e-17
5264.99539 1.52132e-17
5266.50322 1.45534e-17
5268.00085 1.53372e-17
5269.49849 1.57362e-17
5270.99612 1.47644e-17
5272.50395 1.49710e-17
5274.00158 1.54273e-17
5275.49922 1.45342e-17
5276.99686 1.45761e-17
5278.50468 1.54400e-17
5280.00232 1.58325e-17
5281.49995 1.58420e-17
5282.99759 1.58303e-17
5284.49522 1.54428e-17
5286.00305 1.54700e-17
5287.50068 1.56482e-17
5288.99832 1.59861e-17
5290.49596 1.56026e-17
5292.00378 1.50002e-17
5293.50142 1.55563e-17
5294.99905 1.53763e-17
5296.49669 1.54241e-17
5298.00451 1.54065e-17
5299.50215 1.51392e-17
5300.99978 1.46222e-17
5302.49742 1.45404e-17
5303.99506 1.49552e-17
5305.50288 1.47756e-17
5307.00052 1.54919e-17
5308.49815 1.57790e-17
5309.99579 1.47810e-17
5311.50361 1.46056e-17
5313.00125 1.50453e-17
5314.49888 1.48180e-17
5315.99652 1.51701e-17
5317.50434 1.52103e-17
5319.00198 1.48814e-17
5320.49962 1.51909e-17
5321.99725 1.48973e-17
5323.50508 1.42250e-17
5325.00271 1.39388e-17
5326.50035 1.44301e-17
5327.99798 1.48404e-17
5329.49562 1.46373e-17
5331.00344 1.50902e-17
5332.50108 1.49215e-17
5333.99872 1.46623e-17
5335.49635 1.53153e-17
5337.00418 1.47916e-17
5338.50181 1.39205e-17
5339.99945 1.35627e-17
5341.49708 1.47108e-17
5343.00491 1.43687e-17
5344.50254 1.35378e-17
5346.00018 1.38498e-17
5347.49782 1.34766e-17
5348.99545 1.39314e-17
5350.50328 1.51425e-17
5352.00091 1.48259e-17
5353.49855 1.45978e-17
5354.99618 1.42130e-17
5356.50401 1.42100e-17
5358.00164 1.42366e-17
5359.49928 1.40339e-17
5360.99692 1.43803e-17
5362.50474 1.49054e-17
5364.00238 1.47761e-17
5365.50001 1.44452e-17
5366.99765 1.46114e-17
5368.49528 1.44509e-17
5370.00311 1.41496e-17
5371.50074 1.41140e-17
5372.99838 1.38080e-17
5374.49602 1.32972e-17
5376.00384 1.35827e-17
5377.50148 1.44633e-17
5378.99911 1.47627e-17
5380.49675 1.46159e-17
5382.00457 1.43229e-17
5383.50221 1.44675e-17
5384.99984 1.43319e-17
5386.49748 1.35269e-17
5387.99512 1.31159e-17
5389.50294 1.34187e-17
5391.00058 1.41510e-17
5392.49821 1.43480e-17
5393.99585 1.41961e-17
5395.50367 1.42258e-17
5397.00131 1.42467e-17
5398.49894 1.45583e-17
5399.99658 1.43131e-17
5401.50440 1.36111e-17
5403.00204 1.32080e-17
5404.49968 1.34047e-17
5405.99731 1.36198e-17
5407.49495 1.35481e-17
5409.00277 1.38875e-17
5410.50041 1.39522e-17
5411.99804 1.43873e-17
5413.49568 1.45285e-17
5415.00350 1.44109e-17
5416.50114 1.43608e-17
5417.99878 1.37741e-17
5419.49641 1.40453e-17
5421.00424 1.38255e-17
5422.50187 1.34450e-17
5423.99951 1.41061e-17
5425.49714 1.39465e-17
5426.99478 1.35669e-17
5428.50260 1.43240e-17
5430.00024 1.43040e-17
5431.49788 1.44811e-17
5432.99551 1.38563e-17
5434.50334 1.31416e-17
5436.00097 1.34768e-17
5437.49861 1.32147e-17
5438.99624 1.31217e-17
5440.50407 1.33315e-17
5442.00170 1.33993e-17
5443.49934 1.37306e-17
5444.99698 1.34332e-17
5446.50480 1.36980e-17
5448.00244 1.45755e-17
5449.50007 1.40988e-17
5450.99771 1.40108e-17
5452.49534 1.38691e-17
5454.00317 1.38348e-17
5455.50080 1.39319e-17
5456.99844 1.31970e-17
5458.49608 1.35860e-17
5460.00390 1.40706e-17
5461.50154 1.36670e-17
5462.99917 1.35169e-17
5464.49681 1.31434e-17
5466.00463 1.27769e-17
5467.50227 1.34760e-17
5468.99990 1.31723e-17
5470.49754 1.31992e-17
5471.99518 1.29380e-17
5473.50300 1.31107e-17
5475.00064 1.35258e-17
5476.49827 1.27325e-17
5477.99591 1.37785e-17
5479.50373 1.38758e-17
5481.00137 1.39339e-17
5482.49900 1.33588e-17
5483.99664 1.33019e-17
5485.50446 1.35114e-17
5487.00210 1.44265e-17
5488.49974 1.31486e-17
5489.99737 1.26205e-17
5491.49501 1.32589e-17
5493.00283 1.34005e-17
5494.50047 1.26055e-17
5495.99810 1.23573e-17
5497.49574 1.25220e-17
5499.00356 1.27074e-17
5500.50120 1.24135e-17
5501.99884 1.27156e-17
5503.49647 1.35001e-17
5505.00430 1.34476e-17
5506.50193 1.33358e-17
5507.99957 1.30004e-17
5509.49720 1.29456e-17
5511.00503 1.27297e-17
5512.50266 1.28211e-17
5514.00030 1.34687e-17
5515.49794 1.39049e-17
5516.99557 1.29652e-17
5518.50340 1.23445e-17
5520.00103 1.26243e-17
5521.49867 1.33203e-17
5522.99630 1.29107e-17
5524.50413 1.22027e-17
5526.00176 1.19121e-17
5527.49940 1.28195e-17
5528.99704 1.30945e-17
5530.50486 1.30272e-17
5532.00250 1.27839e-17
5533.50013 1.28404e-17
5534.99777 1.22319e-17
5536.49540 1.26901e-17
5538.00323 1.24356e-17
5539.50086 1.21317e-17
5540.99850 1.23682e-17
5542.49614 1.31885e-17
5544.00396 1.25247e-17
5545.50160 1.20192e-17
5546.99923 1.18870e-17
5548.49687 1.17766e-17
5550.00469 1.31785e-17
5551.50233 1.28031e-17
5552.99996 1.25020e-17
5554.49760 1.21292e-17
5555.99524 1.23393e-17
5557.50306 1.31848e-17
5559.00070 1.23630e-17
5560.49833 1.21686e-17
5561.99597 1.22937e-17
5563.50379 1.25891e-17
5565.00143 1.24151e-17
5566.49906 1.22578e-17
5567.99670 1.25381e-17
5569.50452 1.27781e-17
5571.00216 1.24013e-17
5572.49980 1.16203e-17
5573.99743 1.20750e-17
5575.49507 1.27575e-17
5577.00289 1.17864e-17
5578.50053 1.13131e-17
5579.99816 1.19665e-17
5581.49580 1.25159e-17
5583.00362 1.22294e-17
5584.50126 1.21037e-17
5585.99890 1.19900e-17
5587.49653 1.18935e-17
5589.00436 1.22559e-17
5590.50199 1.22833e-17
5591.99963 1.22235e-17
5593.49726 1.22947e-17
5594.99490 1.21606e-17
5596.50272 1.17514e-17
5598.00036 1.18216e-17
5599.49800 1.19831e-17
5600.99563 1.18103e-17
5602.50346 1.16772e-17
5604.00109 1.18155e-17
5605.49873 1.16984e-17
5606.99636 1.15814e-17
5608.50419 1.14644e-17
5610.00182 1.14639e-17
5611.49946 1.14101e-17
5612.99710 1.15679e-17
5614.50492 1.20715e-17
5616.00256 1.18561e-17
5617.50019 1.17432e-17
5618.99783 1.20465e-17
5620.49546 1.20304e-17
5622.00329 1.16560e-17
5623.50092 1.18494e-17
5624.99856 1.18127e-17
5626.49620 1.21086e-17
5628.00402 1.21393e-17
5629.50166 1.23552e-17
5630.99929 1.19998e-17
5632.49693 1.19253e-17
5634.00475 1.20952e-17
5635.50239 1.16960e-17
5637.00002 1.18716e-17
5638.49766 1.13354e-17
5639.99530 1.15951e-17
5641.50312 1.13852e-17
5643.00076 1.13203e-17
5644.49839 1.18569e-17
5645.99603 1.18022e-17
5647.50385 1.15952e-17
5649.00149 1.20014e-17
5650.49912 1.17979e-17
5651.99676 1.10898e-17
5653.50458 1.14462e-17
5655.00222 1.21087e-17
5656.49986 1.14996e-17
5657.99749 1.11851e-17
5659.49513 1.18793e-17
5661.00295 1.16154e-17
5662.50059 1.13840e-17
5663.99822 1.17552e-17
5665.49586 1.15124e-17
5667.00368 1.12042e-17
5668.50132 1.13518e-17
5669.99896 1.08977e-17
5671.49659 1.05006e-17
5673.00442 1.09705e-17
5674.50205 1.11710e-17
5675.99969 1.12602e-17
5677.49732 1.09277e-17
5679.00515 1.10284e-17
5680.50278 1.13428e-17
5682.00042 1.15548e-17
5683.49806 1.12033e-17
5684.99569 1.12635e-17
5686.50352 1.13239e-17
5688.00115 1.13842e-17
5689.49879 1.13838e-17
5690.99642 1.11038e-17
5692.50425 1.08017e-17
5694.00188 9.65783e-18
5695.49952 1.09640e-17
5696.99716 1.14864e-17
5698.50498 1.07889e-17
5700.00262 1.09211e-17
5701.50025 1.12720e-17
5702.99789 1.09845e-17
5704.49552 1.10781e-17
5706.00335 1.11351e-17
5707.50098 1.04791e-17
5708.99862 1.07004e-17
5710.49626 1.10579e-17
5712.00408 1.09707e-17
5713.50172 1.11038e-17
5714.99935 1.07503e-17
5716.49699 1.04791e-17
5718.00481 1.07513e-17
5719.50245 1.09578e-17
5721.00008 1.10648e-17
5722.49772 1.12636e-17
5723.99536 1.15263e-17
5725.50318 1.10969e-17
5727.00082 1.05258e-17
5728.49845 1.15483e-17
5729.99609 1.17662e-17
5731.50391 1.11789e-17
5733.00155 1.13390e-17
5734.49918 1.12547e-17
5735.99682 1.09814e-17
5737.50464 1.10810e-17
5739.00228 1.09442e-17
5740.49992 1.10186e-17
5741.99755 1.09637e-17
5743.49519 1.09229e-17
5745.00301 1.10260e-17
5746.50065 1.08850e-17
5747.99828 1.10501e-17
5749.49592 1.11847e-17
5751.00374 1.13759e-17
5752.50138 1.14257e-17
5753.99902 1.13532e-17
5755.49665 1.16689e-17
5757.00448 1.16712e-17
5758.50211 1.08329e-17
5759.99975 1.05258e-17
5761.49738 1.06896e-17
5762.99502 1.11005e-17
5764.50284 1.06594e-17
5766.00048 1.05283e-17
5767.49812 1.12772e-17
5768.99575 1.13340e-17
5770.50358 1.08828e-17
5772.00121 1.08208e-17
5773.49885 1.12835e-17
5774.99648 1.09481e-17
5776.50431 1.06337e-17
5778.00194 1.05153e-17
5779.49958 1.07635e-17
5780.99722 1.11781e-17
5782.49485 1.04672e-17
5784.00268 1.08144e-17
5785.50031 1.14741e-17
5786.99795 1.13613e-17
5788.49558 1.10541e-17
5790.00341 1.10646e-17
5791.50104 1.10630e-17
5792.99868 1.07500e-17
5794.49632 1.06771e-17
5796.00414 1.07831e-17
5797.50178 1.12377e-17
5798.99941 1.14993e-17
5800.49705 1.13211e-17
5802.00487 1.09283e-17
5803.50251 1.09908e-17
5805.00014 1.11186e-17
5806.49778 1.10701e-17
5807.99542 1.09696e-17
5809.50324 1.09915e-17
5811.00088 1.12583e-17
5812.49851 1.16340e-17
5813.99615 1.12108e-17
5815.50397 1.11339e-17
5817.00161 1.12629e-17
5818.49924 1.12282e-17
5819.99688 1.12176e-17
5821.50470 1.17586e-17
5823.00234 1.08526e-17
5824.49998 1.07140e-17
5825.99761 1.11118e-17
5827.49525 1.12086e-17
5829.00307 1.17616e-17
5830.50071 1.15975e-17
5831.99834 1.11734e-17
5833.49598 1.10079e-17
5835.00380 1.15900e-17
5836.50144 1.15653e-17
5837.99908 1.03718e-17
5839.49671 1.08906e-17
5841.00454 1.16476e-17
5842.50217 1.11759e-17
5843.99981 1.11215e-17
5845.49744 1.15385e-17
5846.99508 1.11090e-17
5848.50290 1.06799e-17
5850.00054 1.07120e-17
5851.49818 1.05880e-17
5852.99581 1.05172e-17
5854.50364 1.07329e-17
5856.00127 1.09930e-17
5857.49891 1.09179e-17
5858.99654 1.11426e-17
5860.50437 1.13038e-17
5862.00200 1.12587e-17
5863.49964 1.13664e-17
5864.99728 1.10993e-17
5866.50510 1.06353e-17
5868.00274 1.01379e-17
5869.50037 9.94334e-18
5870.99801 1.02216e-17
5872.49564 1.09717e-17
5874.00347 1.06957e-17
5875.50110 1.09376e-17
5876.99874 1.11023e-17
5878.49638 1.02164e-17
5880.00420 9.80911e-18
5881.50184 1.01341e-17
5882.99947 1.01900e-17
5884.49711 1.06479e-17
5886.00493 1.09565e-17
5887.50257 1.03855e-17
5889.00020 1.07198e-17
5890.49784 1.09688e-17
5891.99548 1.02312e-17
5893.50330 9.73673e-18
5895.00094 1.03554e-17
5896.49857 1.02913e-17
5897.99621 1.06361e-17
5899.50403 1.07467e-17
5901.00167 1.03769e-17
5902.49930 1.04769e-17
5903.99694 1.02651e-17
5905.50476 1.01913e-17
5907.00240 1.00685e-17
5908.50004 1.04147e-17
5909.99767 1.08221e-17
5911.49531 1.06655e-17
5913.00313 1.05186e-17
5914.50077 1.01565e-17
5915.99840 1.03517e-17
5917.49604 1.08600e-17
5919.00386 1.01193e-17
5920.50150 9.84842e-18
5921.99914 1.01165e-17
5923.49677 1.02713e-17
5925.00460 1.03218e-17
5926.50223 1.04668e-17
5927.99987 1.00753e-17
5929.49750 9.57384e-18
5930.99514 1.01615e-17
5932.50296 1.02422e-17
5934.00060 1.05437e-17
5935.49824 1.04854e-17
5936.99587 1.04801e-17
5938.50370 1.07928e-17
5940.00133 1.02507e-17
5941.49897 9.83143e-18
5942.99660 9.72839e-18
5944.50443 9.86518e-18
5946.00206 1.00807e-17
5947.49970 9.84735e-18
5948.99734 9.73885e-18
5950.49497 9.52966e-18
5952.00280 9.68153e-18
5953.50043 1.03034e-17
5954.99807 1.07354e-17
5956.49570 1.07108e-17
5958.00353 1.06860e-17
5959.50116 1.06614e-17
5960.99880 1.06367e-17
5962.49644 1.06120e-17
5964.00426 1.05873e-17
5965.50190 1.05626e-17
5966.99953 1.05379e-17
5968.49717 1.05132e-17
5969.99480 1.04886e-17
5971.50263 1.04639e-17
5973.00026 1.04392e-17
5974.49790 1.04145e-17
5975.99554 1.03899e-17
5977.50336 1.03652e-17
5979.00100 1.03405e-17
5980.49863 1.03158e-17
5981.99627 1.02912e-17
5983.50409 1.02665e-17
5985.00173 1.02419e-17
5986.49936 1.02172e-17
5987.99700 1.01925e-17
5989.50482 1.01679e-17
5991.00246 1.01432e-17
5992.50010 1.01186e-17
5993.99773 1.00939e-17
5995.49537 1.00693e-17
5997.00319 1.00446e-17
5998.50083 1.00200e-17
5999.99846 9.99536e-18
6001.49610 9.97071e-18
6003.00392 9.94607e-18
6004.50156 9.92144e-18
6005.99920 9.89680e-18
6007.49683 9.87217e-18
6009.00466 9.84754e-18
6010.50229 9.82292e-18
6011.99993 9.79828e-18
6013.49756 9.77366e-18
6014.99520 9.74904e-18
6016.50302 9.72442e-18
6018.00066 9.69980e-18
6019.49830 9.87845e-18
6020.99593 9.67659e-18
6022.50376 9.02821e-18
6024.00139 8.95565e-18
6025.49903 9.68416e-18
6026.99666 1.00548e-17
6028.50449 9.88379e-18
6030.00212 9.46413e-18
6031.49976 9.61810e-18
6032.99740 9.83853e-18
6034.49503 9.96137e-18
6036.00286 1.03557e-17
6037.50049 1.02061e-17
6038.99813 9.87292e-18
6040.49576 9.64435e-18
6042.00359 9.95041e-18
6043.50122 9.66637e-18
6044.99886 9.62338e-18
6046.49650 1.00616e-17
6048.00432 9.76006e-18
6049.50196 8.92970e-18
6050.99959 9.22407e-18
6052.49723 1.03802e-17
6054.00505 9.78828e-18
6055.50269 8.88976e-18
6057.00032 8.70425e-18
6058.49796 8.70397e-18
6059.99560 9.80633e-18
6061.50342 9.35955e-18
6063.00106 9.10971e-18
6064.49869 9.41447e-18
6065.99633 8.91708e-18
6067.50415 9.12810e-18
6069.00179 9.55297e-18
6070.49942 1.01300e-17
6071.99706 9.58150e-18
6073.50488 8.82940e-18
6075.00252 8.51064e-18
6076.50016 9.14974e-18
6077.99779 9.60091e-18
6079.49543 9.19814e-18
6081.00325 8.71784e-18
6082.50089 9.27640e-18
6083.99852 9.44071e-18
6085.49616 9.52100e-18
6087.00398 9.69326e-18
6088.50162 9.45310e-18
6089.99926 9.32482e-18
6091.49689 9.42773e-18
6093.00472 9.26747e-18
6094.50235 9.45187e-18
6095.99999 9.56589e-18
6097.49762 8.99117e-18
6098.99526 9.19444e-18
6100.50308 9.43443e-18
6102.00072 9.11173e-18
6103.49836 9.16534e-18
6104.99599 9.40273e-18
6106.50382 9.49909e-18
6108.00145 9.09991e-18
6109.49909 8.97596e-18
6110.99672 9.44410e-18
6112.50455 9.00436e-18
6114.00218 9.35049e-18
6115.49982 8.87528e-18
6116.99746 8.43661e-18
6118.49509 9.05334e-18
6120.00292 9.35693e-18
6121.50055 8.87239e-18
6122.99819 8.62071e-18
6124.49582 8.99206e-18
6126.00365 9.05784e-18
6127.50128 8.89868e-18
6128.99892 8.98437e-18
6130.49656 9.00859e-18
6132.00438 8.74476e-18
6133.50202 8.82431e-18
6134.99965 8.95386e-18
6136.49729 8.71299e-18
6137.99492 8.43444e-18
6139.50275 8.55439e-18
6141.00038 8.95442e-18
6142.49802 9.01628e-18
6143.99566 8.72902e-18
6145.50348 8.53513e-18
6147.00112 8.75459e-18
6148.49875 8.89075e-18
6149.99639 8.43900e-18
6151.50421 8.34720e-18
6153.00185 8.61253e-18
6154.49948 8.71920e-18
6155.99712 8.42242e-18
6157.50494 8.15504e-18
6159.00258 8.41973e-18
6160.50022 8.50831e-18
6161.99785 8.55927e-18
6163.49549 8.52975e-18
6165.00331 8.19351e-18
6166.50095 8.03415e-18
6167.99858 8.42241e-18
6169.49622 8.80145e-18
6171.00404 8.35995e-18
6172.50168 8.01536e-18
6173.99932 8.17377e-18
6175.49695 7.99297e-18
6177.00478 8.03822e-18
6178.50241 8.27791e-18
6180.00005 8.24015e-18
6181.49768 8.72578e-18
6182.99532 9.06949e-18
6184.50314 8.24210e-18
6186.00078 8.27137e-18
6187.49842 8.46547e-18
6188.99605 8.70331e-18
6190.50388 8.63690e-18
6192.00151 8.40299e-18
6193.49915 8.90450e-18
6194.99678 8.65003e-18
6196.50461 8.00476e-18
6198.00224 7.22931e-18
6199.49988 7.78493e-18
6200.99752 8.68086e-18
6202.49515 8.20174e-18
6204.00298 8.09092e-18
6205.50061 8.28937e-18
6206.99825 8.67175e-18
6208.49588 8.06066e-18
6210.00371 7.72716e-18
6211.50134 8.22424e-18
6212.99898 8.44430e-18
6214.49662 8.66819e-18
6216.00444 8.62808e-18
6217.50208 8.54396e-18
6218.99971 8.83632e-18
6220.49735 8.47438e-18
6221.99498 8.86506e-18
6223.50281 9.14746e-18
6225.00044 8.74756e-18
6226.49808 8.34338e-18
6227.99572 8.77341e-18
6229.50354 8.60038e-18
6231.00118 8.31899e-18
6232.49881 8.57629e-18
6233.99645 9.15874e-18
6235.50427 8.40242e-18
6237.00191 7.85586e-18
6238.49954 8.95275e-18
6239.99718 9.59017e-18
6241.50500 9.76277e-18
6243.00264 9.14080e-18
6244.50028 8.83176e-18
6245.99791 8.79682e-18
6247.49555 8.22619e-18
6249.00337 8.24673e-18
6250.50101 8.15178e-18
6251.99864 8.30136e-18
6253.49628 8.95197e-18
6255.00410 9.01650e-18
6256.50174 8.59582e-18
6257.99938 8.06133e-18
6259.49701 8.67494e-18
6261.00484 8.74263e-18
6262.50247 8.94935e-18
6264.00011 8.69182e-18
6265.49774 8.66978e-18
6266.99538 8.19657e-18
6268.50320 8.52518e-18
6270.00084 8.74692e-18
6271.49848 8.51760e-18
6272.99611 8.83794e-18
6274.50394 9.79868e-18
6276.00157 9.44317e-18
6277.49921 8.95373e-18
6278.99684 8.68391e-18
6280.50467 8.31244e-18
6282.00230 8.99502e-18
6283.49994 8.85472e-18
6284.99758 8.87032e-18
6286.49521 8.97529e-18
6288.00304 8.81462e-18
6289.50067 8.57291e-18
6290.99831 9.22294e-18
6292.49594 8.95424e-18
6294.00377 8.30911e-18
6295.50140 8.96273e-18
6296.99904 9.62053e-18
6298.49668 9.09482e-18
6300.00450 8.22056e-18
6301.50214 8.65176e-18
6302.99977 9.22989e-18
6304.49741 8.79443e-18
6305.99504 8.40992e-18
6307.50287 8.30832e-18
6309.00050 8.82697e-18
6310.49814 9.17863e-18
6311.99578 9.00122e-18
6313.50360 9.09825e-18
6315.00124 8.89906e-18
6316.49887 8.61680e-18
6317.99651 8.57952e-18
6319.50433 9.24927e-18
6321.00197 8.54707e-18
6322.49960 8.68583e-18
6323.99724 8.89070e-18
6325.49488 8.35596e-18
6327.00270 8.74835e-18
6328.50034 9.02631e-18
6329.99797 8.87756e-18
6331.49561 8.84472e-18
6333.00343 8.69322e-18
6334.50107 8.63115e-18
6335.99870 8.77000e-18
6337.49634 9.12674e-18
6339.00416 9.34088e-18
6340.50180 9.20446e-18
6341.99944 9.56227e-18
6343.49707 9.61701e-18
6345.00490 9.38658e-18
6346.50253 9.21215e-18
6348.00017 9.19688e-18
6349.49780 9.37827e-18
6350.99544 8.93955e-18
6352.50326 8.60000e-18
6354.00090 8.94941e-18
6355.49854 8.84128e-18
6356.99617 8.70982e-18
6358.50400 9.21482e-18
6360.00163 9.33052e-18
6361.49927 9.12672e-18
6362.99690 9.40319e-18
6364.50473 9.50466e-18
6366.00236 9.20394e-18
6367.50000 8.67701e-18
6368.99764 9.05602e-18
6370.49527 9.61012e-18
6372.00310 9.27121e-18
6373.50073 9.01268e-18
6374.99837 8.77840e-18
6376.49600 8.69039e-18
6378.00383 8.83189e-18
6379.50146 8.34629e-18
6380.99910 8.22816e-18
6382.49674 8.67598e-18
6384.00456 8.60313e-18
6385.50220 8.49472e-18
6386.99983 8.42603e-18
6388.49747 9.21435e-18
6389.99510 8.99157e-18
6391.50293 8.71689e-18
6393.00056 9.58132e-18
6394.49820 9.58534e-18
6395.99584 9.72831e-18
6397.50366 9.38113e-18
6399.00130 9.39356e-18
6400.49893 9.65375e-18
6401.99657 9.66251e-18
6403.50439 9.59707e-18
6405.00203 9.80648e-18
6406.49966 9.49867e-18
6407.99730 9.28148e-18
6409.49494 8.85626e-18
6411.00276 9.23838e-18
6412.50040 9.18843e-18
6413.99803 8.80528e-18
6415.49567 8.69330e-18
6417.00349 9.23488e-18
6418.50113 9.65232e-18
6419.99876 9.49500e-18
6421.49640 9.84040e-18
6423.00422 9.89665e-18
6424.50186 9.42740e-18
6425.99950 9.41174e-18
6427.49713 9.60763e-18
6429.00496 9.70406e-18
6430.50259 9.55194e-18
6432.00023 9.64043e-18
6433.49786 9.25048e-18
6434.99550 9.37631e-18
6436.50332 9.40089e-18
6438.00096 9.21194e-18
6439.49860 9.36458e-18
6440.99623 9.25159e-18
6442.50406 9.26378e-18
6444.00169 9.60885e-18
6445.49933 9.98140e-18
6446.99696 9.73774e-18
6448.50479 9.97706e-18
6450.00242 1.12109e-17
6451.50006 1.07582e-17
6452.99770 1.05729e-17
6454.49533 1.02323e-17
6456.00316 9.76380e-18
6457.50079 9.94445e-18
6458.99843 1.00656e-17
6460.49606 9.97601e-18
6462.00389 9.56921e-18
6463.50152 9.03769e-18
6464.99916 9.29202e-18
6466.49680 9.07704e-18
6468.00462 9.90529e-18
6469.50226 9.73372e-18
6470.99989 9.69394e-18
6472.49753 9.24681e-18
6473.99516 9.12799e-18
6475.50299 9.84789e-18
6477.00062 1.01492e-17
6478.49826 1.01208e-17
6479.99590 9.35830e-18
6481.50372 9.39627e-18
6483.00136 9.26529e-18
6484.49899 8.96287e-18
6485.99663 1.01419e-17
6487.50445 9.68151e-18
6489.00209 9.31950e-18
6490.49972 9.69644e-18
6491.99736 9.28467e-18
6493.49500 9.34084e-18
6495.00282 1.02037e-17
6496.50046 9.73032e-18
6497.99809 9.61656e-18
6499.49573 9.60536e-18
6501.00355 9.48847e-18
6502.50119 9.47112e-18
6503.99882 8.91834e-18
6505.49646 9.12610e-18
6507.00428 9.65178e-18
6508.50192 9.37554e-18
6509.99956 9.22889e-18
6511.49719 9.30292e-18
6512.99483 9.46402e-18
6514.50265 8.88350e-18
6516.00029 8.71924e-18
6517.49792 9.56075e-18
6518.99556 9.94764e-18
6520.50338 9.60248e-18
6522.00102 9.48065e-18
6523.49866 9.86323e-18
6524.99629 9.86597e-18
6526.50412 9.96562e-18
6528.00175 9.67869e-18
6529.49939 9.29803e-18
6530.99702 9.23954e-18
6532.50485 9.60302e-18
6534.00248 9.77183e-18
6535.50012 9.62261e-18
6536.99776 9.57357e-18
6538.49539 1.02053e-17
6540.00322 1.00814e-17
6541.50085 9.38033e-18
6542.99849 9.73034e-18
6544.49612 9.81134e-18
6546.00395 9.53872e-18
6547.50158 9.57377e-18
6548.99922 9.66849e-18
6550.49686 9.39123e-18
6552.00468 9.06121e-18
6553.50232 9.22681e-18
6554.99995 9.40208e-18
6556.49759 8.88501e-18
6557.99522 8.84932e-18
6559.50305 9.42106e-18
6561.00068 9.56527e-18
6562.49832 9.27663e-18
6563.99596 9.07147e-18
6565.50378 9.11629e-18
6567.00142 9.39459e-18
6568.49905 9.54588e-18
6569.99669 9.07729e-18
6571.50451 9.13757e-18
6573.00215 9.70327e-18
6574.49978 9.66578e-18
6575.99742 9.06710e-18
6577.49506 8.98078e-18
6579.00288 9.17089e-18
6580.50052 9.17639e-18
6581.99815 9.27702e-18
6583.49579 9.35970e-18
6585.00361 9.38771e-18
6586.50125 9.60495e-18
6587.99888 9.17093e-18
6589.49652 9.16817e-18
6591.00434 9.61193e-18
6592.50198 9.90521e-18
6593.99962 9.12539e-18
6595.49725 8.93760e-18
6596.99489 9.37528e-18
6598.50271 9.31944e-18
6600.00035 9.19591e-18
6601.49798 9.09201e-18
6602.99562 9.24356e-18
6604.50344 9.78023e-18
6606.00108 9.93303e-18
6607.49872 9.42033e-18
6608.99635 8.48235e-18
6610.50418 8.96644e-18
6612.00181 9.42376e-18
6613.49945 9.27684e-18
6614.99708 9.09927e-18
6616.50491 9.60146e-18
6618.00254 9.27345e-18
6619.50018 9.41919e-18
6620.99782 9.74759e-18
6622.49545 8.97657e-18
6624.00328 8.97538e-18
6625.50091 9.46015e-18
6626.99855 9.52839e-18
6628.49618 9.68955e-18
6630.00401 9.13519e-18
6631.50164 9.49212e-18
6632.99928 9.39997e-18
6634.49692 9.12325e-18
6636.00474 9.28142e-18
6637.50238 9.08385e-18
6639.00001 9.36554e-18
6640.49765 9.42249e-18
6641.99528 9.44014e-18
6643.50311 9.30813e-18
6645.00074 9.17186e-18
6646.49838 9.17513e-18
6647.99602 9.05484e-18
6649.50384 9.01255e-18
6651.00148 9.05075e-18
6652.49911 9.27510e-18
6653.99675 9.25794e-18
6655.50457 9.24078e-18
6657.00221 9.22363e-18
6658.49984 9.20647e-18
6659.99748 9.18931e-18
6661.49512 9.17216e-18
6663.00294 9.15501e-18
6664.50058 9.13785e-18
6665.99821 9.12070e-18
6667.49585 9.10355e-18
6669.00367 9.08640e-18
6670.50131 9.06925e-18
6671.99894 9.05210e-18
6673.49658 9.03495e-18
6675.00440 9.01780e-18
6676.50204 9.00066e-18
6677.99968 8.98352e-18
6679.49731 8.96637e-18
6680.99495 8.94923e-18
6682.50277 8.93209e-18
6684.00041 8.91494e-18
6685.49804 8.89780e-18
6686.99568 8.88066e-18
6688.50350 8.86352e-18
6690.00114 8.84638e-18
6691.49878 8.85554e-18
6692.99641 8.86470e-18
6694.50424 8.87386e-18
6696.00187 8.88302e-18
6697.49951 8.89218e-18
6698.99714 8.90134e-18
6700.49478 8.91049e-18
6702.00260 8.91965e-18
6703.50024 8.92881e-18
6704.99788 8.93796e-18
6706.49551 8.94712e-18
6708.00334 8.95628e-18
6709.50097 8.96543e-18
6710.99861 8.97458e-18
6712.49624 8.98374e-18
6714.00407 8.99289e-18
6715.50170 9.00204e-18
6716.99934 9.01120e-18
6718.49698 9.02035e-18
6720.00480 9.02950e-18
6721.50244 9.03865e-18
6723.00007 9.04780e-18
6724.49771 9.05695e-18
6725.99534 9.06610e-18
6727.50317 9.27300e-18
6729.00080 8.52863e-18
6730.49844 8.02269e-18
6731.99608 8.15879e-18
6733.50390 7.75335e-18
6735.00154 7.97479e-18
6736.49917 8.57580e-18
6737.99681 8.65113e-18
6739.50463 8.79464e-18
6741.00227 8.12206e-18
6742.49990 7.86960e-18
6743.99754 8.22886e-18
6745.49518 8.11096e-18
6747.00300 8.44473e-18
6748.50064 8.57976e-18
6749.99827 8.37806e-18
6751.49591 8.77310e-18
6753.00373 8.82631e-18
6754.50137 7.89425e-18
6755.99900 7.68276e-18
6757.49664 8.49004e-18
6759.00446 8.57558e-18
6760.50210 8.20523e-18
6761.99974 7.97968e-18
6763.49737 8.15996e-18
6764.99501 8.30010e-18
6766.50283 8.49968e-18
6768.00047 8.69094e-18
6769.49810 8.45630e-18
6770.99574 8.39545e-18
6772.50356 8.45209e-18
6774.00120 8.33028e-18
6775.49884 8.06583e-18
6776.99647 8.24917e-18
6778.50430 8.23316e-18
6780.00193 7.67205e-18
6781.49957 7.95409e-18
6782.99720 8.31971e-18
6784.50503 7.93298e-18
6786.00266 7.54973e-18
6787.50030 7.51271e-18
6788.99794 8.00637e-18
6790.49557 8.33113e-18
6792.00340 8.28920e-18
6793.50103 7.88114e-18
6794.99867 7.90006e-18
6796.49630 7.63739e-18
6798.00413 7.53548e-18
6799.50176 8.25727e-18
6800.99940 8.04884e-18
6802.49704 7.45762e-18
6804.00486 7.68340e-18
6805.50250 7.84882e-18
6807.00013 7.70728e-18
6808.49777 7.74117e-18
6809.99540 7.71413e-18
6811.50323 8.00155e-18
6813.00086 7.89650e-18
6814.49850 7.76312e-18
6815.99614 7.94903e-18
6817.50396 7.52855e-18
6819.00160 7.39759e-18
6820.49923 7.94058e-18
6821.99687 8.28798e-18
6823.50469 7.84928e-18
6825.00233 7.83865e-18
6826.49996 7.82801e-18
6827.99760 7.81737e-18
6829.49524 7.80674e-18
6831.00306 7.79611e-18
6832.50070 7.78547e-18
6833.99833 7.77483e-18
6835.49597 7.76420e-18
6837.00379 7.75357e-18
6838.50143 7.74293e-18
6839.99906 7.74030e-18
6841.49670 7.73767e-18
6843.00452 7.73503e-18
6844.50216 7.73240e-18
6845.99980 7.72977e-18
6847.49743 7.72713e-18
6848.99507 7.72450e-18
6850.50289 7.72187e-18
6852.00053 7.71923e-18
6853.49816 7.71660e-18
6854.99580 7.71397e-18
6856.50362 7.71133e-18
6858.00126 7.70870e-18
6859.49890 7.70607e-18
6860.99653 7.70344e-18
6862.50436 7.70080e-18
6864.00199 7.69817e-18
6865.49963 7.69554e-18
6866.99726 7.69291e-18
6868.49490 7.69027e-18
6870.00272 7.68764e-18
6871.50036 7.68501e-18
6872.99800 7.68238e-18
6874.49563 7.67975e-18
6876.00346 7.67712e-18
6877.50109 7.65177e-18
6878.99873 6.94602e-18
6880.49636 7.08766e-18
6882.00419 7.82785e-18
6883.50182 7.55393e-18
6884.99946 7.30787e-18
6886.49710 7.97300e-18
6888.00492 7.78833e-18
6889.50256 7.02809e-18
6891.00019 7.46031e-18
6892.49783 7.80186e-18
6893.99546 7.70496e-18
6895.50329 7.82642e-18
6897.00092 7.93174e-18
6898.49856 7.68240e-18
6899.99620 7.47399e-18
6901.50402 7.93041e-18
6903.00166 7.05801e-18
6904.49929 7.54032e-18
6905.99693 7.66251e-18
6907.50475 7.89495e-18
6909.00239 7.30687e-18
6910.50002 6.64659e-18
6911.99766 6.82251e-18
6913.49530 8.04985e-18
6915.00312 7.36475e-18
6916.50076 7.01409e-18
6917.99839 7.26215e-18
6919.49603 6.86374e-18
6921.00385 7.33023e-18
6922.50149 7.81886e-18
6923.99912 7.46717e-18
6925.49676 7.54994e-18
6927.00458 7.39036e-18
6928.50222 6.87152e-18
6929.99986 6.99286e-18
6931.49749 6.99551e-18
6932.99513 7.31371e-18
6934.50295 7.46049e-18
6936.00059 6.95810e-18
6937.49822 6.86676e-18
6938.99586 7.40961e-18
6940.50368 7.85185e-18
6942.00132 7.58944e-18
6943.49896 7.28926e-18
6944.99659 7.02927e-18
6946.50442 6.87293e-18
6948.00205 7.68702e-18
6949.49969 7.82975e-18
6950.99732 7.48037e-18
6952.49496 6.80558e-18
6954.00278 6.75062e-18
6955.50042 6.99558e-18
6956.99806 6.87489e-18
6958.49569 7.31204e-18
6960.00352 7.02651e-18
6961.50115 7.05860e-18
6962.99879 6.85759e-18
6964.49642 6.90418e-18
6966.00425 7.21430e-18
6967.50188 7.05856e-18
6968.99952 6.95953e-18
6970.49716 7.09961e-18
6972.00498 6.40923e-18
6973.50262 6.26676e-18
6975.00025 6.93458e-18
6976.49789 8.02858e-18
6977.99552 8.06236e-18
6979.50335 7.13767e-18
6981.00098 6.76680e-18
6982.49862 7.14672e-18
6983.99626 6.69357e-18
6985.50408 6.75451e-18
6987.00172 7.22301e-18
6988.49935 6.91359e-18
6989.99699 6.70833e-18
6991.50481 7.06906e-18
6993.00245 6.99134e-18
6994.50008 7.09300e-18
6995.99772 7.47967e-18
6997.49536 7.42756e-18
6999.00318 6.95169e-18
7000.50082 6.52274e-18
7001.99845 6.31244e-18
7003.49609 7.05557e-18
7005.00391 7.35310e-18
7006.50155 7.15880e-18
7007.99918 7.22854e-18
7009.49682 6.82601e-18
7011.00464 6.93312e-18
7012.50228 7.26656e-18
7013.99992 7.11678e-18
7015.49755 7.08508e-18
7016.99519 7.17742e-18
7018.50301 7.06841e-18
7020.00065 7.19106e-18
7021.49828 7.32165e-18
7022.99592 7.08445e-18
7024.50374 6.83359e-18
7026.00138 6.74074e-18
7027.49902 6.86306e-18
7028.99665 6.80561e-18
7030.50448 6.54462e-18
7032.00211 6.80429e-18
7033.49975 6.71471e-18
7034.99738 6.50731e-18
7036.49502 7.06376e-18
7038.00284 6.96003e-18
7039.50048 7.07350e-18
7040.99812 7.22327e-18
7042.49575 6.90809e-18
7044.00358 7.04321e-18
7045.50121 7.18688e-18
7046.99885 7.56995e-18
7048.49648 7.61499e-18
7050.00431 6.75472e-18
7051.50194 6.79044e-18
7052.99958 7.18119e-18
7054.49722 6.84292e-18
7055.99485 6.61429e-18
7057.50268 7.09256e-18
7059.00031 7.49422e-18
7060.49795 7.22610e-18
7061.99558 6.75332e-18
7063.50341 7.08899e-18
7065.00104 7.25280e-18
7066.49868 7.23775e-18
7067.99632 7.10983e-18
7069.50414 7.51238e-18
7071.00178 7.37605e-18
7072.49941 6.77543e-18
7073.99705 6.59231e-18
7075.50487 6.87741e-18
7077.00251 6.95649e-18
7078.50014 7.29531e-18
7079.99778 7.45570e-18
7081.49542 7.06808e-18
7083.00324 7.61930e-18
7084.50088 7.87984e-18
7085.99851 7.29451e-18
7087.49615 7.21555e-18
7089.00397 7.14227e-18
7090.50161 6.95735e-18
7091.99924 6.93560e-18
7093.49688 6.84132e-18
7095.00470 6.96729e-18
7096.50234 7.12531e-18
7097.99998 7.24179e-18
7099.49761 7.23727e-18
7100.99525 7.21717e-18
7102.50307 6.87599e-18
7104.00071 7.05422e-18
7105.49834 6.81760e-18
7106.99598 7.05316e-18
7108.50380 7.41973e-18
7110.00144 7.45480e-18
7111.49908 6.85304e-18
7112.99671 6.96373e-18
7114.50454 6.79410e-18
7116.00217 6.51887e-18
7117.49981 6.85691e-18
7118.99744 6.75567e-18
7120.49508 6.33405e-18
7122.00290 6.61244e-18
7123.50054 7.23099e-18
7124.99818 6.50520e-18
7126.49581 6.61734e-18
7128.00364 7.43600e-18
7129.50127 7.49030e-18
7130.99891 6.91435e-18
7132.49654 7.28462e-18
7134.00437 6.87605e-18
7135.50200 6.35208e-18
7136.99964 6.58115e-18
7138.49728 6.65585e-18
7139.99491 6.72497e-18
7141.50274 6.99080e-18
7143.00037 7.03587e-18
7144.49801 6.75655e-18
7145.99564 6.99274e-18
7147.50347 6.81295e-18
7149.00110 7.01564e-18
7150.49874 7.11471e-18
7151.99638 7.20173e-18
7153.50420 7.51705e-18
7155.00184 7.56260e-18
7156.49947 7.03488e-18
7157.99711 6.72742e-18
7159.50493 6.50196e-18
7161.00257 6.48305e-18
7162.50020 6.92205e-18
7163.99784 6.98351e-18
7165.49548 6.70335e-18
7167.00330 6.91726e-18
7168.50094 7.54459e-18
7169.99857 6.91809e-18
7171.49621 6.64755e-18
7173.00403 6.83534e-18
7174.50167 7.11606e-18
7175.99930 7.21552e-18
7177.49694 7.39436e-18
7179.00476 6.76210e-18
7180.50240 6.55367e-18
7182.00004 7.12844e-18
7183.49767 7.11931e-18
7184.99531 7.21227e-18
7186.50313 7.30523e-18
7188.00077 7.30504e-18
7189.49840 6.56758e-18
7190.99604 6.65232e-18
7192.50386 7.26409e-18
7194.00150 6.81222e-18
7195.49914 7.00502e-18
7196.99677 7.03384e-18
7198.50460 7.03846e-18
7200.00223 7.78411e-18
7201.49987 7.46643e-18
7202.99750 6.69785e-18
7204.49514 6.81479e-18
7206.00296 7.12813e-18
7207.50060 7.27652e-18
7208.99824 6.81122e-18
7210.49587 6.47464e-18
7212.00370 6.66221e-18
7213.50133 6.80928e-18
7214.99897 7.06119e-18
7216.49660 6.58586e-18
7218.00443 6.36680e-18
7219.50206 6.92866e-18
7220.99970 6.67674e-18
7222.49734 6.36217e-18
7223.99497 6.75534e-18
7225.50280 7.02109e-18
7227.00043 6.72835e-18
7228.49807 6.78114e-18
7229.99570 7.09014e-18
7231.50353 7.06159e-18
7233.00116 6.87589e-18
7234.49880 6.65213e-18
7235.99644 6.54278e-18
7237.50426 6.86434e-18
7239.00190 7.25688e-18
7240.49953 7.34563e-18
7241.99717 6.10529e-18
7243.49480 6.29423e-18
7245.00263 6.98773e-18
7246.50026 6.24771e-18
7247.99790 5.96341e-18
7249.49554 6.40429e-18
7251.00336 6.84717e-18
7252.50100 6.89624e-18
7253.99863 6.03789e-18
7255.49627 6.84567e-18
7257.00409 7.26247e-18
7258.50173 6.24785e-18
7259.99936 6.01679e-18
7261.49700 7.07668e-18
7263.00482 7.13775e-18
7264.50246 6.73408e-18
7266.00010 6.82107e-18
7267.49773 6.75223e-18
7268.99537 6.68798e-18
7270.50319 6.98886e-18
7272.00083 6.79346e-18
7273.49846 6.75413e-18
7274.99610 6.82948e-18
7276.50392 6.77498e-18
7278.00156 6.97515e-18
7279.49920 6.60104e-18
7280.99683 6.70621e-18
7282.50466 6.63366e-18
7284.00229 7.20795e-18
7285.49993 7.46501e-18
7286.99756 6.68194e-18
7288.49520 6.33902e-18
7290.00302 6.45238e-18
7291.50066 6.23119e-18
7292.99830 6.09063e-18
7294.49593 6.19792e-18
7296.00376 6.15748e-18
7297.50139 6.32614e-18
7298.99903 6.41778e-18
7300.49666 6.72434e-18
7302.00449 6.68308e-18
7303.50212 6.51202e-18
7304.99976 6.81293e-18
7306.49740 6.46658e-18
7307.99503 5.74988e-18
7309.50286 6.02444e-18
7311.00049 6.25063e-18
7312.49813 5.92534e-18
7313.99576 6.29748e-18
7315.50359 6.69453e-18
7317.00122 6.27745e-18
7318.49886 6.36537e-18
7319.99650 6.89686e-18
7321.50432 6.98566e-18
7323.00196 6.88583e-18
7324.49959 6.07086e-18
7325.99723 6.12828e-18
7327.49486 6.46850e-18
7329.00269 6.46574e-18
7330.50032 6.14591e-18
7331.99796 5.54782e-18
7333.49560 6.15584e-18
7335.00342 6.07885e-18
7336.50106 5.63656e-18
7337.99869 6.55010e-18
7339.49633 6.76803e-18
7341.00415 6.22357e-18
7342.50179 6.10478e-18
7343.99942 5.77460e-18
7345.49706 5.94197e-18
7347.00488 6.29846e-18
7348.50252 6.24944e-18
7350.00016 5.80938e-18
7351.49779 5.94696e-18
7352.99543 6.03556e-18
7354.50325 5.98707e-18
7356.00089 6.37723e-18
7357.49852 6.52593e-18
7358.99616 5.94445e-18
7360.50398 5.64721e-18
7362.00162 5.72834e-18
7363.49926 5.76614e-18
7364.99689 5.36428e-18
7366.50472 5.22919e-18
7368.00235 6.17612e-18
7369.49999 6.31283e-18
7370.99762 5.71813e-18
7372.49526 5.73595e-18
7374.00308 5.83548e-18
7375.50072 5.79143e-18
7376.99836 5.83539e-18
7378.49599 5.87666e-18
7380.00382 5.45016e-18
7381.50145 5.38964e-18
7382.99909 5.80751e-18
7384.49672 5.66335e-18
7386.00455 5.84122e-18
7387.50218 5.50171e-18
7388.99982 5.45045e-18
7390.49746 5.77255e-18
7391.99509 5.66211e-18
7393.50292 5.60709e-18
7395.00055 5.15740e-18
7396.49819 5.22947e-18
7397.99582 5.82834e-18
7399.50365 6.01959e-18
7401.00128 6.05573e-18
7402.49892 6.16169e-18
7403.99656 6.05346e-18
7405.50438 6.19218e-18
7407.00202 5.99785e-18
7408.49965 5.54968e-18
7409.99729 5.95178e-18
7411.49492 5.89982e-18
7413.00275 5.54007e-18
7414.50038 5.64856e-18
7415.99802 5.60107e-18
7417.49566 6.19168e-18
7419.00348 5.97441e-18
7420.50112 5.58534e-18
7421.99875 5.58626e-18
7423.49639 5.48818e-18
7425.00421 5.14443e-18
7426.50185 5.08563e-18
7427.99948 5.46521e-18
7429.49712 5.28627e-18
7431.00494 5.08853e-18
7432.50258 5.67306e-18
7434.00022 6.12653e-18
7435.49785 5.78908e-18
7436.99549 5.27017e-18
7438.50331 5.36348e-18
7440.00095 5.74128e-18
7441.49858 5.73019e-18
7442.99622 5.13790e-18
7444.50404 4.97871e-18
7446.00168 5.45777e-18
7447.49932 5.59291e-18
7448.99695 5.65712e-18
7450.50478 5.21617e-18
7452.00241 5.57453e-18
7453.50005 5.42767e-18
7454.99768 4.95083e-18
7456.49532 4.75367e-18
7458.00314 5.08210e-18
7459.50078 5.15460e-18
7460.99842 5.06144e-18
7462.49605 4.84578e-18
7464.00388 5.13069e-18
7465.50151 5.52672e-18
7466.99915 5.75074e-18
7468.49678 5.87964e-18
7470.00461 5.96759e-18
7471.50224 4.99966e-18
7472.99988 5.71014e-18
7474.49752 5.61426e-18
7475.99515 5.08815e-18
7477.50298 4.65674e-18
7479.00061 4.95981e-18
7480.49825 5.80458e-18
7481.99588 5.56316e-18
7483.50371 4.71209e-18
7485.00134 5.49843e-18
7486.49898 4.65416e-18
7487.99662 4.75963e-18
7489.50444 5.68888e-18
7491.00208 5.84107e-18
7492.49971 5.71044e-18
7493.99735 5.34251e-18
7495.49498 5.50775e-18
7497.00281 5.69716e-18
7498.50044 5.49647e-18
7499.99808 5.24975e-18
7501.49572 5.26818e-18
7503.00354 5.13343e-18
7504.50118 4.99684e-18
7505.99881 5.22512e-18
7507.49645 5.20259e-18
7509.00427 5.17689e-18
7510.50191 5.21575e-18
7511.99954 5.12778e-18
7513.49718 5.30296e-18
7514.99482 4.91940e-18
7516.50264 4.47685e-18
7518.00028 5.10196e-18
7519.49791 5.62031e-18
7520.99555 5.59328e-18
7522.50337 5.48447e-18
7524.00101 5.61330e-18
7525.49864 5.85759e-18
7526.99628 4.90858e-18
7528.50410 4.63951e-18
7530.00174 5.38195e-18
7531.49938 4.45316e-18
7532.99701 4.53262e-18
7534.50484 5.27573e-18
7536.00247 5.56029e-18
7537.50011 5.46021e-18
7538.99774 5.79238e-18
7540.49538 5.36782e-18
7542.00320 5.36782e-18
7544.00005 5.38039e-18
7545.99690 5.43820e-18
7548.00394 5.38379e-18
7550.00078 5.18648e-18
7551.99763 5.06459e-18
7554.00467 5.00387e-18
7556.00152 5.01456e-18
7557.99836 5.15440e-18
7559.99521 5.49997e-18
7562.00225 5.52888e-18
7563.99910 5.25539e-18
7565.99594 5.10639e-18
7568.00298 5.10508e-18
7569.99983 5.12684e-18
7571.99668 5.02743e-18
7574.00371 4.85503e-18
7576.00056 4.86436e-18
7577.99741 5.13982e-18
7580.00444 5.16865e-18
7582.00129 4.89396e-18
7583.99814 4.66380e-18
7585.99499 4.69046e-18
7588.00202 4.88702e-18
7589.99887 4.99245e-18
7591.99572 5.08345e-18
7594.00276 5.16222e-18
7595.99960 5.15060e-18
7597.99645 5.20690e-18
7600.00349 5.47142e-18
7602.00034 5.81102e-18
7603.99718 5.77054e-18
7606.00422 5.32887e-18
7608.00107 5.16047e-18
7609.99792 5.09427e-18
7612.00495 5.09578e-18
7614.00180 5.18184e-18
7615.99865 5.30051e-18
7617.99550 5.36971e-18
7620.00253 5.28285e-18
7621.99938 5.52936e-18
7623.99623 6.34050e-18
7626.00326 6.62678e-18
7628.00011 6.20136e-18
7629.99696 5.58384e-18
7632.00400 5.29474e-18
7634.00084 5.11634e-18
7635.99769 4.94840e-18
7638.00473 4.75644e-18
7640.00158 4.75456e-18
7641.99842 5.03067e-18
7643.99527 5.31495e-18
7646.00231 5.35418e-18
7647.99916 5.27210e-18
7649.99600 5.20221e-18
7652.00304 4.98132e-18
7653.99989 4.91604e-18
7655.99674 4.98415e-18
7658.00377 5.09138e-18
7660.00062 5.22344e-18
7661.99747 5.39170e-18
7664.00450 5.40668e-18
7666.00135 5.30783e-18
7667.99820 5.18472e-18
7669.99505 4.99434e-18
7672.00208 4.81602e-18
7673.99893 4.65152e-18
7675.99578 4.52318e-18
7678.00282 4.50191e-18
7679.99966 4.59911e-18
7681.99651 4.76936e-18
7684.00355 5.08271e-18
7686.00040 5.32910e-18
7687.99724 5.51761e-18
7690.00428 5.64494e-18
7692.00113 5.63182e-18
7693.99798 5.45645e-18
7695.99482 5.39932e-18
7698.00186 5.40922e-18
7699.99871 5.39678e-18
7701.99556 5.39317e-18
7704.00259 5.35415e-18
7705.99944 5.19836e-18
7707.99629 4.92662e-18
7710.00332 5.00079e-18
7712.00017 5.51604e-18
7713.99702 5.65146e-18
7716.00406 5.42926e-18
7718.00090 5.20627e-18
7719.99775 5.11404e-18
7722.00479 5.06132e-18
7724.00164 5.13964e-18
7725.99848 5.45315e-18
7727.99533 5.53385e-18
7730.00237 5.44241e-18
7731.99922 5.34582e-18
7733.99606 5.22598e-18
7736.00310 5.13237e-18
7737.99995 5.19850e-18
7739.99680 5.44917e-18
7742.00383 5.62000e-18
7744.00068 5.89877e-18
7745.99753 5.95973e-18
7748.00456 5.69233e-18
7750.00141 5.29359e-18
7751.99826 5.08405e-18
7753.99511 4.89732e-18
7756.00214 4.96568e-18
7757.99899 5.45635e-18
7759.99584 5.70463e-18
7762.00288 5.71865e-18
7763.99972 5.59526e-18
7765.99657 5.29421e-18
7768.00361 4.74103e-18
7770.00046 4.62779e-18
7771.99730 4.83650e-18
7774.00434 5.00146e-18
7776.00119 5.24702e-18
7777.99804 5.42489e-18
7780.00507 5.44848e-18
7782.00192 5.34657e-18
7783.99877 5.26963e-18
7785.99562 5.09126e-18
7788.00265 5.03137e-18
7789.99950 5.07922e-18
7791.99635 5.17262e-18
7794.00338 5.33943e-18
7796.00023 5.55052e-18
7797.99708 5.55549e-18
7800.00412 5.25118e-18
7802.00096 5.22367e-18
7803.99781 5.39531e-18
7806.00485 5.49924e-18
7808.00170 5.48863e-18
7809.99854 5.39201e-18
7811.99539 5.33340e-18
7814.00243 5.19736e-18
7815.99928 5.33158e-18
7817.99612 5.81321e-18
7820.00316 6.07908e-18
7822.00001 6.11034e-18
7823.99686 6.00394e-18
7826.00389 5.71228e-18
7828.00074 5.14109e-18
7829.99759 4.95438e-18
7832.00462 4.99417e-18
7834.00147 5.11637e-18
7835.99832 5.46350e-18
7837.99517 5.74600e-18
7840.00220 5.66421e-18
7841.99905 5.32284e-18
7843.99590 5.09621e-18
7846.00294 4.77036e-18
7847.99978 4.64894e-18
7849.99663 4.63527e-18
7852.00367 4.79371e-18
7854.00052 5.21740e-18
7855.99736 5.77478e-18
7858.00440 5.96615e-18
7860.00125 5.95426e-18
7861.99810 5.79412e-18
7863.99494 5.34077e-18
7866.00198 4.96723e-18
7867.99883 4.78620e-18
7869.99568 4.71154e-18
7872.00271 4.69509e-18
7873.99956 4.84727e-18
7875.99641 4.88522e-18
7878.00344 4.86166e-18
7880.00029 4.88600e-18
7881.99714 4.95292e-18
7884.00418 5.01406e-18
7886.00102 5.06609e-18
7887.99787 5.06519e-18
7889.99472 5.12516e-18
7892.00176 5.28305e-18
7893.99860 5.36000e-18
7895.99545 5.42407e-18
7898.00249 5.42405e-18
7899.99934 5.24915e-18
7901.99618 4.89612e-18
7904.00322 4.71647e-18
7906.00007 4.60221e-18
7907.99692 4.63417e-18
7910.00395 4.85350e-18
7912.00080 5.07541e-18
7913.99765 5.22581e-18
7916.00468 5.34631e-18
7918.00153 5.28993e-18
7919.99838 4.97734e-18
7921.99523 4.89268e-18
7924.00226 4.88893e-18
7925.99911 5.02696e-18
7927.99596 5.41021e-18
7930.00300 5.91165e-18
7931.99984 5.95754e-18
7933.99669 5.57616e-18
7936.00373 5.35785e-18
7938.00058 4.99181e-18
7939.99742 4.82498e-18
7942.00446 5.00185e-18
7944.00131 5.31198e-18
7945.99816 5.40251e-18
7947.99500 5.41741e-18
7950.00204 5.38634e-18
7951.99889 5.22629e-18
7953.99574 5.18575e-18
7956.00277 5.39962e-18
7957.99962 5.58900e-18
7959.99647 5.41167e-18
7962.00350 4.94399e-18
7964.00035 4.84223e-18
7965.99720 4.96751e-18
7968.00424 5.02460e-18
7970.00108 5.05694e-18
7971.99793 5.10438e-18
7973.99478 5.14539e-18
7976.00182 5.19208e-18
7977.99866 5.15992e-18
7979.99551 4.99613e-18
7982.00255 4.92652e-18
7983.99940 4.87549e-18
7985.99624 4.91359e-18
7988.00328 5.18438e-18
7990.00013 5.58654e-18
7991.99698 5.58634e-18
7994.00401 5.23260e-18
7996.00086 5.01046e-18
7997.99771 4.68033e-18
8000.00474 4.50986e-18
8002.00159 4.65479e-18
8003.99844 4.93493e-18
8005.99529 5.10270e-18
8008.00232 5.34325e-18
8009.99917 5.39783e-18
8011.99602 5.30628e-18
8014.00306 5.14655e-18
8015.99990 4.91195e-18
8017.99675 4.64044e-18
8020.00379 4.41901e-18
8022.00064 4.11105e-18
8023.99748 4.21025e-18
8026.00452 4.88072e-18
8028.00137 5.18372e-18
8029.99822 4.97682e-18
8031.99506 4.72124e-18
8034.00210 4.81478e-18
8035.99895 5.08902e-18
8037.99580 5.12230e-18
8040.00283 4.95516e-18
8041.99968 4.89635e-18
8043.99653 4.93643e-18
8046.00356 4.99556e-18
8048.00041 5.01881e-18
8049.99726 5.04201e-18
8052.00430 5.12244e-18
8054.00114 5.35931e-18
8055.99799 5.38732e-18
8057.99484 5.20790e-18
8060.00188 5.06202e-18
8061.99872 5.01344e-18
8063.99557 4.99606e-18
8066.00261 4.98840e-18
8067.99946 5.04235e-18
8069.99630 5.06301e-18
8072.00334 5.03634e-18
8074.00019 5.07500e-18
8075.99704 5.31482e-18
8078.00407 5.56943e-18
8080.00092 5.43451e-18
8081.99777 4.92137e-18
8084.00480 4.76757e-18
8086.00165 4.84310e-18
8087.99850 4.87341e-18
8089.99535 4.86045e-18
8092.00238 4.83874e-18
8093.99923 4.75906e-18
8095.99608 4.61669e-18
8098.00312 4.60823e-18
8099.99996 4.71119e-18
8101.99681 4.80518e-18
8104.00385 4.92741e-18
8106.00070 5.04304e-18
8107.99754 5.10213e-18
8110.00458 5.13170e-18
8112.00143 5.19565e-18
8113.99828 5.38042e-18
8115.99512 5.36250e-18
8118.00216 5.11404e-18
8119.99901 4.88857e-18
8121.99586 4.84188e-18
8124.00289 4.85659e-18
8125.99974 4.69110e-18
8127.99659 4.23689e-18
8130.00362 4.18462e-18
8132.00047 4.46022e-18
8133.99732 4.69846e-18
8136.00436 4.82548e-18
8138.00120 4.92613e-18
8139.99805 5.05700e-18
8141.99490 5.21210e-18
8144.00194 5.23833e-18
8145.99878 5.09598e-18
8147.99563 5.05546e-18
8150.00267 5.16888e-18
8151.99952 5.32692e-18
8153.99636 5.37932e-18
8156.00340 5.38856e-18
8158.00025 5.37103e-18
8159.99710 5.32886e-18
8162.00413 5.19040e-18
8164.00098 4.79587e-18
8165.99783 4.51555e-18
8167.99468 4.78244e-18
8170.00171 5.45632e-18
8171.99856 5.65540e-18
8173.99541 5.58790e-18
8176.00244 5.58094e-18
8177.99929 5.58788e-18
8179.99614 5.55849e-18
8182.00318 5.46169e-18
8184.00002 5.28880e-18
8185.99687 5.06315e-18
8188.00391 4.59075e-18
8190.00076 4.49978e-18
8191.99760 4.75248e-18
8194.00464 5.03186e-18
8196.00149 5.30027e-18
8197.99834 5.55303e-18
8199.99518 5.43047e-18
8202.00222 4.80622e-18
8203.99907 4.67752e-18
8205.99592 4.87911e-18
8208.00295 5.01073e-18
8209.99980 5.05769e-18
8211.99665 5.04601e-18
8214.00368 4.91950e-18
8216.00053 4.64624e-18
8217.99738 4.63195e-18
8220.00442 4.82745e-18
8222.00126 5.01817e-18
8223.99811 5.23910e-18
8225.99496 5.43959e-18
8228.00200 5.57637e-18
8229.99884 5.70295e-18
8231.99569 5.63924e-18
8234.00273 5.39621e-18
8235.99958 5.21630e-18
8237.99642 5.00417e-18
8240.00346 4.86411e-18
8242.00031 4.88551e-18
8243.99716 5.02917e-18
8246.00419 5.03394e-18
8248.00104 4.99525e-18
8249.99789 5.04875e-18
8252.00492 5.11666e-18
8254.00177 5.20069e-18
8255.99862 5.42132e-18
8257.99547 5.60635e-18
8260.00250 5.48773e-18
8261.99935 5.25216e-18
8263.99620 5.05830e-18
8266.00324 4.89255e-18
8268.00008 4.80478e-18
8269.99693 4.81086e-18
8272.00397 4.88982e-18
8274.00082 5.01970e-18
8275.99766 5.25775e-18
8278.00470 5.38517e-18
8280.00155 5.53674e-18
8281.99840 5.51577e-18
8283.99524 5.22580e-18
8286.00228 4.87761e-18
8287.99913 4.72048e-18
8289.99598 4.64312e-18
8292.00301 4.67267e-18
8293.99986 4.89335e-18
8295.99671 5.01888e-18
8298.00374 5.03218e-18
8300.00059 5.06023e-18
8301.99744 5.21584e-18
8304.00448 5.45797e-18
8306.00132 5.53611e-18
8307.99817 5.49510e-18
8309.99502 5.46368e-18
8312.00206 5.38707e-18
8313.99890 5.33433e-18
8315.99575 5.38283e-18
8318.00279 5.47412e-18
8319.99964 5.34107e-18
8321.99648 4.86840e-18
8324.00352 4.76186e-18
8326.00037 4.91240e-18
8327.99722 5.08273e-18
8330.00425 5.24057e-18
8332.00110 5.39585e-18
8333.99795 5.44545e-18
8335.99480 5.45406e-18
8338.00183 5.32058e-18
8339.99868 4.87634e-18
8341.99553 4.69345e-18
8344.00256 4.85932e-18
8345.99941 5.21080e-18
8347.99626 5.65304e-18
8350.00330 6.39277e-18
8352.00014 6.49311e-18
8353.99699 6.00398e-18
8356.00403 5.67159e-18
8358.00088 5.46926e-18
8359.99772 5.29618e-18
8362.00476 5.10186e-18
8364.00161 4.89331e-18
8365.99846 4.84241e-18
8367.99530 4.90337e-18
8370.00234 5.04061e-18
8371.99919 5.34502e-18
8373.99604 5.61167e-18
8376.00307 5.72593e-18
8377.99992 5.74887e-18
8379.99677 5.62140e-18
8382.00380 5.20395e-18
8384.00065 5.02418e-18
8385.99750 4.94559e-18
8388.00454 4.97648e-18
8390.00138 5.14430e-18
8391.99823 5.41779e-18
8393.99508 5.69137e-18
8396.00212 6.12743e-18
8397.99896 6.28058e-18
8399.99581 6.28607e-18
8402.00285 6.13847e-18
8403.99970 5.73846e-18
8405.99654 5.25735e-18
8408.00358 5.05671e-18
8410.00043 5.03824e-18
8411.99728 4.98295e-18
8414.00431 4.96599e-18
8416.00116 4.96682e-18
8417.99801 4.93572e-18
8419.99486 4.97803e-18
8422.00189 5.25487e-18
8423.99874 5.75964e-18
8425.99559 6.00306e-18
8428.00262 6.23686e-18
8429.99947 6.17430e-18
8431.99632 5.65110e-18
8434.00336 5.14996e-18
8436.00020 5.03839e-18
8437.99705 5.14138e-18
8440.00409 5.23713e-18
8442.00094 5.54256e-18
8443.99778 5.60052e-18
8446.00482 5.37082e-18
8448.00167 5.21776e-18
8449.99852 5.36472e-18
8451.99536 5.64567e-18
8454.00240 5.62364e-18
8455.99925 5.27636e-18
8457.99610 5.21116e-18
8460.00313 5.28129e-18
8461.99998 5.40728e-18
8463.99683 5.66199e-18
8466.00386 5.92091e-18
8468.00071 5.79500e-18
8469.99756 5.23922e-18
8472.00460 5.07216e-18
8474.00144 5.10840e-18
8475.99829 5.15894e-18
8477.99514 5.25487e-18
8480.00218 5.34210e-18
8481.99902 5.28758e-18
8483.99587 5.10125e-18
8486.00291 5.06154e-18
8487.99976 5.10619e-18
8489.99660 5.15391e-18
8492.00364 5.18264e-18
8494.00049 5.26209e-18
8495.99734 5.48777e-18
8498.00437 5.84560e-18
8500.00122 5.94031e-18
8501.99807 5.83751e-18
8504.00510 5.74946e-18
8506.00195 5.59813e-18
8507.99880 5.47396e-18
8509.99565 5.46360e-18
8512.00268 5.51374e-18
8513.99953 5.39881e-18
8515.99638 5.02687e-18
8518.00342 4.96664e-18
8520.00026 5.19440e-18
8521.99711 5.37374e-18
8524.00415 5.39784e-18
8526.00100 5.35183e-18
8527.99784 5.29185e-18
8529.99469 5.22003e-18
8532.00173 5.04905e-18
8533.99858 4.60303e-18
8535.99542 4.45427e-18
8538.00246 4.81211e-18
8539.99931 5.32805e-18
8541.99616 5.49146e-18
8544.00319 5.44700e-18
8546.00004 5.50974e-18
8547.99689 5.60404e-18
8550.00392 5.66055e-18
8552.00077 5.68924e-18
8553.99762 5.68012e-18
8556.00466 5.60964e-18
8558.00150 5.48152e-18
8559.99835 5.35482e-18
8561.99520 5.07681e-18
8564.00224 5.06447e-18
8565.99908 5.42082e-18
8567.99593 5.74021e-18
8570.00297 5.75813e-18
8571.99982 5.60912e-18
8573.99666 5.35501e-18
8576.00370 4.74584e-18
8578.00055 4.52745e-18
8579.99740 4.59603e-18
8582.00443 4.76357e-18
8584.00128 5.00828e-18
8585.99813 5.32314e-18
8587.99498 5.47060e-18
8590.00201 5.47829e-18
8591.99886 5.54921e-18
8593.99571 5.67227e-18
8596.00274 5.71197e-18
8597.99959 5.62048e-18
8599.99644 5.45997e-18
8602.00348 5.32006e-18
8604.00032 5.14130e-18
8605.99717 5.03117e-18
8608.00421 4.96463e-18
8610.00106 4.91802e-18
8611.99790 4.88554e-18
8613.99475 4.88047e-18
8616.00179 4.92925e-18
8617.99864 5.04890e-18
8619.99548 5.05174e-18
8622.00252 4.92767e-18
8623.99937 4.89304e-18
8625.99622 4.93487e-18
8628.00325 5.01946e-18
8630.00010 5.12259e-18
8631.99695 5.25036e-18
8634.00398 5.49369e-18
8636.00083 5.99707e-18
8637.99768 6.19886e-18
8640.00472 6.22564e-18
8642.00156 6.05259e-18
8643.99841 5.53624e-18
8645.99526 4.79227e-18
8648.00230 4.59840e-18
8649.99914 4.78891e-18
8651.99599 4.99187e-18
8654.00303 5.49716e-18
8655.99988 5.79980e-18
8657.99672 5.73035e-18
8660.00376 5.44795e-18
8662.00061 5.11621e-18
8663.99746 4.43023e-18
8665.99430 4.34406e-18
8668.00134 4.79132e-18
8669.99819 5.13437e-18
8671.99504 5.35665e-18
8674.00207 5.47952e-18
8675.99892 5.37399e-18
8677.99577 5.03394e-18
8680.00280 4.78125e-18
8681.99965 4.40725e-18
8683.99650 4.23366e-18
8686.00354 4.24719e-18
8688.00038 4.41256e-18
8689.99723 4.78044e-18
8692.00427 5.39407e-18
8694.00112 5.59042e-18
8695.99796 5.48224e-18
8698.00500 5.40533e-18
8700.00185 5.28475e-18
8701.99870 5.15832e-18
8703.99554 5.06807e-18
8706.00258 4.99188e-18
8707.99943 4.86859e-18
8709.99628 4.60517e-18
8712.00331 4.57714e-18
8714.00016 4.75688e-18
8715.99701 4.97251e-18
8718.00404 5.22296e-18
8720.00089 5.47822e-18
8721.99774 5.44875e-18
8724.00478 5.11427e-18
8726.00162 4.92827e-18
8727.99847 4.67704e-18
8729.99532 4.57945e-18
8732.00236 4.73997e-18
8733.99920 5.00031e-18
8735.99605 5.09875e-18
8738.00309 5.15954e-18
8739.99994 5.08790e-18
8741.99678 4.79418e-18
8744.00382 4.62956e-18
8746.00067 4.55226e-18
8747.99752 4.61009e-18
8750.00455 4.95947e-18
8752.00140 5.62640e-18
8753.99825 5.92066e-18
8755.99510 6.00828e-18
8758.00213 6.06862e-18
8759.99898 6.02331e-18
8761.99583 5.99439e-18
8764.00286 6.15065e-18
8765.99971 6.43505e-18
8767.99656 6.25196e-18
8770.00360 5.56227e-18
8772.00044 5.14750e-18
8773.99729 4.80778e-18
8776.00433 4.61356e-18
8778.00118 4.63318e-18
8779.99802 4.81605e-18
8782.00506 5.00643e-18
8784.00191 5.44992e-18
8785.99876 5.50919e-18
8787.99560 5.17450e-18
8790.00264 4.96807e-18
8791.99949 5.07158e-18
8793.99634 5.28546e-18
8796.00337 5.32848e-18
8798.00022 5.33433e-18
8799.99707 5.19784e-18
8802.00410 4.83654e-18
8804.00095 4.58112e-18
8805.99780 4.42283e-18
8807.99465 4.37185e-18
8810.00168 4.53979e-18
8811.99853 4.97145e-18
8813.99538 5.12944e-18
8816.00242 5.03682e-18
8817.99926 5.14316e-18
8819.99611 5.47251e-18
8822.00315 5.86455e-18
8824.00000 6.26137e-18
8825.99684 6.74164e-18
8828.00388 6.69084e-18
8830.00073 6.07275e-18
8831.99758 5.65319e-18
8834.00461 5.22041e-18
8836.00146 4.93672e-18
8837.99831 4.95125e-18
8840.00534 5.17787e-18
8842.00219 5.34428e-18
8843.99904 5.75286e-18
8845.99589 5.71996e-18
8848.00292 5.21538e-18
8849.99977 4.78974e-18
8851.99662 4.63715e-18
8854.00366 4.60095e-18
8856.00050 4.52842e-18
8857.99735 4.34754e-18
8860.00439 4.53687e-18
8862.00124 5.20445e-18
8863.99808 5.63988e-18
8865.99493 5.68119e-18
8868.00197 5.57298e-18
8869.99882 5.57776e-18
8871.99566 5.56203e-18
8874.00270 5.66390e-18
8875.99955 5.95720e-18
8877.99640 6.09368e-18
8880.00343 6.10339e-18
8882.00028 5.97388e-18
8883.99713 5.59529e-18
8886.00416 4.92906e-18
8888.00101 4.69479e-18
8889.99786 4.62141e-18
8892.00490 4.81998e-18
8894.00174 5.57371e-18
8895.99859 6.17331e-18
8897.99544 6.05623e-18
8900.00248 5.49203e-18
8901.99932 5.09069e-18
8903.99617 4.49435e-18
8906.00321 4.18531e-18
8908.00006 4.03535e-18
8909.99690 4.08595e-18
8912.00394 4.46529e-18
8914.00079 5.04418e-18
8915.99764 5.22065e-18
8918.00467 5.21943e-18
8920.00152 5.02127e-18
8921.99837 4.36270e-18
8923.99522 3.98444e-18
8926.00225 4.11541e-18
8927.99910 4.48233e-18
8929.99595 4.74050e-18
8932.00298 5.11466e-18
8933.99983 5.21344e-18
8935.99668 4.99913e-18
8938.00372 4.93237e-18
8940.00056 5.10671e-18
8941.99741 5.31131e-18
8944.00445 5.31291e-18
8946.00130 5.18045e-18
8947.99814 5.10677e-18
8949.99499 5.08324e-18
8952.00203 4.94681e-18
8953.99888 4.66875e-18
8955.99572 4.35925e-18
8958.00276 4.05596e-18
8959.99961 3.71002e-18
8961.99646 3.77913e-18
8964.00349 4.40907e-18
8966.00034 4.64105e-18
8967.99719 4.55860e-18
8970.00422 4.43813e-18
8972.00107 4.39030e-18
8973.99792 4.35472e-18
8976.00496 4.39686e-18
8978.00180 4.48636e-18
8979.99865 4.64685e-18
8981.99550 4.92120e-18
8984.00254 5.17739e-18
8985.99938 5.41995e-18
8987.99623 5.61957e-18
8990.00327 5.58942e-18
8992.00012 5.32791e-18
8993.99696 5.11446e-18
8996.00400 4.71608e-18
8998.00085 4.55565e-18
8999.99770 4.74620e-18
9001.99454 5.09169e-18
9004.00158 5.36010e-18
9005.99843 5.68513e-18
9007.99528 5.86067e-18
9010.00231 5.87560e-18
9011.99916 5.95817e-18
9013.99601 6.19272e-18
9016.00304 6.35578e-18
9017.99989 6.18606e-18
9019.99674 5.74173e-18
9022.00378 5.59072e-18
9024.00062 5.65217e-18
9025.99747 5.59168e-18
9028.00451 5.45592e-18
9030.00136 5.27059e-18
9031.99820 4.97986e-18
9033.99505 4.60885e-18
9036.00209 4.62674e-18
9037.99894 5.17358e-18
9039.99578 5.25725e-18
9042.00282 5.01178e-18
9043.99967 4.71924e-18
9045.99652 4.41646e-18
9048.00355 4.10895e-18
9050.00040 4.09585e-18
9051.99725 4.40245e-18
9054.00428 4.55321e-18
9056.00113 4.63557e-18
9057.99798 4.80010e-18
9059.99483 5.15225e-18
9062.00186 5.53029e-18
9063.99871 5.62141e-18
9065.99556 5.50375e-18
9068.00260 5.38472e-18
9069.99944 5.05308e-18
9071.99629 4.94086e-18
9074.00333 5.18460e-18
9076.00018 5.46676e-18
9077.99702 5.41806e-18
9080.00406 5.15881e-18
9082.00091 4.96677e-18
9083.99776 4.65778e-18
9085.99460 4.52264e-18
9088.00164 4.63816e-18
9089.99849 4.73520e-18
9091.99534 4.55191e-18
9094.00237 4.18617e-18
9095.99922 4.24154e-18
9097.99607 4.67190e-18
9100.00310 4.96579e-18
9101.99995 5.35920e-18
9103.99680 5.53487e-18
9106.00384 5.24535e-18
9108.00068 4.66828e-18
9109.99753 4.38102e-18
9112.00457 4.10499e-18
9114.00142 4.08028e-18
9115.99826 4.37548e-18
9117.99511 4.62122e-18
9120.00215 4.71195e-18
9121.99900 4.74786e-18
9123.99584 4.81657e-18
9126.00288 4.90013e-18
9127.99973 4.93556e-18
9129.99658 4.89422e-18
9132.00361 4.91373e-18
9134.00046 5.08449e-18
9135.99731 5.23408e-18
9138.00434 5.08949e-18
9140.00119 4.68309e-18
9141.99804 4.47719e-18
9143.99489 4.21948e-18
9146.00192 4.22899e-18
9147.99877 4.62970e-18
9149.99562 5.07771e-18
9152.00266 5.26772e-18
9153.99950 5.34234e-18
9155.99635 5.28637e-18
9158.00339 4.99954e-18
9160.00024 4.81522e-18
9161.99708 4.66402e-18
9164.00412 4.56468e-18
9166.00097 4.53428e-18
9167.99782 4.56376e-18
9170.00485 4.67432e-18
9172.00170 4.91436e-18
9173.99855 5.09968e-18
9175.99540 5.35257e-18
9178.00243 5.47481e-18
9179.99928 5.35621e-18
9181.99613 5.10095e-18
9184.00316 4.93823e-18
9186.00001 4.72017e-18
9187.99686 4.67547e-18
9190.00390 4.87545e-18
9192.00074 4.92710e-18
9193.99759 4.69458e-18
9196.00463 4.38722e-18
9198.00148 4.31331e-18
9199.99832 4.39111e-18
9201.99517 4.41825e-18
9204.00221 4.43667e-18
9205.99906 4.50937e-18
9207.99590 4.64840e-18
9210.00294 4.82033e-18
9211.99979 5.02631e-18
9213.99664 5.32304e-18
9216.00367 5.25988e-18
9218.00052 4.66422e-18
9219.99737 4.52949e-18
9222.00440 4.92752e-18
9224.00125 5.33498e-18
9225.99810 5.37025e-18
9227.99495 5.21108e-18
9230.00198 5.28331e-18
9231.99883 5.53472e-18
9233.99568 5.66164e-18
9236.00272 5.76637e-18
9237.99956 5.76438e-18
9239.99641 5.55295e-18
9242.00345 5.22280e-18
9244.00030 5.14475e-18
9245.99714 5.33601e-18
9248.00418 5.28472e-18
9250.00103 5.09197e-18
9251.99788 4.89081e-18
9254.00491 4.67577e-18
9256.00176 4.47345e-18
9257.99861 4.42469e-18
9259.99546 4.57239e-18
9262.00249 4.50255e-18
9263.99934 4.22730e-18
9265.99619 4.08023e-18
9268.00322 4.11195e-18
9270.00007 4.20910e-18
9271.99692 4.27396e-18
9274.00396 4.37231e-18
9276.00080 4.35202e-18
9277.99765 4.12626e-18
9279.99450 4.10856e-18
9282.00154 4.34156e-18
9283.99838 4.62077e-18
9285.99523 4.78076e-18
9288.00227 4.89027e-18
9289.99912 5.07900e-18
9291.99596 5.50748e-18
9294.00300 5.52502e-18
9295.99985 4.84652e-18
9297.99670 4.49659e-18
9300.00373 5.21387e-18
9302.00058 6.54370e-18
9303.99743 7.04092e-18
9306.00446 7.63721e-18
9308.00131 6.93523e-18
9309.99816 4.18672e-18
9312.00520 2.38420e-18
9314.00204 2.78274e-18
9315.99889 4.18153e-18
9317.99574 4.58774e-18
9320.00278 4.52026e-18
9321.99962 4.85909e-18
9323.99647 5.40607e-18
9326.00351 5.96980e-18
9328.00036 6.70595e-18
9329.99720 7.32492e-18
9332.00424 7.19507e-18
9334.00109 6.35552e-18
9335.99794 5.93141e-18
9337.99478 5.47318e-18
9340.00182 5.26719e-18
9341.99867 5.50675e-18
9343.99552 5.73091e-18
9346.00255 5.38907e-18
9347.99940 4.62153e-18
9349.99625 4.38763e-18
9352.00328 4.46767e-18
9354.00013 4.56160e-18
9355.99698 4.70734e-18
9358.00402 4.93362e-18
9360.00086 5.28967e-18
9361.99771 5.75496e-18
9364.00475 6.00066e-18
9366.00160 6.12090e-18
9367.99844 6.17950e-18
9369.99529 6.00933e-18
9372.00233 6.00399e-18
9373.99918 6.46180e-18
9375.99602 7.11317e-18
9378.00306 7.13358e-18
9379.99991 6.74255e-18
9381.99676 6.22631e-18
9384.00379 5.07304e-18
9386.00064 4.46547e-18
9387.99749 4.89596e-18
9390.00452 5.68211e-18
9392.00137 5.67906e-18
9393.99822 5.16523e-18
9395.99507 4.90787e-18
9398.00210 4.57071e-18
9399.99895 4.44428e-18
9401.99580 4.68936e-18
9404.00284 4.95956e-18
9405.99968 4.79753e-18
9407.99653 4.31735e-18
9410.00357 4.07888e-18
9412.00042 3.89532e-18
9413.99726 3.78566e-18
9416.00430 3.71495e-18
9418.00115 3.75726e-18
9419.99800 4.02356e-18
9421.99484 4.48662e-18
9424.00188 4.67780e-18
9425.99873 4.65385e-18
9427.99558 4.74192e-18
9430.00261 4.79506e-18
9431.99946 5.00877e-18
9433.99631 5.46701e-18
9436.00334 6.12550e-18
9438.00019 7.07893e-18
9439.99704 9.17336e-18
9442.00408 9.46520e-18
9444.00092 8.22399e-18
9445.99777 6.92988e-18
9448.00481 5.77258e-18
9450.00166 4.71291e-18
9451.99850 4.53085e-18
9453.99535 5.44409e-18
9456.00239 5.40489e-18
9457.99924 4.83421e-18
9459.99608 4.30906e-18
9462.00312 3.82025e-18
9463.99997 3.38814e-18
9465.99682 3.15312e-18
9468.00385 2.97288e-18
9470.00070 3.31583e-18
9471.99755 4.39031e-18
9474.00458 5.12024e-18
9476.00143 5.65244e-18
9477.99828 5.89225e-18
9479.99513 5.54431e-18
9482.00216 4.62900e-18
9483.99901 4.34711e-18
9485.99586 4.50898e-18
9488.00290 4.45651e-18
9489.99974 4.21593e-18
9491.99659 4.01115e-18
9494.00363 3.92230e-18
9496.00048 3.90738e-18
9497.99732 4.21924e-18
9500.00436 4.95238e-18
9502.00121 5.50534e-18
9503.99806 6.22633e-18
9505.99490 6.59848e-18
9508.00194 6.36651e-18
9509.99879 5.75030e-18
9511.99564 5.15130e-18
9514.00267 4.13064e-18
9515.99952 3.73284e-18
9517.99637 3.74704e-18
9520.00340 3.88951e-18
9522.00025 4.15933e-18
9523.99710 4.53481e-18
9526.00414 4.90931e-18
9528.00098 5.51319e-18
9529.99783 5.45594e-18
9532.00487 4.61229e-18
9534.00172 4.17213e-18
9535.99856 4.35286e-18
9537.99541 4.56606e-18
9540.00245 4.09404e-18
9541.99930 2.97448e-18
9543.99614 3.29459e-18
9546.00318 5.08951e-18
9548.00003 6.14613e-18
9549.99688 6.79451e-18
9552.00391 7.02469e-18
9554.00076 6.64990e-18
9555.99761 5.73799e-18
9557.99446 4.92345e-18
9560.00149 3.32412e-18
9561.99834 3.09390e-18
9563.99519 4.30621e-18
9566.00222 5.54861e-18
9567.99907 6.34816e-18
9569.99592 6.94920e-18
9572.00296 6.72295e-18
9573.99980 5.39873e-18
9575.99665 4.65293e-18
9578.00369 3.99029e-18
9580.00054 3.44267e-18
9581.99738 2.92810e-18
9584.00442 2.57887e-18
9586.00127 2.79791e-18
9587.99812 3.71938e-18
9590.00515 4.13545e-18
9592.00200 4.36749e-18
9593.99885 4.55510e-18
9595.99570 4.68570e-18
9598.00273 4.77946e-18
9599.99958 4.89419e-18
9601.99643 5.00642e-18
9604.00346 5.11127e-18
9606.00031 5.34415e-18
9607.99716 5.29794e-18
9610.00420 4.96937e-18
9612.00104 4.46696e-18
9613.99789 3.70561e-18
9615.99474 2.59663e-18
9618.00178 2.75380e-18
9619.99862 4.58799e-18
9621.99547 5.07612e-18
9624.00251 4.39528e-18
9625.99936 3.54940e-18
9627.99620 2.88700e-18
9630.00324 2.23463e-18
9632.00009 2.46020e-18
9633.99694 3.82416e-18
9636.00397 4.44979e-18
9638.00082 4.88150e-18
9639.99767 4.98363e-18
9642.00470 4.50722e-18
9644.00155 3.75837e-18
9645.99840 3.71675e-18
9647.99525 4.26447e-18
9650.00228 4.46740e-18
9651.99913 4.69048e-18
9653.99598 4.69687e-18
9656.00302 4.38164e-18
9657.99986 3.92030e-18
9659.99671 3.55376e-18
9662.00375 3.06331e-18
9664.00060 3.06089e-18
9665.99744 3.61769e-18
9668.00448 3.94915e-18
9670.00133 4.05998e-18
9671.99818 4.06273e-18
9673.99502 3.98635e-18
9676.00206 3.80148e-18
9677.99891 3.64839e-18
9679.99576 3.28892e-18
9682.00279 3.32338e-18
9683.99964 3.97269e-18
9685.99649 4.48390e-18
9688.00352 4.26739e-18
9690.00037 3.60678e-18
9691.99722 3.33263e-18
9694.00426 3.16982e-18
9696.00110 3.08244e-18
9697.99795 3.11140e-18
9699.99480 3.17294e-18
9702.00184 3.21492e-18
9703.99868 3.27974e-18
9705.99553 3.47554e-18
9708.00257 3.87891e-18
9709.99942 4.09277e-18
9711.99626 4.22114e-18
9714.00330 4.30140e-18
9716.00015 4.29948e-18
9717.99700 4.27523e-18
9720.00403 4.40272e-18
9722.00088 4.72371e-18
9723.99773 4.75630e-18
9726.00476 4.68003e-18
9728.00161 4.40441e-18
9729.99846 3.76078e-18
9731.99531 3.09085e-18
9734.00234 2.85099e-18
9735.99919 2.83789e-18
9737.99604 3.10733e-18
9740.00308 3.85889e-18
9741.99992 4.42554e-18
9743.99677 4.95519e-18
9746.00381 5.30444e-18
9748.00066 5.27671e-18
9749.99750 4.94512e-18
9751.99435 4.64791e-18
9754.00139 4.12892e-18
9755.99824 3.84334e-18
9757.99508 3.64663e-18
9760.00212 3.66516e-18
9761.99897 4.12098e-18
9763.99582 4.84700e-18
9766.00285 4.86612e-18
9767.99970 4.27099e-18
9769.99655 3.91281e-18
9772.00358 3.32100e-18
9774.00043 3.13396e-18
9775.99728 3.77542e-18
9778.00432 4.74663e-18
9780.00116 4.86381e-18
9781.99801 4.26777e-18
9784.00505 4.16420e-18
9786.00190 4.42413e-18
9787.99874 4.37220e-18
9789.99559 3.78947e-18
9792.00263 3.06927e-18
9793.99948 2.69720e-18
9795.99632 2.35097e-18
9798.00336 2.69506e-18
9800.00021 4.21420e-18
9801.99706 4.81928e-18
9804.00409 4.32386e-18
9806.00094 3.53863e-18
9807.99779 3.04364e-18
9809.99464 2.50248e-18
9812.00167 2.62637e-18
9813.99852 3.75748e-18
9815.99537 4.07860e-18
9818.00240 3.68227e-18
9819.99925 3.11270e-18
9821.99610 2.51687e-18
9824.00314 1.81364e-18
9825.99998 1.99835e-18
9827.99683 3.35153e-18
9830.00387 3.81608e-18
9832.00072 3.74966e-18
9833.99756 3.54715e-18
9836.00460 3.22384e-18
9838.00145 2.82805e-18
9839.99830 2.92107e-18
9841.99514 3.53574e-18
9844.00218 3.82036e-18
9845.99903 4.01228e-18
9847.99588 4.15774e-18
9850.00291 4.29158e-18
9851.99976 4.35900e-18
9853.99661 4.23829e-18
9856.00364 3.85945e-18
9858.00049 3.77103e-18
9859.99734 3.89713e-18
9862.00438 3.95967e-18
9864.00122 4.01510e-18
9865.99807 3.97686e-18
9868.00511 3.66224e-18
9870.00196 3.08234e-18
9871.99880 2.73267e-18
9873.99565 2.28357e-18
9876.00269 2.25736e-18
9877.99954 2.86060e-18
9879.99638 3.44401e-18
9882.00342 3.48774e-18
9884.00027 3.22813e-18
9885.99712 3.09828e-18
9888.00415 2.79721e-18
9890.00100 2.82075e-18
9891.99785 3.41564e-18
9893.99470 3.68189e-18
9896.00173 2.98576e-18
9897.99858 1.79215e-18
9899.99543 1.55060e-18
9902.00246 2.00052e-18
9903.99931 2.26618e-18
9905.99616 2.72441e-18
9908.00320 3.02823e-18
9910.00004 3.03266e-18
9911.99689 2.90462e-18
9914.00393 2.92101e-18
9916.00078 2.91254e-18
9917.99762 3.13702e-18
9920.00466 3.80840e-18
9922.00151 4.08280e-18
9923.99836 3.77608e-18
9925.99520 3.25450e-18
9928.00224 2.87128e-18
9929.99909 2.31710e-18
9931.99594 2.53670e-18
9934.00297 3.65863e-18
9935.99982 4.38101e-18
9937.99667 4.88135e-18
9940.00370 5.07258e-18
9942.00055 4.59009e-18
9943.99740 3.43785e-18
9946.00444 3.54940e-18
9948.00128 5.05659e-18
9949.99813 5.49694e-18
9951.99498 4.98470e-18
9954.00202 4.37728e-18
9955.99886 4.11301e-18
9957.99571 3.95099e-18
9960.00275 3.75570e-18
9961.99960 3.23090e-18
9963.99644 3.51306e-18
9966.00348 5.24760e-18
9968.00033 5.94909e-18
9969.99718 4.25908e-18
9972.00421 1.50361e-18
9974.00106 6.49438e-19
9975.99791 9.78634e-19
9978.00494 1.05439e-18
9980.00179 1.37914e-18
9981.99864 1.75266e-18
9983.99549 2.17540e-18
9986.00252 2.63400e-18
9987.99937 3.05011e-18
9989.99622 3.49415e-18
9992.00326 3.77456e-18
9994.00010 3.96027e-18
9995.99695 4.02449e-18
9998.00399 3.88662e-18
10000.00084 3.71938e-18
