# wavelength flux
3199.99986 6.73464e-18
3201.99671 4.23192e-18
3204.00374 4.48127e-18
3206.00059 3.68634e-18
3207.99744 4.76081e-18
3210.00448 4.51896e-18
3212.00132 4.54883e-18
3213.99817 2.53731e-18
3215.99502 4.98849e-18
3218.00206 5.65398e-18
3219.99890 5.18081e-18
3221.99575 3.97207e-18
3224.00279 5.98506e-18
3225.99964 6.45060e-18
3227.99648 3.60839e-18
3230.00352 4.75634e-18
3232.00037 2.79378e-18
3233.99722 3.35238e-18
3236.00425 2.66153e-18
3238.00110 3.03650e-18
3239.99795 4.88188e-18
3242.00498 4.07999e-18
3244.00183 5.00155e-18
3245.99868 3.08825e-18
3247.99553 4.17887e-18
3250.00256 5.23042e-18
3251.99941 4.11677e-18
3253.99626 3.24910e-18
3256.00330 3.57916e-18
3258.00014 3.87077e-18
3259.99699 4.77421e-18
3262.00403 2.76757e-18
3264.00088 4.26340e-18
3265.99772 3.29082e-18
3268.00476 4.80444e-18
3270.00161 4.66210e-18
3271.99846 3.35381e-18
3273.99530 3.26255e-18
3276.00234 3.80016e-18
3277.99919 4.80246e-18
3279.99604 3.71057e-18
3282.00307 3.87515e-18
3283.99992 3.02659e-18
3285.99677 4.08188e-18
3288.00380 3.74583e-18
3290.00065 4.23084e-18
3291.99750 2.76358e-18
3294.00454 3.40547e-18
3296.00138 2.33804e-18
3297.99823 3.34343e-18
3299.99508 3.26299e-18
3302.00212 4.05939e-18
3303.99896 4.48852e-18
3305.99581 4.24362e-18
3308.00285 4.70504e-18
3309.99970 4.35026e-18
3311.99654 3.98806e-18
3314.00358 4.79017e-18
3316.00043 3.81172e-18
3317.99728 2.94469e-18
3320.00431 4.08105e-18
3322.00116 4.11323e-18
3323.99801 4.18724e-18
3325.99486 3.49743e-18
3328.00189 4.58860e-18
3329.99874 4.36644e-18
3331.99559 5.00304e-18
3334.00262 3.67330e-18
3335.99947 4.48837e-18
3337.99632 4.16332e-18
3340.00336 4.19638e-18
3342.00020 4.06684e-18
3343.99705 3.83305e-18
3346.00409 5.61270e-18
3348.00094 4.24412e-18
3349.99778 6.17201e-18
3352.00482 5.19378e-18
3354.00167 4.29973e-18
3355.99852 4.51853e-18
3357.99536 4.00929e-18
3360.00240 3.73393e-18
3361.99925 3.54012e-18
3363.99610 3.53496e-18
3366.00313 4.42052e-18
3367.99998 4.21287e-18
3369.99683 3.87856e-18
3372.00386 3.49765e-18
3374.00071 4.41126e-18
3375.99756 3.50736e-18
3378.00460 3.77583e-18
3380.00144 2.86419e-18
3381.99829 4.62170e-18
3383.99514 4.80431e-18
3386.00218 4.17679e-18
3387.99902 3.74791e-18
3389.99587 3.02198e-18
3392.00291 4.57823e-18
3393.99976 3.73353e-18
3395.99660 4.36019e-18
3398.00364 3.93449e-18
3400.00049 4.10987e-18
3401.99734 3.55388e-18
3404.00437 3.67891e-18
3406.00122 4.00159e-18
3407.99807 4.39262e-18
3409.99492 3.82858e-18
3412.00195 4.52606e-18
3413.99880 3.88189e-18
3415.99565 3.93853e-18
3418.00268 3.94944e-18
3419.99953 4.09029e-18
3421.99638 4.78612e-18
3424.00342 4.31785e-18
3426.00026 4.04236e-18
3427.99711 3.27266e-18
3430.00415 4.40685e-18
3432.00100 4.62140e-18
3433.99784 4.88344e-18
3436.00488 4.38523e-18
3438.00173 4.43167e-18
3439.99858 4.54495e-18
3441.99542 4.67474e-18
3444.00246 4.41119e-18
3445.99931 4.43734e-18
3447.99616 4.02306e-18
3450.00319 4.16765e-18
3452.00004 4.80343e-18
3453.99689 4.52159e-18
3456.00392 4.20245e-18
3458.00077 4.05752e-18
3459.99762 4.21845e-18
3462.00466 4.41758e-18
3464.00150 4.50675e-18
3465.99835 5.12079e-18
3467.99520 4.54926e-18
3470.00224 4.40734e-18
3471.99908 4.72482e-18
3473.99593 4.14305e-18
3476.00297 4.06178e-18
3477.99982 4.46541e-18
3479.99666 4.57448e-18
3482.00370 4.35164e-18
3484.00055 4.59784e-18
3485.99740 4.52243e-18
3488.00443 4.88369e-18
3490.00128 4.91815e-18
3491.99813 5.26197e-18
3493.99498 5.32070e-18
3496.00201 4.83930e-18
3497.99886 4.78776e-18
3499.99571 4.38225e-18
3502.00274 4.39167e-18
3503.99959 5.03920e-18
3505.99644 4.96673e-18
3508.00348 4.88050e-18
3510.00032 3.86095e-18
3511.99717 5.24241e-18
3514.00421 4.14948e-18
3516.00106 4.81248e-18
3517.99790 5.46496e-18
3520.00494 4.67463e-18
3522.00179 5.02261e-18
3523.99864 5.09727e-18
3525.99548 5.86960e-18
3528.00252 5.24995e-18
3529.99937 5.09272e-18
3531.99622 5.31390e-18
3534.00325 5.24194e-18
3536.00010 5.05596e-18
3537.99695 4.96482e-18
3540.00398 5.43507e-18
3542.00083 5.13622e-18
3543.99768 5.05572e-18
3546.00472 5.25839e-18
3548.00156 4.63438e-18
3549.99841 5.87237e-18
3551.99526 5.84929e-18
3554.00230 5.28996e-18
3555.99914 5.05135e-18
3557.99599 4.87103e-18
3560.00303 5.26548e-18
3561.99988 5.32703e-18
3563.99672 5.72154e-18
3566.00376 5.28410e-18
3568.00061 4.93236e-18
3569.99746 4.96954e-18
3572.00449 4.95684e-18
3574.00134 5.01124e-18
3575.99819 5.17881e-18
3577.99504 5.09388e-18
3580.00207 5.30624e-18
3581.99892 5.09847e-18
3583.99577 5.19725e-18
3586.00280 4.71749e-18
3587.99965 5.52395e-18
3589.99650 4.94863e-18
3592.00354 5.20976e-18
3594.00038 5.25523e-18
3595.99723 5.42267e-18
3598.00427 5.63756e-18
3600.00112 5.12317e-18
3601.99796 5.43579e-18
3604.00500 7.09651e-18
3606.00185 8.38166e-18
3607.99870 1.32946e-17
3609.99554 9.70190e-18
3612.00258 5.72041e-18
3613.99943 9.90960e-19
3615.99628 2.08190e-18
3618.00331 1.86072e-18
3620.00016 4.86056e-18
3621.99701 3.77452e-18
3624.00404 3.17477e-18
3626.00089 1.45768e-18
3627.99774 7.49859e-18
3630.00478 2.22071e-18
3632.00162 -5.41373e-18
3633.99847 2.41163e-18
3635.99532 1.11871e-17
3638.00236 4.10103e-18
3639.99920 1.07301e-19
3641.99605 2.30209e-18
3644.00309 -3.67051e-19
3645.99994 5.89697e-18
3647.99678 6.26402e-18
3650.00382 3.53584e-18
3652.00067 7.19701e-18
3653.99752 1.01204e-17
3656.00455 1.14899e-17
3658.00140 3.93413e-18
3659.99825 -1.00336e-18
3661.99510 1.72482e-18
3664.00213 2.68969e-18
3665.99898 5.56046e-18
3667.99583 5.49700e-18
3670.00286 3.58455e-18
3671.99971 1.01190e-17
3673.99656 9.03259e-18
3676.00360 2.91135e-18
3678.00044 3.51037e-18
3679.99729 2.91892e-18
3682.00433 3.93976e-18
3684.00118 6.27630e-18
3685.99802 7.65023e-18
3688.00506 4.78864e-18
3690.00191 3.19306e-18
3691.99876 2.40639e-18
3693.99560 4.03809e-18
3696.00264 4.89903e-18
3697.99949 3.96172e-18
3699.99634 5.63566e-18
3702.00337 4.79438e-18
3704.00022 5.86007e-18
3705.99707 4.21521e-18
3708.00410 4.01117e-18
3710.00095 4.35368e-18
3711.99780 5.95872e-18
3714.00484 3.75980e-18
3716.00168 4.34383e-18
3717.99853 3.60629e-18
3719.99538 4.65389e-18
3722.00242 5.07192e-18
3723.99926 8.66994e-18
3725.99611 6.70387e-18
3728.00315 3.40655e-18
3730.00000 5.79083e-18
3731.99684 5.23978e-18
3734.00388 5.94081e-18
3736.00073 2.46691e-18
3737.99758 7.70752e-20
3740.00461 3.76719e-18
3742.00146 4.01020e-18
3743.99831 3.09201e-18
3745.99516 2.61986e-18
3748.00219 2.07107e-18
3749.99904 3.05287e-18
3751.99589 2.64935e-18
3754.00292 3.32914e-18
3755.99977 5.93497e-18
3757.99662 3.45744e-18
3760.00366 3.56255e-18
3762.00050 3.47283e-18
3763.99735 4.93103e-18
3766.00439 3.63460e-18
3768.00124 1.75995e-18
3769.99808 3.27030e-18
3772.00512 3.49297e-18
3774.00197 2.13327e-18
3775.99882 4.07516e-18
3777.99566 3.99483e-18
3780.00270 3.91451e-18
3781.99955 3.84288e-18
3783.99640 3.77127e-18
3786.00343 3.69968e-18
3788.00028 3.62810e-18
3789.99713 3.55652e-18
3792.00416 3.48496e-18
3794.00101 3.41341e-18
3795.99786 3.34187e-18
3798.00490 3.27036e-18
3800.00174 3.19885e-18
3801.99859 3.12735e-18
3803.99544 3.05586e-18
3806.00248 2.98439e-18
3807.99932 2.91293e-18
3809.99617 2.84148e-18
3812.00321 2.77004e-18
3814.00006 2.69861e-18
3815.99690 2.62720e-18
3818.00394 2.55579e-18
3820.00079 2.84564e-18
3821.99764 2.65280e-18
3824.00467 2.95305e-18
3826.00152 2.78205e-18
3827.99837 2.87863e-18
3829.99522 3.26236e-18
3832.00225 2.86291e-18
3833.99910 3.03506e-18
3835.99595 3.38238e-18
3838.00298 4.80702e-18
3839.99983 3.90996e-18
3841.99668 3.81374e-18
3844.00372 3.49037e-18
3846.00056 3.95329e-18
3847.99741 4.27115e-18
3850.00445 3.31863e-18
3852.00130 3.90174e-18
3853.99814 4.16926e-18
3855.99499 4.52361e-18
3858.00203 5.01733e-18
3859.99888 5.12890e-18
3861.99572 4.28535e-18
3864.00276 3.21098e-18
3865.99961 3.57164e-18
3867.99646 5.12714e-18
3870.00349 4.50007e-18
3872.00034 4.43942e-18
3873.99719 5.86033e-18
3876.00422 6.70222e-18
3878.00107 5.82832e-18
3879.99792 5.70383e-18
3881.99477 5.73156e-18
3884.00180 5.98961e-18
3885.99865 4.97520e-18
3887.99550 4.28943e-18
3890.00254 4.22571e-18
3891.99938 5.07356e-18
3893.99623 4.58738e-18
3896.00327 5.46866e-18
3898.00012 5.16108e-18
3899.99696 4.95086e-18
3902.00400 5.94930e-18
3904.00085 6.71138e-18
3905.99770 7.01701e-18
3908.00473 6.36437e-18
3910.00158 6.39464e-18
3911.99843 5.83109e-18
3913.99528 6.12258e-18
3916.00231 6.02084e-18
3917.99916 6.01454e-18
3919.99601 6.06930e-18
3922.00304 5.71573e-18
3923.99989 5.62090e-18
3925.99674 7.14060e-18
3928.00378 6.26921e-18
3930.00062 5.55461e-18
3931.99747 6.11166e-18
3934.00451 5.83838e-18
3936.00136 5.67941e-18
3937.99820 6.39135e-18
3939.99505 7.58940e-18
3942.00209 7.22410e-18
3943.99894 6.76945e-18
3945.99578 6.36182e-18
3948.00282 6.09596e-18
3949.99967 6.87646e-18
3951.99652 7.21152e-18
3954.00355 6.51649e-18
3956.00040 7.05977e-18
3957.99725 7.70890e-18
3960.00428 7.47656e-18
3962.00113 8.25751e-18
3963.99798 7.62483e-18
3965.99483 6.65894e-18
3968.00186 6.47710e-18
3969.99871 7.69996e-18
3971.99556 7.31729e-18
3974.00260 7.39542e-18
3975.99944 7.45014e-18
3977.99629 7.70543e-18
3980.00333 7.78303e-18
3982.00018 7.65240e-18
3983.99702 7.27999e-18
3986.00406 7.64049e-18
3988.00091 7.71515e-18
3989.99776 7.26830e-18
3992.00479 7.75717e-18
3994.00164 8.21988e-18
3995.99849 7.78046e-18
3997.99534 6.59903e-18
4000.00237 6.98110e-18
4001.99922 7.14623e-18
4003.99607 7.66704e-18
4006.00310 6.80608e-18
4007.99995 6.92228e-18
4009.99680 7.79362e-18
4012.00384 7.45767e-18
4014.00068 6.91770e-18
4015.99753 7.07489e-18
4018.00457 7.67617e-18
4020.00142 7.78427e-18
4021.99826 7.45853e-18
4023.99511 7.42125e-18
4026.00215 7.38464e-18
4027.99900 7.56886e-18
4029.99584 7.27323e-18
4032.00288 7.38683e-18
4033.99973 6.97096e-18
4035.99658 7.21275e-18
4038.00361 7.28996e-18
4040.00046 7.20032e-18
4041.99731 7.37401e-18
4044.00434 8.12836e-18
4046.00119 8.77282e-18
4047.99804 8.00801e-18
4049.99489 7.59981e-18
4052.00192 7.15219e-18
4053.99877 7.31964e-18
4055.99562 7.12354e-18
4058.00266 7.15605e-18
4059.99950 6.96364e-18
4061.99635 6.84531e-18
4064.00339 7.38251e-18
4066.00024 7.26589e-18
4067.99708 6.98252e-18
4070.00412 6.93446e-18
4072.00097 6.70863e-18
4073.99782 6.82328e-18
4076.00485 7.78500e-18
4078.00170 7.94393e-18
4079.99855 7.12523e-18
4081.99540 6.91279e-18
4084.00243 7.35440e-18
4085.99928 7.43667e-18
4087.99613 7.09050e-18
4090.00316 7.53430e-18
4092.00001 7.02018e-18
4093.99686 7.98254e-18
4096.00390 7.74033e-18
4098.00074 7.19617e-18
4099.99759 7.17146e-18
4102.00463 7.56439e-18
4104.00148 7.22549e-18
4105.99832 7.24339e-18
4107.99517 7.42589e-18
4110.00221 6.57022e-18
4111.99906 7.04874e-18
4113.99590 7.30315e-18
4116.00294 6.90725e-18
4117.99979 6.35705e-18
4119.99664 6.88555e-18
4122.00367 6.83050e-18
4124.00052 6.58984e-18
4125.99737 7.09294e-18
4128.00440 7.11782e-18
4130.00125 6.92344e-18
4131.99810 6.55968e-18
4133.99495 6.24722e-18
4136.00198 6.79171e-18
4137.99883 7.17640e-18
4139.99568 6.56366e-18
4142.00272 7.22183e-18
4143.99956 6.98443e-18
4145.99641 6.94327e-18
4148.00345 7.22647e-18
4150.00030 6.42341e-18
4151.99714 6.61168e-18
4154.00418 6.55152e-18
4156.00103 6.43275e-18
4157.99788 6.53506e-18
4160.00491 6.06017e-18
4162.00176 5.93571e-18
4163.99861 6.39806e-18
4165.99546 6.26192e-18
4168.00249 6.08072e-18
4169.99934 5.67306e-18
4171.99619 5.75838e-18
4174.00322 6.51789e-18
4176.00007 7.91408e-18
4177.99692 8.51889e-18
4180.00396 8.50147e-18
4182.00080 8.18956e-18
4183.99765 6.48975e-18
4186.00469 6.48349e-18
4188.00154 6.61839e-18
4189.99838 6.26790e-18
4191.99523 6.41236e-18
4194.00227 6.51263e-18
4195.99912 6.21822e-18
4197.99596 6.24898e-18
4200.00300 6.37311e-18
4201.99985 6.66632e-18
4203.99670 6.60012e-18
4206.00373 6.60787e-18
4208.00058 6.60055e-18
4209.99743 6.04788e-18
4212.00446 6.39639e-18
4214.00131 6.52915e-18
4215.99816 6.35072e-18
4218.00520 6.24750e-18
4220.00204 6.76057e-18
4221.99889 6.39844e-18
4223.99574 6.93218e-18
4226.00278 6.91833e-18
4227.99962 6.48790e-18
4229.99647 6.60872e-18
4232.00351 6.57129e-18
4234.00036 6.16848e-18
4235.99720 5.79613e-18
4238.00424 5.80096e-18
4240.00109 6.33559e-18
4241.99794 6.06805e-18
4244.00497 5.99485e-18
4246.00182 6.36212e-18
4247.99867 6.16248e-18
4249.99552 6.53208e-18
4252.00255 6.47915e-18
4253.99940 6.04147e-18
4255.99625 5.80797e-18
4258.00328 5.99171e-18
4260.00013 6.51026e-18
4261.99698 6.55747e-18
4264.00402 6.89861e-18
4266.00086 6.56180e-18
4267.99771 6.09985e-18
4270.00475 5.79028e-18
4272.00160 5.57572e-18
4273.99844 5.98777e-18
4275.99529 6.15548e-18
4278.00233 6.51265e-18
4279.99918 6.45274e-18
4281.99602 6.57892e-18
4284.00306 6.09015e-18
4285.99991 6.41160e-18
4287.99676 6.56502e-18
4290.00379 6.69129e-18
4292.00064 6.39770e-18
4293.99749 6.08875e-18
4296.00452 6.33530e-18
4298.00137 6.12082e-18
4299.99822 6.01107e-18
4301.99507 6.23614e-18
4304.00210 6.21636e-18
4305.99895 6.05358e-18
4307.99580 6.31351e-18
4310.00284 6.61947e-18
4311.99968 6.42431e-18
4313.99653 6.26913e-18
4316.00357 6.03247e-18
4318.00042 6.84952e-18
4319.99726 6.10173e-18
4322.00430 5.85835e-18
4324.00115 6.66832e-18
4325.99800 6.59502e-18
4327.99484 6.40990e-18
4330.00188 6.09552e-18
4331.99873 6.31515e-18
4333.99558 6.52969e-18
4336.00261 6.41696e-18
4337.99946 6.52554e-18
4339.99631 6.14741e-18
4342.00334 6.07149e-18
4344.00019 6.65164e-18
4345.99704 6.07518e-18
4348.00408 5.81595e-18
4350.00092 5.89120e-18
4351.99777 6.30257e-18
4354.00481 6.06265e-18
4356.00166 5.88434e-18
4357.99850 6.27066e-18
4359.99535 6.20888e-18
4362.00239 5.64888e-18
4363.99924 5.92705e-18
4365.99608 6.05653e-18
4368.00312 6.16628e-18
4369.99997 5.62904e-18
4371.99682 6.04195e-18
4374.00385 6.45304e-18
4376.00070 5.70603e-18
4377.99755 5.91565e-18
4380.00458 5.84295e-18
4382.00143 5.48385e-18
4383.99828 5.81019e-18
4385.99513 5.83699e-18
4388.00216 5.28539e-18
4389.99901 5.48026e-18
4391.99586 5.80912e-18
4394.00290 5.39749e-18
4395.99974 5.51960e-18
4397.99659 5.35311e-18
4400.00363 5.28757e-18
4402.00048 5.50245e-18
4403.99732 5.07082e-18
4406.00436 4.96452e-18
4408.00121 5.25111e-18
4409.99806 5.37132e-18
4411.99490 5.71808e-18
4414.00194 5.48847e-18
4415.99879 5.54337e-18
4417.99564 5.59826e-18
4420.00267 5.65314e-18
4421.99952 5.70801e-18
4423.99637 5.76287e-18
4426.00340 5.81773e-18
4428.00025 5.87257e-18
4429.99710 5.92741e-18
4432.00414 5.98224e-18
4434.00098 6.03705e-18
4435.99783 6.09188e-18
4437.99468 6.14667e-18
4440.00172 6.20148e-18
4441.99856 6.25626e-18
4443.99541 6.31105e-18
4446.00245 6.36581e-18
4447.99930 6.42057e-18
4449.99614 6.47533e-18
4452.00318 6.53007e-18
4454.00003 6.58482e-18
4455.99688 6.63954e-18
4458.00391 6.69425e-18
4460.00076 6.74897e-18
4461.99761 6.80367e-18
4464.00464 6.85837e-18
4466.00149 6.91305e-18
4467.99834 6.96774e-18
4469.99519 7.02240e-18
4472.00222 7.07706e-18
4473.99907 7.13172e-18
4475.99592 7.18636e-18
4478.00296 7.07465e-18
4479.99980 7.21536e-18
4481.99665 7.33973e-18
4484.00369 7.38948e-18
4486.00054 7.67475e-18
4487.99738 7.42613e-18
4490.00442 7.42938e-18
4492.00127 7.34294e-18
4493.99812 7.64467e-18
4495.99496 7.18354e-18
4498.00200 8.27351e-18
4499.99885 7.94666e-18
4501.99570 7.77829e-18
4504.00273 7.67231e-18
4505.99958 7.98005e-18
4507.99643 7.86440e-18
4510.00346 8.15039e-18
4512.00031 8.21409e-18
4513.99716 7.51098e-18
4516.00420 7.71119e-18
4518.00104 8.25935e-18
4519.99789 8.26200e-18
4522.00493 8.29481e-18
4524.00178 8.61648e-18
4525.99862 8.51923e-18
4527.99547 8.21211e-18
4530.00251 8.29616e-18
4531.99936 8.83244e-18
4533.99620 8.70735e-18
4536.00324 9.04836e-18
4538.00009 8.82563e-18
4539.99694 9.28118e-18
4542.00397 9.49736e-18
4544.00082 9.35387e-18
4545.99767 9.21075e-18
4548.00470 9.87765e-18
4550.00155 9.62551e-18
4551.99840 1.02003e-17
4553.99525 1.05786e-17
4556.00228 1.06565e-17
4557.99913 1.06553e-17
4559.99598 9.85422e-18
4562.00302 1.00860e-17
4563.99986 1.03750e-17
4565.99671 1.07584e-17
4568.00375 1.08863e-17
4570.00060 1.11714e-17
4571.99744 1.15309e-17
4574.00448 1.15197e-17
4576.00133 1.18335e-17
4577.99818 1.13171e-17
4579.99502 1.17117e-17
4582.00206 1.20805e-17
4583.99891 1.18250e-17
4585.99576 1.20879e-17
4588.00279 1.24937e-17
4589.99964 1.24281e-17
4591.99649 1.16491e-17
4594.00352 1.23076e-17
4596.00037 1.27075e-17
4597.99722 1.26704e-17
4600.00426 1.29654e-17
4602.00110 1.23105e-17
4603.99795 1.29239e-17
4605.99480 1.30788e-17
4608.00184 1.25733e-17
4609.99868 1.32925e-17
4611.99553 1.33709e-17
4614.00257 1.25073e-17
4615.99942 1.36412e-17
4617.99626 1.33502e-17
4620.00330 1.32675e-17
4622.00015 1.29858e-17
4623.99700 1.32901e-17
4626.00403 1.34378e-17
4628.00088 1.36899e-17
4629.99773 1.39210e-17
4632.00476 1.36790e-17
4634.00161 1.34064e-17
4635.99846 1.30758e-17
4637.99531 1.32737e-17
4640.00234 1.33081e-17
4641.99919 1.39174e-17
4643.99604 1.37821e-17
4646.00308 1.31029e-17
4647.99992 1.32879e-17
4649.99677 1.36410e-17
4652.00381 1.37317e-17
4654.00066 1.36385e-17
4655.99750 1.39203e-17
4658.00454 1.38037e-17
4660.00139 1.33802e-17
4661.99824 1.34233e-17
4663.99508 1.32309e-17
4666.00212 1.31683e-17
4667.99897 1.32356e-17
4669.99582 1.27383e-17
4672.00285 1.23248e-17
4673.99970 1.26849e-17
4675.99655 1.27117e-17
4678.00358 1.28407e-17
4680.00043 1.22474e-17
4681.99728 1.21226e-17
4684.00432 1.25920e-17
4686.00116 1.24203e-17
4687.99801 1.18277e-17
4690.00505 1.15726e-17
4692.00190 1.20134e-17
4693.99874 1.21893e-17
4695.99559 1.10407e-17
4698.00263 1.09630e-17
4699.99948 1.08678e-17
4701.99632 1.12549e-17
4704.00336 1.11124e-17
4706.00021 1.10269e-17
4707.99706 1.10900e-17
4710.00409 1.05117e-17
4712.00094 1.05871e-17
4713.99779 1.07383e-17
4716.00482 1.05999e-17
4718.00167 1.02155e-17
4719.99852 1.02066e-17
4721.99537 1.01961e-17
4724.00240 1.00760e-17
4725.99925 9.88771e-18
4727.99610 9.56902e-18
4730.00314 1.01890e-17
4731.99998 9.58683e-18
4733.99683 1.01121e-17
4736.00387 9.57368e-18
4738.00072 9.47844e-18
4739.99756 9.90565e-18
4742.00460 9.72246e-18
4744.00145 9.27132e-18
4745.99830 9.59075e-18
4747.99514 9.36172e-18
4750.00218 9.22348e-18
4751.99903 9.07910e-18
4753.99588 8.83268e-18
4756.00291 8.85384e-18
4757.99976 8.94998e-18
4759.99661 8.51915e-18
4762.00364 8.40858e-18
4764.00049 8.75959e-18
4765.99734 8.72539e-18
4768.00438 8.40318e-18
4770.00122 8.38233e-18
4771.99807 8.51692e-18
4773.99492 8.46359e-18
4776.00196 8.19652e-18
4777.99880 7.64262e-18
4779.99565 8.05369e-18
4782.00269 7.93741e-18
4783.99954 7.83030e-18
4785.99638 7.93659e-18
4788.00342 8.11008e-18
4790.00027 7.96791e-18
4791.99712 7.75323e-18
4794.00415 8.00373e-18
4796.00100 7.90031e-18
4797.99785 8.18681e-18
4800.00488 8.21235e-18
4802.00173 7.83022e-18
4803.99858 8.51092e-18
4805.99543 8.50816e-18
4808.00246 8.63868e-18
4809.99931 8.34964e-18
4811.99616 8.12005e-18
4814.00320 8.68324e-18
4816.00004 8.62554e-18
4817.99689 8.25829e-18
4820.00393 8.17514e-18
4822.00078 8.64686e-18
4823.99762 8.15069e-18
4826.00466 8.29825e-18
4828.00151 8.28160e-18
4829.99836 8.75300e-18
4831.99520 8.22002e-18
4834.00224 8.49246e-18
4835.99909 8.48839e-18
4837.99594 8.62720e-18
4840.00297 8.41669e-18
4841.99982 9.01437e-18
4843.99667 8.55372e-18
4846.00370 8.18393e-18
4848.00055 8.48521e-18
4849.99740 8.21998e-18
4852.00444 8.39949e-18
4854.00128 8.15745e-18
4855.99813 8.32157e-18
4857.99498 8.18767e-18
4860.00202 8.24582e-18
4861.99886 8.26284e-18
4863.99571 8.34379e-18
4866.00275 8.39306e-18
4867.99960 8.00124e-18
4869.99644 8.01662e-18
4872.00348 8.18687e-18
4874.00033 8.44260e-18
4875.99718 8.00300e-18
4878.00421 7.98176e-18
4880.00106 8.21465e-18
4881.99791 8.44426e-18
4884.00494 8.39298e-18
4886.00179 8.29597e-18
4887.99864 8.40946e-18
4889.99549 8.57264e-18
4892.00252 8.46628e-18
4893.99937 8.33085e-18
4895.99622 8.72734e-18
4898.00326 8.79871e-18
4900.00010 8.65041e-18
4901.99695 8.69172e-18
4904.00399 8.80967e-18
4906.00084 8.99019e-18
4907.99768 9.32371e-18
4910.00472 9.43948e-18
4912.00157 9.39668e-18
4913.99842 9.55394e-18
4915.99526 9.60070e-18
4918.00230 1.00969e-17
4919.99915 9.77570e-18
4921.99600 9.76343e-18
4924.00303 1.00723e-17
4925.99988 1.03468e-17
4927.99673 1.00856e-17
4930.00376 1.02834e-17
4932.00061 1.00886e-17
4933.99746 1.01997e-17
4936.00450 1.02197e-17
4938.00134 1.02398e-17
4939.99819 1.02598e-17
4941.99504 1.02799e-17
4944.00208 1.02999e-17
4945.99892 1.03199e-17
4947.99577 1.03400e-17
4950.00281 1.03600e-17
4951.99966 1.03800e-17
4953.99650 1.04001e-17
4956.00354 1.04201e-17
4958.00039 1.04401e-17
4959.99724 1.04601e-17
4962.00427 1.04801e-17
4964.00112 1.05001e-17
4965.99797 1.05201e-17
4968.00500 1.05401e-17
4970.00185 1.05601e-17
4971.99870 1.05801e-17
4973.99555 1.01237e-17
4976.00258 1.00194e-17
4977.99943 9.94564e-18
4979.99628 9.79587e-18
4982.00332 9.89962e-18
4984.00016 1.00106e-17
4985.99701 1.01184e-17
4988.00405 9.98276e-18
4990.00090 9.95304e-18
4991.99774 9.39292e-18
4994.00478 9.36990e-18
4996.00163 9.26263e-18
4997.99848 9.29156e-18
4999.99532 9.27467e-18
5002.00236 8.99794e-18
5003.99921 8.68839e-18
5005.99606 8.61587e-18
5008.00309 8.40210e-18
5009.99994 8.47938e-18
5011.99679 8.46494e-18
5014.00382 8.10021e-18
5016.00067 8.22386e-18
5017.99752 8.38284e-18
5020.00456 8.42070e-18
5022.00140 7.97470e-18
5023.99825 8.09215e-18
5025.99510 8.06563e-18
5028.00214 7.91019e-18
5029.99898 7.72649e-18
5031.99583 7.94782e-18
5034.00287 7.95867e-18
5035.99972 7.96952e-18
5037.99656 7.98036e-18
5040.00360 7.99120e-18
5042.00045 8.00204e-18
5043.99730 8.01288e-18
5046.00433 8.02372e-18
5048.00118 8.03456e-18
5049.99803 8.04539e-18
5051.99488 8.05623e-18
5054.00191 8.06706e-18
5055.99876 8.07789e-18
5057.99561 8.08872e-18
5060.00264 8.09955e-18
5061.99949 8.11038e-18
5063.99634 8.12120e-18
5066.00338 8.13203e-18
5068.00022 8.14285e-18
5069.99707 8.15367e-18
5072.00411 8.16449e-18
5074.00096 8.24599e-18
5075.99780 7.99898e-18
5077.99465 7.59388e-18
5080.00169 7.64935e-18
5081.99854 7.91754e-18
5083.99538 7.95596e-18
5086.00242 7.99437e-18
5087.99927 8.03279e-18
5089.99612 8.07119e-18
5092.00315 8.10958e-18
5094.00000 8.14798e-18
5095.99685 8.18636e-18
5098.00388 8.22475e-18
5100.00073 8.26312e-18
5101.99758 8.30149e-18
5104.00462 8.33986e-18
5106.00146 8.37822e-18
5107.99831 8.41658e-18
5109.99516 8.45493e-18
5112.00220 8.49328e-18
5113.99904 8.53161e-18
5115.99589 8.56994e-18
5118.00293 8.60828e-18
5119.99978 8.64659e-18
5121.99662 8.36091e-18
5124.00366 8.27882e-18
5126.00051 8.48902e-18
5127.99736 8.44211e-18
5130.00439 8.32587e-18
5132.00124 8.40316e-18
5133.99809 8.32684e-18
5136.00512 8.31966e-18
5138.00197 8.45885e-18
5139.99882 8.81629e-18
5141.99567 8.54944e-18
5144.00270 8.62727e-18
5145.99955 8.83309e-18
5147.99640 8.41492e-18
5150.00344 8.91867e-18
5152.00028 8.81022e-18
5153.99713 8.77603e-18
5156.00417 9.56047e-18
5158.00102 8.83394e-18
5159.99786 8.21882e-18
5162.00490 8.94880e-18
5164.00175 9.26516e-18
5165.99860 9.39513e-18
5167.99544 8.95412e-18
5170.00248 8.38553e-18
5171.99933 9.20257e-18
5173.99618 8.90854e-18
5176.00321 9.29180e-18
5178.00006 8.88822e-18
5179.99691 8.80961e-18
5182.00394 8.80944e-18
5184.00079 9.03129e-18
5185.99764 9.13416e-18
5188.00468 9.42281e-18
5190.00152 9.35933e-18
5191.99837 9.22095e-18
5193.99522 9.00428e-18
5196.00226 9.39374e-18
5197.99910 9.92950e-18
5199.99595 1.01452e-17
5202.00299 9.85017e-18
5203.99984 1.05982e-17
5205.99668 1.02086e-17
5208.00372 9.83974e-18
5210.00057 9.67941e-18
5211.99742 1.03983e-17
5214.00445 1.08394e-17
5216.00130 1.08411e-17
5217.99815 1.06673e-17
5219.99500 1.01977e-17
5222.00203 1.09936e-17
5223.99888 1.05939e-17
5225.99573 1.08546e-17
5228.00276 1.03851e-17
5229.99961 1.11786e-17
5231.99646 1.08114e-17
5234.00350 1.06311e-17
5236.00034 1.12615e-17
5237.99719 1.12340e-17
5240.00423 1.08465e-17
5242.00108 1.10574e-17
5243.99792 1.13946e-17
5245.99477 1.14631e-17
5248.00181 1.15113e-17
5249.99866 1.16915e-17
5251.99550 1.18454e-17
5254.00254 1.17787e-17
5255.99939 1.18510e-17
5257.99624 1.19201e-17
5260.00327 1.21754e-17
5262.00012 1.25249e-17
5263.99697 1.27136e-17
5266.00400 1.25558e-17
5268.00085 1.23582e-17
5269.99770 1.21592e-17
5272.00474 1.25907e-17
5274.00158 1.26987e-17
5275.99843 1.32107e-17
5277.99528 1.28419e-17
5280.00232 1.28903e-17
5281.99916 1.30506e-17
5283.99601 1.32029e-17
5286.00305 1.30724e-17
5287.99990 1.31091e-17
5289.99674 1.38482e-17
5292.00378 1.34620e-17
5294.00063 1.36041e-17
5295.99748 1.35143e-17
5298.00451 1.32389e-17
5300.00136 1.41408e-17
5301.99821 1.36296e-17
5303.99506 1.32857e-17
5306.00209 1.44448e-17
5307.99894 1.40588e-17
5309.99579 1.39283e-17
5312.00282 1.38727e-17
5313.99967 1.34917e-17
5315.99652 1.43796e-17
5318.00356 1.41372e-17
5320.00040 1.43710e-17
5321.99725 1.48290e-17
5324.00429 1.45497e-17
5326.00114 1.47149e-17
5327.99798 1.47355e-17
5330.00502 1.46832e-17
5332.00187 1.49327e-17
5333.99872 1.49953e-17
5335.99556 1.51816e-17
5338.00260 1.44628e-17
5339.99945 1.53881e-17
5341.99630 1.54959e-17
5344.00333 1.53283e-17
5346.00018 1.49557e-17
5347.99703 1.55431e-17
5350.00406 1.54177e-17
5352.00091 1.57260e-17
5353.99776 1.54714e-17
5356.00480 1.54185e-17
5358.00164 1.54270e-17
5359.99849 1.55855e-17
5361.99534 1.55996e-17
5364.00238 1.55425e-17
5365.99922 1.55857e-17
5367.99607 1.59198e-17
5370.00311 1.56041e-17
5371.99996 1.56794e-17
5373.99680 1.53620e-17
5376.00384 1.54212e-17
5378.00069 1.48157e-17
5379.99754 1.50622e-17
5382.00457 1.56860e-17
5384.00142 1.52789e-17
5385.99827 1.54508e-17
5387.99512 1.50397e-17
5390.00215 1.49866e-17
5391.99900 1.53840e-17
5393.99585 1.57631e-17
5396.00288 1.55024e-17
5397.99973 1.56319e-17
5399.99658 1.56934e-17
5402.00362 1.52060e-17
5404.00046 1.53460e-17
5405.99731 1.59372e-17
5408.00435 1.58648e-17
5410.00120 1.56669e-17
5411.99804 1.56836e-17
5413.99489 1.55621e-17
5416.00193 1.57104e-17
5417.99878 1.64916e-17
5419.99562 1.62343e-17
5422.00266 1.55027e-17
5423.99951 1.60153e-17
5425.99636 1.61977e-17
5428.00339 1.64186e-17
5430.00024 1.66107e-17
5431.99709 1.65294e-17
5434.00412 1.66078e-17
5436.00097 1.56465e-17
5437.99782 1.62112e-17
5440.00486 1.69181e-17
5442.00170 1.69050e-17
5443.99855 1.68081e-17
5445.99540 1.68118e-17
5448.00244 1.69397e-17
5449.99928 1.63211e-17
5451.99613 1.67268e-17
5454.00317 1.68986e-17
5456.00002 1.73068e-17
5457.99686 1.67333e-17
5460.00390 1.66690e-17
5462.00075 1.66113e-17
5463.99760 1.73023e-17
5466.00463 1.71344e-17
5468.00148 1.75967e-17
5469.99833 1.71199e-17
5471.99518 1.71769e-17
5474.00221 1.73736e-17
5475.99906 1.72685e-17
5477.99591 1.78099e-17
5480.00294 1.87131e-17
5481.99979 1.87096e-17
5483.99664 1.80248e-17
5486.00368 1.79551e-17
5488.00052 1.82590e-17
5489.99737 1.83732e-17
5492.00441 1.83666e-17
5494.00126 1.84360e-17
5495.99810 1.87626e-17
5497.99495 1.86796e-17
5500.00199 1.92941e-17
5501.99884 1.95265e-17
5503.99568 1.97677e-17
5506.00272 1.95405e-17
5507.99957 1.89287e-17
5509.99642 1.99530e-17
5512.00345 1.97823e-17
5514.00030 1.99928e-17
5515.99715 1.92745e-17
5518.00418 1.97199e-17
5520.00103 1.98470e-17
5521.99788 1.94280e-17
5523.99473 1.99882e-17
5526.00176 1.95017e-17
5527.99861 2.02049e-17
5529.99546 1.98462e-17
5532.00250 2.07180e-17
5533.99934 2.02188e-17
5535.99619 1.96909e-17
5538.00323 2.02113e-17
5540.00008 1.99036e-17
5541.99692 2.04948e-17
5544.00396 1.98708e-17
5546.00081 1.98894e-17
5547.99766 1.98416e-17
5550.00469 2.00723e-17
5552.00154 1.96374e-17
5553.99839 1.96703e-17
5555.99524 1.98483e-17
5558.00227 1.96086e-17
5559.99912 1.97314e-17
5561.99597 1.94487e-17
5564.00300 1.94688e-17
5565.99985 1.95718e-17
5567.99670 1.95232e-17
5570.00374 1.95296e-17
5572.00058 1.95201e-17
5573.99743 2.00248e-17
5576.00447 2.02841e-17
5578.00132 1.95601e-17
5579.99816 1.83591e-17
5581.99501 1.89133e-17
5584.00205 1.78664e-17
5585.99890 1.79794e-17
5587.99574 1.75916e-17
5590.00278 1.75459e-17
5591.99963 1.82700e-17
5593.99648 1.77425e-17
5596.00351 1.81246e-17
5598.00036 1.75366e-17
5599.99721 1.72733e-17
5602.00424 1.80581e-17
5604.00109 1.77547e-17
5605.99794 1.77691e-17
5608.00498 1.77579e-17
5610.00182 1.66930e-17
5611.99867 1.71021e-17
5613.99552 1.69246e-17
5616.00256 1.71056e-17
5617.99940 1.69019e-17
5619.99625 1.67055e-17
5622.00329 1.62984e-17
5624.00014 1.66287e-17
5625.99698 1.66717e-17
5628.00402 1.62674e-17
5630.00087 1.62673e-17
5631.99772 1.63648e-17
5634.00475 1.60740e-17
5636.00160 1.61404e-17
5637.99845 1.60247e-17
5639.99530 1.63440e-17
5642.00233 1.62212e-17
5643.99918 1.59341e-17
5645.99603 1.57742e-17
5648.00306 1.59244e-17
5649.99991 1.61362e-17
5651.99676 1.57236e-17
5654.00380 1.58361e-17
5656.00064 1.53832e-17
5657.99749 1.59741e-17
5660.00453 1.57145e-17
5662.00138 1.53836e-17
5663.99822 1.58633e-17
5665.99507 1.61973e-17
5668.00211 1.58448e-17
5669.99896 1.51024e-17
5671.99580 1.49751e-17
5674.00284 1.49994e-17
5675.99969 1.48930e-17
5677.99654 1.49899e-17
5680.00357 1.49957e-17
5682.00042 1.41195e-17
5683.99727 1.46733e-17
5686.00430 1.44686e-17
5688.00115 1.45899e-17
5689.99800 1.39942e-17
5691.99485 1.44130e-17
5694.00188 1.46001e-17
5695.99873 1.40172e-17
5697.99558 1.41716e-17
5700.00262 1.34091e-17
5701.99946 1.32276e-17
5703.99631 1.38271e-17
5706.00335 1.36957e-17
5708.00020 1.43116e-17
5709.99704 1.33409e-17
5712.00408 1.33618e-17
5714.00093 1.28259e-17
5715.99778 1.36190e-17
5718.00481 1.40986e-17
5720.00166 1.33521e-17
5721.99851 1.28386e-17
5723.99536 1.30267e-17
5726.00239 1.22194e-17
5727.99924 1.23661e-17
5729.99609 1.29334e-17
5732.00312 1.25959e-17
5733.99997 1.19556e-17
5735.99682 1.17934e-17
5738.00386 1.19002e-17
5740.00070 1.20505e-17
5741.99755 1.21257e-17
5744.00459 1.23263e-17
5746.00144 1.18784e-17
5747.99828 1.21156e-17
5749.99513 1.23026e-17
5752.00217 1.17744e-17
5753.99902 1.21440e-17
5755.99586 1.18341e-17
5758.00290 1.17473e-17
5759.99975 1.19664e-17
5761.99660 1.22191e-17
5764.00363 1.23903e-17
5766.00048 1.18874e-17
5767.99733 1.16139e-17
5770.00436 1.17954e-17
5772.00121 1.16689e-17
5773.99806 1.21050e-17
5776.00510 1.20125e-17
5778.00194 1.18326e-17
5779.99879 1.18880e-17
5781.99564 1.20763e-17
5784.00268 1.20318e-17
5785.99952 1.20114e-17
5787.99637 1.20967e-17
5790.00341 1.15062e-17
5792.00026 1.19565e-17
5793.99710 1.20862e-17
5796.00414 1.19732e-17
5798.00099 1.19605e-17
5799.99784 1.17948e-17
5802.00487 1.19699e-17
5804.00172 1.21225e-17
5805.99857 1.23687e-17
5807.99542 1.21692e-17
5810.00245 1.21717e-17
5811.99930 1.20526e-17
5813.99615 1.19784e-17
5816.00318 1.20374e-17
5818.00003 1.21851e-17
5819.99688 1.19680e-17
5822.00392 1.22163e-17
5824.00076 1.23483e-17
5825.99761 1.21093e-17
5828.00465 1.22173e-17
5830.00150 1.23173e-17
5831.99834 1.22345e-17
5833.99519 1.20375e-17
5836.00223 1.24097e-17
5837.99908 1.26530e-17
5839.99592 1.24850e-17
5842.00296 1.25976e-17
5843.99981 1.28711e-17
5845.99666 1.28345e-17
5848.00369 1.25513e-17
5850.00054 1.23165e-17
5851.99739 1.23386e-17
5854.00442 1.24510e-17
5856.00127 1.25073e-17
5857.99812 1.25011e-17
5859.99497 1.25832e-17
5862.00200 1.26946e-17
5863.99885 1.27721e-17
5865.99570 1.27802e-17
5868.00274 1.29129e-17
5869.99958 1.25823e-17
5871.99643 1.28730e-17
5874.00347 1.31110e-17
5876.00032 1.31184e-17
5877.99716 1.30140e-17
5880.00420 1.28237e-17
5882.00105 1.28823e-17
5883.99790 1.23260e-17
5886.00493 1.29700e-17
5888.00178 1.28240e-17
5889.99863 1.18604e-17
5891.99548 1.20701e-17
5894.00251 1.26955e-17
5895.99936 1.23751e-17
5897.99621 1.29059e-17
5900.00324 1.35060e-17
5902.00009 1.31237e-17
5903.99694 1.30821e-17
5906.00398 1.34323e-17
5908.00082 1.33857e-17
5909.99767 1.34185e-17
5912.00471 1.38089e-17
5914.00156 1.38565e-17
5915.99840 1.34928e-17
5917.99525 1.32402e-17
5920.00229 1.32929e-17
5921.99914 1.38569e-17
5923.99598 1.36336e-17
5926.00302 1.33761e-17
5927.99987 1.39175e-17
5929.99672 1.38188e-17
5932.00375 1.38036e-17
5934.00060 1.36573e-17
5935.99745 1.31411e-17
5938.00448 1.36297e-17
5940.00133 1.33781e-17
5941.99818 1.35005e-17
5943.99503 1.35335e-17
5946.00206 1.34005e-17
5947.99891 1.36925e-17
5949.99576 1.32880e-17
5952.00280 1.33043e-17
5953.99964 1.38332e-17
5955.99649 1.37877e-17
5958.00353 1.37421e-17
5960.00038 1.36965e-17
5961.99722 1.36510e-17
5964.00426 1.36054e-17
5966.00111 1.35599e-17
5967.99796 1.35143e-17
5969.99480 1.34688e-17
5972.00184 1.34233e-17
5973.99869 1.33777e-17
5975.99554 1.33322e-17
5978.00257 1.32867e-17
5979.99942 1.32412e-17
5981.99627 1.31957e-17
5984.00330 1.31502e-17
5986.00015 1.31047e-17
5987.99700 1.30592e-17
5990.00404 1.30137e-17
5992.00088 1.29682e-17
5993.99773 1.29227e-17
5995.99458 1.28772e-17
5998.00162 1.28318e-17
5999.99846 1.27863e-17
6001.99531 1.27408e-17
6004.00235 1.26954e-17
6005.99920 1.26499e-17
6007.99604 1.26045e-17
6010.00308 1.25590e-17
6011.99993 1.25136e-17
6013.99678 1.24682e-17
6016.00381 1.24227e-17
6018.00066 1.23773e-17
6019.99751 1.23411e-17
6022.00454 1.22813e-17
6024.00139 1.26928e-17
6025.99824 1.27711e-17
6027.99509 1.28880e-17
6030.00212 1.24881e-17
6031.99897 1.22944e-17
6033.99582 1.26444e-17
6036.00286 1.26519e-17
6037.99970 1.27068e-17
6039.99655 1.23943e-17
6042.00359 1.22381e-17
6044.00044 1.24407e-17
6045.99728 1.25925e-17
6048.00432 1.24260e-17
6050.00117 1.23816e-17
6051.99802 1.27113e-17
6054.00505 1.26194e-17
6056.00190 1.24776e-17
6057.99875 1.22076e-17
6059.99560 1.18552e-17
6062.00263 1.20502e-17
6063.99948 1.22499e-17
6065.99633 1.24035e-17
6068.00336 1.23536e-17
6070.00021 1.23853e-17
6071.99706 1.20686e-17
6074.00410 1.16665e-17
6076.00094 1.16204e-17
6077.99779 1.21729e-17
6080.00483 1.20535e-17
6082.00168 1.15847e-17
6083.99852 1.16314e-17
6085.99537 1.19214e-17
6088.00241 1.22646e-17
6089.99926 1.18934e-17
6091.99610 1.15447e-17
6094.00314 1.21021e-17
6095.99999 1.22294e-17
6097.99684 1.20277e-17
6100.00387 1.19260e-17
6102.00072 1.19119e-17
6103.99757 1.16763e-17
6106.00460 1.17170e-17
6108.00145 1.19281e-17
6109.99830 1.17196e-17
6111.99515 1.18570e-17
6114.00218 1.18526e-17
6115.99903 1.15655e-17
6117.99588 1.22547e-17
6120.00292 1.18657e-17
6121.99976 1.20565e-17
6123.99661 1.21295e-17
6126.00365 1.15243e-17
6128.00050 1.16550e-17
6129.99734 1.23787e-17
6132.00438 1.26215e-17
6134.00123 1.25234e-17
6135.99808 1.26506e-17
6137.99492 1.25484e-17
6140.00196 1.25418e-17
6141.99881 1.25320e-17
6143.99566 1.24712e-17
6146.00269 1.25140e-17
6147.99954 1.26956e-17
6149.99639 1.25287e-17
6152.00342 1.25681e-17
6154.00027 1.25520e-17
6155.99712 1.23970e-17
6158.00416 1.23879e-17
6160.00100 1.31445e-17
6161.99785 1.29692e-17
6163.99470 1.29916e-17
6166.00174 1.32381e-17
6167.99858 1.32510e-17
6169.99543 1.29182e-17
6172.00247 1.30158e-17
6173.99932 1.34361e-17
6175.99616 1.33585e-17
6178.00320 1.34314e-17
6180.00005 1.37519e-17
6181.99690 1.32557e-17
6184.00393 1.30058e-17
6186.00078 1.33234e-17
6187.99763 1.33273e-17
6190.00466 1.32065e-17
6192.00151 1.32066e-17
6193.99836 1.34616e-17
6195.99521 1.34524e-17
6198.00224 1.36099e-17
6199.99909 1.37301e-17
6201.99594 1.32121e-17
6204.00298 1.31738e-17
6205.99982 1.31055e-17
6207.99667 1.36765e-17
6210.00371 1.33280e-17
6212.00056 1.27591e-17
6213.99740 1.32080e-17
6216.00444 1.36976e-17
6218.00129 1.35293e-17
6219.99814 1.36648e-17
6221.99498 1.39070e-17
6224.00202 1.38009e-17
6225.99887 1.34719e-17
6227.99572 1.36176e-17
6230.00275 1.36207e-17
6231.99960 1.35670e-17
6233.99645 1.29627e-17
6236.00348 1.35953e-17
6238.00033 1.36135e-17
6239.99718 1.34310e-17
6242.00422 1.33984e-17
6244.00106 1.33235e-17
6245.99791 1.31939e-17
6248.00495 1.31260e-17
6250.00180 1.28185e-17
6251.99864 1.29857e-17
6253.99549 1.31998e-17
6256.00253 1.26934e-17
6257.99938 1.29035e-17
6259.99622 1.27787e-17
6262.00326 1.31386e-17
6264.00011 1.27076e-17
6265.99696 1.23757e-17
6268.00399 1.23387e-17
6270.00084 1.23927e-17
6271.99769 1.23867e-17
6274.00472 1.19401e-17
6276.00157 1.19627e-17
6277.99842 1.18567e-17
6279.99527 1.17471e-17
6282.00230 1.16417e-17
6283.99915 1.20194e-17
6285.99600 1.20410e-17
6288.00304 1.18050e-17
6289.99988 1.13672e-17
6291.99673 1.15600e-17
6294.00377 1.17479e-17
6296.00062 1.13616e-17
6297.99746 1.06035e-17
6300.00450 1.08862e-17
6302.00135 1.23396e-17
6303.99820 1.18773e-17
6305.99504 1.14330e-17
6308.00208 1.15711e-17
6309.99893 1.10094e-17
6311.99578 1.07550e-17
6314.00281 1.11019e-17
6315.99966 1.12469e-17
6317.99651 1.08974e-17
6320.00354 1.06676e-17
6322.00039 1.11051e-17
6323.99724 1.12801e-17
6326.00428 1.09023e-17
6328.00112 1.11590e-17
6329.99797 1.14474e-17
6331.99482 1.11754e-17
6334.00186 1.12528e-17
6335.99870 1.13159e-17
6337.99555 1.13299e-17
6340.00259 1.13515e-17
6341.99944 1.08505e-17
6343.99628 1.11610e-17
6346.00332 1.13457e-17
6348.00017 1.11536e-17
6349.99702 1.14708e-17
6352.00405 1.20468e-17
6354.00090 1.16987e-17
6355.99775 1.15061e-17
6358.00478 1.15295e-17
6360.00163 1.17250e-17
6361.99848 1.18383e-17
6363.99533 1.16284e-17
6366.00236 1.16008e-17
6367.99921 1.18468e-17
6369.99606 1.17040e-17
6372.00310 1.17170e-17
6373.99994 1.19373e-17
6375.99679 1.20502e-17
6378.00383 1.18424e-17
6380.00068 1.13540e-17
6381.99752 1.17025e-17
6384.00456 1.22488e-17
6386.00141 1.22194e-17
6387.99826 1.18873e-17
6389.99510 1.21561e-17
6392.00214 1.23693e-17
6393.99899 1.21498e-17
6395.99584 1.22485e-17
6398.00287 1.24957e-17
6399.99972 1.23531e-17
6401.99657 1.22196e-17
6404.00360 1.22429e-17
6406.00045 1.21920e-17
6407.99730 1.25606e-17
6410.00434 1.28844e-17
6412.00118 1.28461e-17
6413.99803 1.29710e-17
6415.99488 1.38205e-17
6418.00192 1.40553e-17
6419.99876 1.38002e-17
6421.99561 1.38495e-17
6424.00265 1.36908e-17
6425.99950 1.31482e-17
6427.99634 1.33574e-17
6430.00338 1.40233e-17
6432.00023 1.39431e-17
6433.99708 1.41262e-17
6436.00411 1.42782e-17
6438.00096 1.41982e-17
6439.99781 1.43485e-17
6441.99466 1.41648e-17
6444.00169 1.46089e-17
6445.99854 1.47176e-17
6447.99539 1.49244e-17
6450.00242 1.49216e-17
6451.99927 1.48326e-17
6453.99612 1.51788e-17
6456.00316 1.49835e-17
6458.00000 1.46074e-17
6459.99685 1.47304e-17
6462.00389 1.51882e-17
6464.00074 1.53088e-17
6465.99758 1.51963e-17
6468.00462 1.50706e-17
6470.00147 1.47269e-17
6471.99832 1.49646e-17
6473.99516 1.52269e-17
6476.00220 1.51056e-17
6477.99905 1.53473e-17
6479.99590 1.54937e-17
6482.00293 1.53256e-17
6483.99978 1.55169e-17
6485.99663 1.56641e-17
6488.00366 1.53883e-17
6490.00051 1.54329e-17
6491.99736 1.55743e-17
6494.00440 1.56511e-17
6496.00124 1.57090e-17
6497.99809 1.58953e-17
6499.99494 1.57459e-17
6502.00198 1.57091e-17
6503.99882 1.61929e-17
6505.99567 1.62474e-17
6508.00271 1.62386e-17
6509.99956 1.62040e-17
6511.99640 1.59898e-17
6514.00344 1.60123e-17
6516.00029 1.64129e-17
6517.99714 1.59764e-17
6520.00417 1.57404e-17
6522.00102 1.62767e-17
6523.99787 1.63597e-17
6526.00490 1.61320e-17
6528.00175 1.62668e-17
6529.99860 1.62293e-17
6531.99545 1.61397e-17
6534.00248 1.60672e-17
6535.99933 1.63014e-17
6537.99618 1.65322e-17
6540.00322 1.62119e-17
6542.00006 1.62890e-17
6543.99691 1.57864e-17
6546.00395 1.53183e-17
6548.00080 1.62772e-17
6549.99764 1.58435e-17
6552.00468 1.60246e-17
6554.00153 1.58044e-17
6555.99838 1.62231e-17
6557.99522 1.61423e-17
6560.00226 1.54196e-17
6561.99911 1.56404e-17
6563.99596 1.55443e-17
6566.00299 1.57108e-17
6567.99984 1.60526e-17
6569.99669 1.59859e-17
6572.00372 1.56537e-17
6574.00057 1.56471e-17
6575.99742 1.53834e-17
6578.00446 1.50058e-17
6580.00130 1.52331e-17
6581.99815 1.54205e-17
6583.99500 1.54102e-17
6586.00204 1.54889e-17
6587.99888 1.58905e-17
6589.99573 1.53526e-17
6592.00277 1.48533e-17
6593.99962 1.51403e-17
6595.99646 1.53782e-17
6598.00350 1.53624e-17
6600.00035 1.48893e-17
6601.99720 1.49805e-17
6604.00423 1.54176e-17
6606.00108 1.48169e-17
6607.99793 1.48331e-17
6609.99478 1.48964e-17
6612.00181 1.49547e-17
6613.99866 1.46815e-17
6615.99551 1.45474e-17
6618.00254 1.46583e-17
6619.99939 1.46072e-17
6621.99624 1.40360e-17
6624.00328 1.39336e-17
6626.00012 1.43377e-17
6627.99697 1.45265e-17
6630.00401 1.44540e-17
6632.00086 1.45316e-17
6633.99770 1.41837e-17
6636.00474 1.41277e-17
6638.00159 1.41010e-17
6639.99844 1.38835e-17
6641.99528 1.38670e-17
6644.00232 1.36881e-17
6645.99917 1.39569e-17
6647.99602 1.39186e-17
6650.00305 1.38095e-17
6651.99990 1.38448e-17
6653.99675 1.38052e-17
6656.00378 1.37655e-17
6658.00063 1.37258e-17
6659.99748 1.36862e-17
6662.00452 1.36465e-17
6664.00136 1.36069e-17
6665.99821 1.35672e-17
6667.99506 1.35275e-17
6670.00210 1.34879e-17
6671.99894 1.34483e-17
6673.99579 1.34086e-17
6676.00283 1.33690e-17
6677.99968 1.33293e-17
6679.99652 1.32897e-17
6682.00356 1.32501e-17
6684.00041 1.32104e-17
6685.99726 1.31708e-17
6688.00429 1.31312e-17
6690.00114 1.30916e-17
6691.99799 1.30750e-17
6694.00502 1.30585e-17
6696.00187 1.30420e-17
6697.99872 1.30255e-17
6699.99557 1.30089e-17
6702.00260 1.29924e-17
6703.99945 1.29759e-17
6705.99630 1.29594e-17
6708.00334 1.29429e-17
6710.00018 1.29263e-17
6711.99703 1.29098e-17
6714.00407 1.28933e-17
6716.00092 1.28768e-17
6717.99776 1.28603e-17
6720.00480 1.28438e-17
6722.00165 1.28273e-17
6723.99850 1.28108e-17
6725.99534 1.27943e-17
6728.00238 1.24962e-17
6729.99923 1.25787e-17
6731.99608 1.26135e-17
6734.00311 1.20231e-17
6735.99996 1.21719e-17
6737.99681 1.20826e-17
6740.00384 1.19541e-17
6742.00069 1.20669e-17
6743.99754 1.19890e-17
6746.00458 1.20889e-17
6748.00142 1.21584e-17
6749.99827 1.19067e-17
6751.99512 1.22120e-17
6754.00216 1.23986e-17
6755.99900 1.19182e-17
6757.99585 1.18541e-17
6760.00289 1.19697e-17
6761.99974 1.21176e-17
6763.99658 1.18162e-17
6766.00362 1.14979e-17
6768.00047 1.17434e-17
6769.99732 1.20495e-17
6772.00435 1.17588e-17
6774.00120 1.13363e-17
6775.99805 1.14128e-17
6777.99490 1.14876e-17
6780.00193 1.15362e-17
6781.99878 1.15509e-17
6783.99563 1.16886e-17
6786.00266 1.14768e-17
6787.99951 1.13155e-17
6789.99636 1.13391e-17
6792.00340 1.11718e-17
6794.00024 1.11728e-17
6795.99709 1.12324e-17
6798.00413 1.10781e-17
6800.00098 1.11531e-17
6801.99782 1.14666e-17
6804.00486 1.17374e-17
6806.00171 1.14588e-17
6807.99856 1.12361e-17
6809.99540 1.09777e-17
6812.00244 1.09992e-17
6813.99929 1.15166e-17
6815.99614 1.12913e-17
6818.00317 1.09255e-17
6820.00002 1.07427e-17
6821.99687 1.10087e-17
6824.00390 1.12273e-17
6826.00075 1.12093e-17
6827.99760 1.11912e-17
6830.00464 1.11732e-17
6832.00148 1.11551e-17
6833.99833 1.11371e-17
6835.99518 1.11191e-17
6838.00222 1.11010e-17
6839.99906 1.10540e-17
6841.99591 1.10069e-17
6844.00295 1.09599e-17
6845.99980 1.09129e-17
6847.99664 1.08658e-17
6850.00368 1.08188e-17
6852.00053 1.07718e-17
6853.99738 1.07247e-17
6856.00441 1.06777e-17
6858.00126 1.06307e-17
6859.99811 1.05837e-17
6862.00514 1.05367e-17
6864.00199 1.04897e-17
6865.99884 1.04427e-17
6867.99569 1.03957e-17
6870.00272 1.03487e-17
6871.99957 1.03017e-17
6873.99642 1.02547e-17
6876.00346 1.02077e-17
6878.00030 1.03643e-17
6879.99715 1.01946e-17
6882.00419 9.89106e-18
6884.00104 9.80721e-18
6885.99788 1.00235e-17
6888.00492 9.90009e-18
6890.00177 9.64069e-18
6891.99862 9.96442e-18
6893.99546 1.01491e-17
6896.00250 1.01436e-17
6897.99935 1.03063e-17
6899.99620 1.00542e-17
6902.00323 9.85115e-18
6904.00008 9.83820e-18
6905.99693 9.96664e-18
6908.00396 1.00466e-17
6910.00081 1.00030e-17
6911.99766 9.91070e-18
6914.00470 9.83492e-18
6916.00154 9.52068e-18
6917.99839 9.74499e-18
6919.99524 1.00161e-17
6922.00228 9.92028e-18
6923.99912 9.90021e-18
6925.99597 9.59549e-18
6928.00301 9.74635e-18
6929.99986 1.00865e-17
6931.99670 9.86339e-18
6934.00374 9.87314e-18
6936.00059 1.01289e-17
6937.99744 1.00092e-17
6940.00447 1.00247e-17
6942.00132 1.00263e-17
6943.99817 9.90409e-18
6945.99502 9.94956e-18
6948.00205 1.02055e-17
6949.99890 1.03045e-17
6951.99575 1.01990e-17
6954.00278 1.02715e-17
6955.99963 1.02784e-17
6957.99648 1.01711e-17
6960.00352 1.01623e-17
6962.00036 1.05821e-17
6963.99721 1.05589e-17
6966.00425 1.05929e-17
6968.00110 1.05066e-17
6969.99794 1.03409e-17
6972.00498 1.07095e-17
6974.00183 1.06345e-17
6975.99868 1.07128e-17
6977.99552 1.03774e-17
6980.00256 1.10473e-17
6981.99941 1.13496e-17
6983.99626 1.08728e-17
6986.00329 1.08865e-17
6988.00014 1.06685e-17
6989.99699 1.09643e-17
6992.00402 1.11423e-17
6994.00087 1.10722e-17
6995.99772 1.09559e-17
6998.00476 1.10792e-17
7000.00160 1.11300e-17
7001.99845 1.08651e-17
7003.99530 1.09210e-17
7006.00234 1.09625e-17
7007.99918 1.09855e-17
7009.99603 1.11798e-17
7012.00307 1.13358e-17
7013.99992 1.14768e-17
7015.99676 1.12548e-17
7018.00380 1.13091e-17
7020.00065 1.11489e-17
7021.99750 1.10980e-17
7024.00453 1.08906e-17
7026.00138 1.08487e-17
7027.99823 1.11626e-17
7029.99508 1.13806e-17
7032.00211 1.14578e-17
7033.99896 1.12064e-17
7035.99581 1.09154e-17
7038.00284 1.09905e-17
7039.99969 1.11158e-17
7041.99654 1.08197e-17
7044.00358 1.08640e-17
7046.00042 1.07983e-17
7047.99727 1.08028e-17
7050.00431 1.05954e-17
7052.00116 1.05990e-17
7053.99800 1.04672e-17
7055.99485 1.02170e-17
7058.00189 1.05295e-17
7059.99874 1.07097e-17
7061.99558 1.06867e-17
7064.00262 1.03858e-17
7065.99947 1.04423e-17
7067.99632 1.04439e-17
7070.00335 1.04709e-17
7072.00020 1.00854e-17
7073.99705 9.67036e-18
7076.00408 1.00303e-17
7078.00093 9.93807e-18
7079.99778 1.02066e-17
7081.99463 1.01137e-17
7084.00166 9.80093e-18
7085.99851 9.89584e-18
7087.99536 9.93670e-18
7090.00240 1.00103e-17
7091.99924 9.76829e-18
7093.99609 9.63038e-18
7096.00313 9.80221e-18
7097.99998 9.58603e-18
7099.99682 9.75587e-18
7102.00386 9.60254e-18
7104.00071 9.81592e-18
7105.99756 9.73569e-18
7108.00459 9.44573e-18
7110.00144 9.78889e-18
7111.99829 9.57771e-18
7113.99514 9.40335e-18
7116.00217 9.94901e-18
7117.99902 9.83002e-18
7119.99587 9.53340e-18
7122.00290 9.56808e-18
7123.99975 9.56958e-18
7125.99660 9.55223e-18
7128.00364 9.49093e-18
7130.00048 9.48737e-18
7131.99733 9.69207e-18
7134.00437 9.53116e-18
7136.00122 9.35548e-18
7137.99806 9.42979e-18
7139.99491 9.76833e-18
7142.00195 9.95463e-18
7143.99880 9.68423e-18
7145.99564 9.61728e-18
7148.00268 9.85403e-18
7149.99953 9.76252e-18
7151.99638 9.73041e-18
7154.00341 9.86314e-18
7156.00026 9.67809e-18
7157.99711 9.82475e-18
7160.00414 9.92483e-18
7162.00099 9.97497e-18
7163.99784 9.85347e-18
7166.00488 9.75388e-18
7168.00172 9.53640e-18
7169.99857 9.78958e-18
7171.99542 9.95999e-18
7174.00246 9.77067e-18
7175.99930 1.01493e-17
7177.99615 1.02862e-17
7180.00319 9.86109e-18
7182.00004 9.84728e-18
7183.99688 1.02339e-17
7186.00392 1.02537e-17
7188.00077 1.03907e-17
7189.99762 1.01508e-17
7192.00465 1.03626e-17
7194.00150 1.05639e-17
7195.99835 1.07042e-17
7197.99520 1.05552e-17
7200.00223 1.04065e-17
7201.99908 1.05711e-17
7203.99593 1.07293e-17
7206.00296 1.10830e-17
7207.99981 1.09378e-17
7209.99666 1.08551e-17
7212.00370 1.10172e-17
7214.00054 1.10473e-17
7215.99739 1.13870e-17
7218.00443 1.15269e-17
7220.00128 1.15318e-17
7221.99812 1.15576e-17
7223.99497 1.16027e-17
7226.00201 1.15260e-17
7227.99886 1.12592e-17
7229.99570 1.14706e-17
7232.00274 1.16850e-17
7233.99959 1.15559e-17
7235.99644 1.19017e-17
7238.00347 1.22941e-17
7240.00032 1.17400e-17
7241.99717 1.14430e-17
7244.00420 1.17031e-17
7246.00105 1.17873e-17
7247.99790 1.18785e-17
7249.99475 1.14814e-17
7252.00178 1.13433e-17
7253.99863 1.15727e-17
7255.99548 1.17004e-17
7258.00252 1.18714e-17
7259.99936 1.15900e-17
7261.99621 1.15444e-17
7264.00325 1.16074e-17
7266.00010 1.20405e-17
7267.99694 1.27958e-17
7270.00398 1.25210e-17
7272.00083 1.21143e-17
7273.99768 1.15490e-17
7276.00471 1.14382e-17
7278.00156 1.14175e-17
7279.99841 1.16035e-17
7281.99526 1.17532e-17
7284.00229 1.18373e-17
7285.99914 1.17478e-17
7287.99599 1.15912e-17
7290.00302 1.17590e-17
7291.99987 1.18480e-17
7293.99672 1.19979e-17
7296.00376 1.19938e-17
7298.00060 1.16354e-17
7299.99745 1.13863e-17
7302.00449 1.18768e-17
7304.00134 1.23186e-17
7305.99818 1.21077e-17
7307.99503 1.20335e-17
7310.00207 1.20721e-17
7311.99892 1.20500e-17
7313.99576 1.19392e-17
7316.00280 1.20378e-17
7317.99965 1.24419e-17
7319.99650 1.22128e-17
7322.00353 1.18967e-17
7324.00038 1.20187e-17
7325.99723 1.19062e-17
7328.00426 1.22065e-17
7330.00111 1.24129e-17
7331.99796 1.21974e-17
7334.00500 1.21984e-17
7336.00184 1.23067e-17
7337.99869 1.24785e-17
7339.99554 1.25559e-17
7342.00258 1.25378e-17
7343.99942 1.24726e-17
7345.99627 1.22370e-17
7348.00331 1.21482e-17
7350.00016 1.21021e-17
7351.99700 1.26993e-17
7354.00404 1.25820e-17
7356.00089 1.19031e-17
7357.99774 1.23340e-17
7360.00477 1.24190e-17
7362.00162 1.22231e-17
7363.99847 1.24186e-17
7365.99532 1.25796e-17
7368.00235 1.23087e-17
7369.99920 1.23172e-17
7371.99605 1.24478e-17
7374.00308 1.22360e-17
7375.99993 1.23051e-17
7377.99678 1.22624e-17
7380.00382 1.22945e-17
7382.00066 1.22827e-17
7383.99751 1.21317e-17
7386.00455 1.21898e-17
7388.00140 1.22900e-17
7389.99824 1.21441e-17
7391.99509 1.22199e-17
7394.00213 1.25375e-17
7395.99898 1.22686e-17
7397.99582 1.23305e-17
7400.00286 1.22353e-17
7401.99971 1.23070e-17
7403.99656 1.19113e-17
7406.00359 1.23906e-17
7408.00044 1.24437e-17
7409.99729 1.23514e-17
7412.00432 1.19924e-17
7414.00117 1.21208e-17
7415.99802 1.22564e-17
7417.99487 1.21309e-17
7420.00190 1.20168e-17
7421.99875 1.24147e-17
7423.99560 1.22701e-17
7426.00264 1.22623e-17
7427.99948 1.25453e-17
7429.99633 1.22456e-17
7432.00337 1.20811e-17
7434.00022 1.27097e-17
7435.99706 1.26416e-17
7438.00410 1.28492e-17
7440.00095 1.27608e-17
7441.99780 1.23750e-17
7444.00483 1.24549e-17
7446.00168 1.24707e-17
7447.99853 1.23768e-17
7449.99538 1.25396e-17
7452.00241 1.25391e-17
7453.99926 1.24544e-17
7455.99611 1.29090e-17
7458.00314 1.28019e-17
7459.99999 1.26131e-17
7461.99684 1.25552e-17
7464.00388 1.26060e-17
7466.00072 1.24567e-17
7467.99757 1.25886e-17
7470.00461 1.25087e-17
7472.00146 1.22163e-17
7473.99830 1.21119e-17
7475.99515 1.20105e-17
7478.00219 1.19158e-17
7479.99904 1.16306e-17
7481.99588 1.19574e-17
7484.00292 1.21454e-17
7485.99977 1.19436e-17
7487.99662 1.17252e-17
7490.00365 1.19434e-17
7492.00050 1.15860e-17
7493.99735 1.13791e-17
7496.00438 1.16081e-17
7498.00123 1.15019e-17
7499.99808 1.12404e-17
7501.99493 1.12015e-17
7504.00196 1.11436e-17
7505.99881 1.08252e-17
7507.99566 1.09057e-17
7510.00270 1.07208e-17
7511.99954 1.06565e-17
7513.99639 1.06257e-17
7516.00343 1.07229e-17
7518.00028 1.05694e-17
7519.99712 1.04230e-17
7522.00416 1.02604e-17
7524.00101 1.01900e-17
7525.99786 1.03298e-17
7527.99470 1.01200e-17
7530.00174 9.87565e-18
7531.99859 1.02671e-17
7533.99544 1.04476e-17
7536.00247 1.01258e-17
7537.99932 9.96450e-18
7539.99617 9.81070e-18
7542.00320 9.76944e-18
7544.00005 9.62587e-18
7545.99690 9.50504e-18
7548.00394 9.69552e-18
7550.00078 9.74469e-18
7551.99763 9.48849e-18
7554.00467 9.30858e-18
7556.00152 9.38369e-18
7557.99836 9.42616e-18
7559.99521 9.42224e-18
7562.00225 9.27044e-18
7563.99910 9.15057e-18
7565.99594 9.25515e-18
7568.00298 9.13279e-18
7569.99983 9.32090e-18
7571.99668 9.13659e-18
7574.00371 9.13826e-18
7576.00056 9.49071e-18
7577.99741 9.19955e-18
7580.00444 9.01481e-18
7582.00129 9.36109e-18
7583.99814 9.22812e-18
7585.99499 9.16509e-18
7588.00202 9.40997e-18
7589.99887 9.54502e-18
7591.99572 9.32386e-18
7594.00276 9.23323e-18
7595.99960 9.02408e-18
7597.99645 8.96963e-18
7600.00349 9.19549e-18
7602.00034 9.44812e-18
7603.99718 9.20166e-18
7606.00422 8.47718e-18
7608.00107 9.06388e-18
7609.99792 9.33709e-18
7612.00495 9.33583e-18
7614.00180 9.67495e-18
7615.99865 9.24668e-18
7617.99550 9.22708e-18
7620.00253 9.10687e-18
7621.99938 9.12198e-18
7623.99623 9.30867e-18
7626.00326 9.35937e-18
7628.00011 9.24124e-18
7629.99696 9.36895e-18
7632.00400 9.40763e-18
7634.00084 9.45172e-18
7635.99769 9.45409e-18
7638.00473 9.46269e-18
7640.00158 9.41442e-18
7641.99842 9.58921e-18
7643.99527 9.88701e-18
7646.00231 9.19372e-18
7647.99916 9.72417e-18
7649.99600 9.92053e-18
7652.00304 9.86264e-18
7653.99989 9.85352e-18
7655.99674 9.91739e-18
7658.00377 1.03209e-17
7660.00062 1.02544e-17
7661.99747 1.01762e-17
7664.00450 1.02908e-17
7666.00135 1.00881e-17
7667.99820 1.05315e-17
7669.99505 1.04060e-17
7672.00208 1.00184e-17
7673.99893 1.02599e-17
7675.99578 1.04001e-17
7678.00282 1.02376e-17
7679.99966 1.06560e-17
7681.99651 1.10094e-17
7684.00355 1.08128e-17
7686.00040 1.07615e-17
7687.99724 1.10418e-17
7690.00428 1.09038e-17
7692.00113 1.09344e-17
7693.99798 1.13703e-17
7695.99482 1.15093e-17
7698.00186 1.11782e-17
7699.99871 1.11872e-17
7701.99556 1.12911e-17
7704.00259 1.13434e-17
7705.99944 1.13424e-17
7707.99629 1.12322e-17
7710.00332 1.13952e-17
7712.00017 1.17721e-17
7713.99702 1.15929e-17
7716.00406 1.16303e-17
7718.00090 1.17175e-17
7719.99775 1.16152e-17
7722.00479 1.17094e-17
7724.00164 1.20680e-17
7725.99848 1.20209e-17
7727.99533 1.19241e-17
7730.00237 1.21746e-17
7731.99922 1.22677e-17
7733.99606 1.21840e-17
7736.00310 1.21955e-17
7737.99995 1.21635e-17
7739.99680 1.21409e-17
7742.00383 1.25117e-17
7744.00068 1.25923e-17
7745.99753 1.23676e-17
7748.00456 1.22816e-17
7750.00141 1.19846e-17
7751.99826 1.29329e-17
7753.99511 1.33662e-17
7756.00214 1.28338e-17
7757.99899 1.28749e-17
7759.99584 1.31371e-17
7762.00288 1.31410e-17
7763.99972 1.30894e-17
7765.99657 1.30412e-17
7768.00361 1.29758e-17
7770.00046 1.29656e-17
7771.99730 1.30489e-17
7774.00434 1.31791e-17
7776.00119 1.33356e-17
7777.99804 1.30985e-17
7780.00507 1.31267e-17
7782.00192 1.30248e-17
7783.99877 1.30841e-17
7785.99562 1.37740e-17
7788.00265 1.37323e-17
7789.99950 1.37472e-17
7791.99635 1.38423e-17
7794.00338 1.34770e-17
7796.00023 1.39273e-17
7797.99708 1.40545e-17
7800.00412 1.37550e-17
7802.00096 1.38780e-17
7803.99781 1.37819e-17
7806.00485 1.37298e-17
7808.00170 1.38489e-17
7809.99854 1.38034e-17
7811.99539 1.37620e-17
7814.00243 1.38163e-17
7815.99928 1.37300e-17
7817.99612 1.35926e-17
7820.00316 1.34056e-17
7822.00001 1.32053e-17
7823.99686 1.36017e-17
7826.00389 1.36119e-17
7828.00074 1.33670e-17
7829.99759 1.34896e-17
7832.00462 1.31722e-17
7834.00147 1.31112e-17
7835.99832 1.34475e-17
7837.99517 1.31272e-17
7840.00220 1.29834e-17
7841.99905 1.28757e-17
7843.99590 1.29540e-17
7846.00294 1.27962e-17
7847.99978 1.25288e-17
7849.99663 1.28620e-17
7852.00367 1.27885e-17
7854.00052 1.26409e-17
7855.99736 1.27785e-17
7858.00440 1.28129e-17
7860.00125 1.25947e-17
7861.99810 1.22391e-17
7863.99494 1.21097e-17
7866.00198 1.24763e-17
7867.99883 1.23969e-17
7869.99568 1.19870e-17
7872.00271 1.21192e-17
7873.99956 1.19543e-17
7875.99641 1.18650e-17
7878.00344 1.20147e-17
7880.00029 1.22982e-17
7881.99714 1.23213e-17
7884.00418 1.21274e-17
7886.00102 1.21280e-17
7887.99787 1.21750e-17
7889.99472 1.18806e-17
7892.00176 1.21999e-17
7893.99860 1.23520e-17
7895.99545 1.24282e-17
7898.00249 1.23497e-17
7899.99934 1.21951e-17
7901.99618 1.22455e-17
7904.00322 1.21639e-17
7906.00007 1.20192e-17
7907.99692 1.20376e-17
7910.00395 1.25159e-17
7912.00080 1.22931e-17
7913.99765 1.19883e-17
7916.00468 1.23130e-17
7918.00153 1.22632e-17
7919.99838 1.19900e-17
7921.99523 1.18000e-17
7924.00226 1.18996e-17
7925.99911 1.16749e-17
7927.99596 1.19980e-17
7930.00300 1.21173e-17
7931.99984 1.22250e-17
7933.99669 1.20218e-17
7936.00373 1.19868e-17
7938.00058 1.17616e-17
7939.99742 1.17906e-17
7942.00446 1.18374e-17
7944.00131 1.16984e-17
7945.99816 1.16981e-17
7947.99500 1.18410e-17
7950.00204 1.18505e-17
7951.99889 1.14558e-17
7953.99574 1.14504e-17
7956.00277 1.17125e-17
7957.99962 1.17663e-17
7959.99647 1.16837e-17
7962.00350 1.17172e-17
7964.00035 1.17129e-17
7965.99720 1.19320e-17
7968.00424 1.17635e-17
7970.00108 1.15536e-17
7971.99793 1.14601e-17
7973.99478 1.17480e-17
7976.00182 1.16503e-17
7977.99866 1.14810e-17
7979.99551 1.11667e-17
7982.00255 1.10778e-17
7983.99940 1.14229e-17
7985.99624 1.14483e-17
7988.00328 1.17449e-17
7990.00013 1.14181e-17
7991.99698 1.12522e-17
7994.00401 1.13359e-17
7996.00086 1.11173e-17
7997.99771 1.13236e-17
8000.00474 1.12755e-17
8002.00159 1.14204e-17
8003.99844 1.11084e-17
8005.99529 1.09485e-17
8008.00232 1.11146e-17
8009.99917 1.11666e-17
8011.99602 1.10812e-17
8014.00306 1.09325e-17
8015.99990 1.07504e-17
8017.99675 1.07684e-17
8020.00379 1.08696e-17
8022.00064 1.10254e-17
8023.99748 1.09585e-17
8026.00452 1.04884e-17
8028.00137 1.04160e-17
8029.99822 1.05700e-17
8031.99506 1.06748e-17
8034.00210 1.05968e-17
8035.99895 1.05580e-17
8037.99580 1.05486e-17
8040.00283 1.05708e-17
8041.99968 1.05115e-17
8043.99653 1.03333e-17
8046.00356 1.04952e-17
8048.00041 1.06194e-17
8049.99726 1.04504e-17
8052.00430 1.03589e-17
8054.00114 1.02914e-17
8055.99799 1.03466e-17
8057.99484 1.04071e-17
8060.00188 1.03788e-17
8061.99872 1.03453e-17
8063.99557 1.00854e-17
8066.00261 9.97512e-18
8067.99946 1.02019e-17
8069.99630 9.90079e-18
8072.00334 9.73054e-18
8074.00019 9.84745e-18
8075.99704 9.57073e-18
8078.00407 9.91901e-18
8080.00092 9.88856e-18
8081.99777 9.82374e-18
8084.00480 9.77451e-18
8086.00165 9.61752e-18
8087.99850 9.37394e-18
8089.99535 9.19696e-18
8092.00238 9.20442e-18
8093.99923 9.30600e-18
8095.99608 9.28010e-18
8098.00312 9.56522e-18
8099.99996 9.39798e-18
8101.99681 9.49579e-18
8104.00385 9.47905e-18
8106.00070 9.52876e-18
8107.99754 9.35528e-18
8110.00458 9.13567e-18
8112.00143 9.09403e-18
8113.99828 9.18571e-18
8115.99512 8.92761e-18
8118.00216 8.94863e-18
8119.99901 8.91047e-18
8121.99586 8.92251e-18
8124.00289 8.63659e-18
8125.99974 8.84084e-18
8127.99659 8.70050e-18
8130.00362 8.68468e-18
8132.00047 8.58358e-18
8133.99732 8.59849e-18
8136.00436 8.30750e-18
8138.00120 7.97317e-18
8139.99805 8.06275e-18
8141.99490 8.24270e-18
8144.00194 8.24950e-18
8145.99878 8.27838e-18
8147.99563 8.43210e-18
8150.00267 8.05418e-18
8151.99952 8.06068e-18
8153.99636 7.91395e-18
8156.00340 7.59391e-18
8158.00025 7.99557e-18
8159.99710 7.99180e-18
8162.00413 7.61661e-18
8164.00098 7.59730e-18
8165.99783 7.40466e-18
8167.99468 7.24188e-18
8170.00171 6.94957e-18
8171.99856 6.86919e-18
8173.99541 7.09552e-18
8176.00244 7.11518e-18
8177.99929 6.56944e-18
8179.99614 6.58418e-18
8182.00318 6.50758e-18
8184.00002 6.30170e-18
8185.99687 6.12029e-18
8188.00391 6.16905e-18
8190.00076 6.05419e-18
8191.99760 6.09309e-18
8194.00464 6.12497e-18
8196.00149 5.96328e-18
8197.99834 5.99099e-18
8199.99518 5.80481e-18
8202.00222 5.68485e-18
8203.99907 5.49589e-18
8205.99592 5.45115e-18
8208.00295 5.55175e-18
8209.99980 5.50687e-18
8211.99665 5.48306e-18
8214.00368 5.27682e-18
8216.00053 5.37501e-18
8217.99738 5.31879e-18
8220.00442 5.22876e-18
8222.00126 4.96869e-18
8223.99811 5.03138e-18
8225.99496 5.46263e-18
8228.00200 5.04101e-18
8229.99884 4.78602e-18
8231.99569 4.68209e-18
8234.00273 4.52130e-18
8235.99958 4.47435e-18
8237.99642 4.51225e-18
8240.00346 4.51138e-18
8242.00031 4.36147e-18
8243.99716 4.44127e-18
8246.00419 4.40368e-18
8248.00104 4.27246e-18
8249.99789 4.43778e-18
8252.00492 4.55702e-18
8254.00177 4.40436e-18
8255.99862 4.43988e-18
8257.99547 3.84505e-18
8260.00250 3.62291e-18
8261.99935 4.46915e-18
8263.99620 4.45391e-18
8266.00324 4.49527e-18
8268.00008 4.50363e-18
8269.99693 4.44323e-18
8272.00397 4.29218e-18
8274.00082 4.37034e-18
8275.99766 4.43281e-18
8278.00470 4.33817e-18
8280.00155 4.50218e-18
8281.99840 4.63477e-18
8283.99524 4.04812e-18
8286.00228 4.28791e-18
8287.99913 4.31195e-18
8289.99598 4.11206e-18
8292.00301 4.49434e-18
8293.99986 4.60935e-18
8295.99671 4.09404e-18
8298.00374 4.06849e-18
8300.00059 4.22206e-18
8301.99744 3.94653e-18
8304.00448 3.98253e-18
8306.00132 4.18121e-18
8307.99817 4.23605e-18
8309.99502 4.31076e-18
8312.00206 4.33076e-18
8313.99890 4.52494e-18
8315.99575 4.47609e-18
8318.00279 4.30148e-18
8319.99964 4.21042e-18
8321.99648 4.40592e-18
8324.00352 4.19000e-18
8326.00037 4.20954e-18
8327.99722 4.29151e-18
8330.00425 4.35191e-18
8332.00110 4.25123e-18
8333.99795 4.36235e-18
8335.99480 4.58264e-18
8338.00183 4.46337e-18
8339.99868 4.67241e-18
8341.99553 4.66743e-18
8344.00256 4.52551e-18
8345.99941 4.57783e-18
8347.99626 4.41151e-18
8350.00330 4.34174e-18
8352.00014 4.60554e-18
8353.99699 4.58290e-18
8356.00403 4.77912e-18
8358.00088 5.02391e-18
8359.99772 4.98865e-18
8362.00476 4.89167e-18
8364.00161 5.08538e-18
8365.99846 5.17923e-18
8367.99530 4.95533e-18
8370.00234 5.04199e-18
8371.99919 4.96516e-18
8373.99604 4.81030e-18
8376.00307 5.25539e-18
8377.99992 5.42905e-18
8379.99677 4.85324e-18
8382.00380 4.93299e-18
8384.00065 5.03156e-18
8385.99750 4.82196e-18
8388.00454 5.02209e-18
8390.00138 5.29481e-18
8391.99823 5.19126e-18
8393.99508 4.86334e-18
8396.00212 5.39632e-18
8397.99896 5.42682e-18
8399.99581 5.22203e-18
8402.00285 5.34008e-18
8403.99970 5.26248e-18
8405.99654 5.44300e-18
8408.00358 5.62260e-18
8410.00043 5.63853e-18
8411.99728 5.38267e-18
8414.00431 5.60626e-18
8416.00116 5.81181e-18
8417.99801 5.91071e-18
8419.99486 5.81377e-18
8422.00189 5.57524e-18
8423.99874 5.69168e-18
8425.99559 5.97141e-18
8428.00262 5.90016e-18
8429.99947 5.57761e-18
8431.99632 5.53793e-18
8434.00336 5.78459e-18
8436.00020 6.14757e-18
8437.99705 5.99821e-18
8440.00409 6.01812e-18
8442.00094 6.25651e-18
8443.99778 6.48398e-18
8446.00482 6.61820e-18
8448.00167 6.56146e-18
8449.99852 7.03216e-18
8451.99536 6.52309e-18
8454.00240 6.40622e-18
8455.99925 6.50730e-18
8457.99610 6.51198e-18
8460.00313 6.76654e-18
8461.99998 6.75414e-18
8463.99683 6.96953e-18
8466.00386 6.77251e-18
8468.00071 6.99895e-18
8469.99756 7.11248e-18
8472.00460 7.28431e-18
8474.00144 7.32983e-18
8475.99829 7.34193e-18
8477.99514 7.39072e-18
8480.00218 7.71247e-18
8481.99902 7.37502e-18
8483.99587 7.09922e-18
8486.00291 7.65616e-18
8487.99976 7.98343e-18
8489.99660 7.92327e-18
8492.00364 8.03369e-18
8494.00049 8.18770e-18
8495.99734 8.08126e-18
8498.00437 8.23476e-18
8500.00122 8.25567e-18
8501.99807 8.34710e-18
8504.00510 8.49194e-18
8506.00195 8.21974e-18
8507.99880 8.42597e-18
8509.99565 8.60597e-18
8512.00268 8.76912e-18
8513.99953 9.10900e-18
8515.99638 9.06850e-18
8518.00342 9.03768e-18
8520.00026 9.20308e-18
8521.99711 9.42093e-18
8524.00415 1.00234e-17
8526.00100 1.01364e-17
8527.99784 9.80233e-18
8529.99469 1.01655e-17
8532.00173 1.02388e-17
8533.99858 9.93366e-18
8535.99542 1.02464e-17
8538.00246 1.07941e-17
8539.99931 1.07188e-17
8541.99616 1.09145e-17
8544.00319 1.11867e-17
8546.00004 1.11435e-17
8547.99689 1.14949e-17
8550.00392 1.17024e-17
8552.00077 1.15341e-17
8553.99762 1.20306e-17
8556.00466 1.22481e-17
8558.00150 1.19092e-17
8559.99835 1.18629e-17
8561.99520 1.23091e-17
8564.00224 1.23730e-17
8565.99908 1.21860e-17
8567.99593 1.24696e-17
8570.00297 1.29418e-17
8571.99982 1.30501e-17
8573.99666 1.30235e-17
8576.00370 1.32833e-17
8578.00055 1.39609e-17
8579.99740 1.36028e-17
8582.00443 1.33146e-17
8584.00128 1.35112e-17
8585.99813 1.35984e-17
8587.99498 1.40254e-17
8590.00201 1.44276e-17
8591.99886 1.44835e-17
8593.99571 1.44553e-17
8596.00274 1.45947e-17
8597.99959 1.48900e-17
8599.99644 1.49589e-17
8602.00348 1.51384e-17
8604.00032 1.52085e-17
8605.99717 1.55736e-17
8608.00421 1.55365e-17
8610.00106 1.50982e-17
8611.99790 1.53578e-17
8613.99475 1.56726e-17
8616.00179 1.57114e-17
8617.99864 1.59836e-17
8619.99548 1.66849e-17
8622.00252 1.67899e-17
8623.99937 1.61187e-17
8625.99622 1.61521e-17
8628.00325 1.71626e-17
8630.00010 1.71303e-17
8631.99695 1.67485e-17
8634.00398 1.71868e-17
8636.00083 1.75893e-17
8637.99768 1.73090e-17
8640.00472 1.74814e-17
8642.00156 1.79594e-17
8643.99841 1.79123e-17
8645.99526 1.77856e-17
8648.00230 1.77564e-17
8649.99914 1.83273e-17
8651.99599 1.87065e-17
8654.00303 1.88140e-17
8655.99988 1.91185e-17
8657.99672 1.93705e-17
8660.00376 1.94939e-17
8662.00061 1.97403e-17
8663.99746 1.96312e-17
8665.99430 1.96158e-17
8668.00134 1.94434e-17
8669.99819 1.92708e-17
8671.99504 1.96836e-17
8674.00207 1.98862e-17
8675.99892 2.02647e-17
8677.99577 2.00181e-17
8680.00280 1.99099e-17
8681.99965 2.01109e-17
8683.99650 1.98814e-17
8686.00354 2.00559e-17
8688.00038 2.03678e-17
8689.99723 2.04791e-17
8692.00427 2.07829e-17
8694.00112 2.11044e-17
8695.99796 2.09281e-17
8698.00500 2.06034e-17
8700.00185 2.04952e-17
8701.99870 2.06421e-17
8703.99554 2.11568e-17
8706.00258 2.08930e-17
8707.99943 2.03156e-17
8709.99628 2.01648e-17
8712.00331 2.07841e-17
8714.00016 2.10548e-17
8715.99701 2.04465e-17
8718.00404 2.03413e-17
8720.00089 2.02264e-17
8721.99774 2.03322e-17
8724.00478 2.03088e-17
8726.00162 1.98100e-17
8727.99847 2.00071e-17
8729.99532 1.97935e-17
8732.00236 1.96152e-17
8733.99920 1.94454e-17
8735.99605 1.95091e-17
8738.00309 1.99836e-17
8739.99994 1.95783e-17
8741.99678 1.91200e-17
8744.00382 1.87789e-17
8746.00067 1.87650e-17
8747.99752 1.88487e-17
8750.00455 1.88469e-17
8752.00140 1.88168e-17
8753.99825 1.88296e-17
8755.99510 1.87209e-17
8758.00213 1.81646e-17
8759.99898 1.78313e-17
8761.99583 1.84449e-17
8764.00286 1.89096e-17
8765.99971 1.87578e-17
8767.99656 1.87499e-17
8770.00360 1.82719e-17
8772.00044 1.81331e-17
8773.99729 1.83410e-17
8776.00433 1.85618e-17
8778.00118 1.83993e-17
8779.99802 1.77428e-17
8782.00506 1.74777e-17
8784.00191 1.73114e-17
8785.99876 1.76374e-17
8787.99560 1.78145e-17
8790.00264 1.77292e-17
8791.99949 1.74544e-17
8793.99634 1.75280e-17
8796.00337 1.72169e-17
8798.00022 1.73022e-17
8799.99707 1.74937e-17
8802.00410 1.74136e-17
8804.00095 1.74812e-17
8805.99780 1.75008e-17
8807.99465 1.72726e-17
8810.00168 1.68152e-17
8811.99853 1.71546e-17
8813.99538 1.71947e-17
8816.00242 1.71732e-17
8817.99926 1.70781e-17
8819.99611 1.65812e-17
8822.00315 1.66815e-17
8824.00000 1.66143e-17
8825.99684 1.67390e-17
8828.00388 1.70715e-17
8830.00073 1.70988e-17
8831.99758 1.66268e-17
8834.00461 1.64314e-17
8836.00146 1.65508e-17
8837.99831 1.67261e-17
8840.00534 1.63941e-17
8842.00219 1.60432e-17
8843.99904 1.61295e-17
8845.99589 1.62968e-17
8848.00292 1.62491e-17
8849.99977 1.63998e-17
8851.99662 1.65254e-17
8854.00366 1.67517e-17
8856.00050 1.64451e-17
8857.99735 1.60028e-17
8860.00439 1.59785e-17
8862.00124 1.57974e-17
8863.99808 1.56537e-17
8865.99493 1.52809e-17
8868.00197 1.52512e-17
8869.99882 1.52322e-17
8871.99566 1.50302e-17
8874.00270 1.47103e-17
8875.99955 1.50023e-17
8877.99640 1.50401e-17
8880.00343 1.48692e-17
8882.00028 1.47618e-17
8883.99713 1.45679e-17
8886.00416 1.42861e-17
8888.00101 1.42366e-17
8889.99786 1.44417e-17
8892.00490 1.46218e-17
8894.00174 1.46520e-17
8895.99859 1.39967e-17
8897.99544 1.39478e-17
8900.00248 1.43249e-17
8901.99932 1.38969e-17
8903.99617 1.40845e-17
8906.00321 1.43929e-17
8908.00006 1.42095e-17
8909.99690 1.40590e-17
8912.00394 1.42116e-17
8914.00079 1.46353e-17
8915.99764 1.45468e-17
8918.00467 1.42343e-17
8920.00152 1.41964e-17
8921.99837 1.33990e-17
8923.99522 1.39114e-17
8926.00225 1.41820e-17
8927.99910 1.35727e-17
8929.99595 1.34661e-17
8932.00298 1.37670e-17
8933.99983 1.35882e-17
8935.99668 1.34039e-17
8938.00372 1.37252e-17
8940.00056 1.36669e-17
8941.99741 1.36479e-17
8944.00445 1.33651e-17
8946.00130 1.32259e-17
8947.99814 1.35444e-17
8949.99499 1.31149e-17
8952.00203 1.32561e-17
8953.99888 1.33622e-17
8955.99572 1.28695e-17
8958.00276 1.29385e-17
8959.99961 1.37217e-17
8961.99646 1.34372e-17
8964.00349 1.34354e-17
8966.00034 1.32229e-17
8967.99719 1.29642e-17
8970.00422 1.31889e-17
8972.00107 1.30268e-17
8973.99792 1.26441e-17
8976.00496 1.26697e-17
8978.00180 1.25516e-17
8979.99865 1.26566e-17
8981.99550 1.24222e-17
8984.00254 1.27412e-17
8985.99938 1.29461e-17
8987.99623 1.30107e-17
8990.00327 1.34264e-17
8992.00012 1.29773e-17
8993.99696 1.25280e-17
8996.00400 1.21922e-17
8998.00085 1.25266e-17
8999.99770 1.30721e-17
9001.99454 1.33194e-17
9004.00158 1.38205e-17
9005.99843 1.36312e-17
9007.99528 1.28006e-17
9010.00231 1.27674e-17
9011.99916 1.28737e-17
9013.99601 1.29564e-17
9016.00304 1.28954e-17
9017.99989 1.22544e-17
9019.99674 1.20363e-17
9022.00378 1.21924e-17
9024.00062 1.25425e-17
9025.99747 1.21656e-17
9028.00451 1.22565e-17
9030.00136 1.21711e-17
9031.99820 1.19024e-17
9033.99505 1.15725e-17
9036.00209 1.15076e-17
9037.99894 1.15784e-17
9039.99578 1.14427e-17
9042.00282 1.15054e-17
9043.99967 1.18427e-17
9045.99652 1.21645e-17
9048.00355 1.18764e-17
9050.00040 1.14326e-17
9051.99725 1.12154e-17
9054.00428 1.16570e-17
9056.00113 1.19539e-17
9057.99798 1.14525e-17
9059.99483 1.13805e-17
9062.00186 1.10648e-17
9063.99871 1.09659e-17
9065.99556 1.11669e-17
9068.00260 1.13333e-17
9069.99944 1.14630e-17
9071.99629 1.11330e-17
9074.00333 1.10362e-17
9076.00018 1.10251e-17
9077.99702 1.11423e-17
9080.00406 1.09399e-17
9082.00091 1.05378e-17
9083.99776 1.08843e-17
9085.99460 9.61192e-18
9088.00164 8.22009e-18
9089.99849 9.92054e-18
9091.99534 1.11112e-17
9094.00237 1.07377e-17
9095.99922 1.05701e-17
9097.99607 1.08910e-17
9100.00310 1.06390e-17
9101.99995 1.02813e-17
9103.99680 1.04583e-17
9106.00384 1.05670e-17
9108.00068 1.03642e-17
9109.99753 1.02514e-17
9112.00457 1.06066e-17
9114.00142 1.06876e-17
9115.99826 1.06235e-17
9117.99511 1.06413e-17
9120.00215 1.03098e-17
9121.99900 9.82999e-18
9123.99584 9.97255e-18
9126.00288 9.77678e-18
9127.99973 1.01829e-17
9129.99658 1.05068e-17
9132.00361 1.04242e-17
9134.00046 1.06781e-17
9135.99731 9.89208e-18
9138.00434 9.65879e-18
9140.00119 1.01625e-17
9141.99804 1.00508e-17
9143.99489 1.00354e-17
9146.00192 1.03049e-17
9147.99877 1.03265e-17
9149.99562 1.04612e-17
9152.00266 1.04487e-17
9153.99950 1.04259e-17
9155.99635 9.99337e-18
9158.00339 9.89629e-18
9160.00024 9.73522e-18
9161.99708 9.64685e-18
9164.00412 1.00156e-17
9166.00097 9.78282e-18
9167.99782 9.69006e-18
9170.00485 1.01190e-17
9172.00170 1.05845e-17
9173.99855 1.07244e-17
9175.99540 9.88674e-18
9178.00243 1.02019e-17
9179.99928 9.99240e-18
9181.99613 1.01972e-17
9184.00316 1.00458e-17
9186.00001 9.57078e-18
9187.99686 9.74391e-18
9190.00390 1.00670e-17
9192.00074 1.01296e-17
9193.99759 9.98510e-18
9196.00463 1.02333e-17
9198.00148 9.89276e-18
9199.99832 9.88508e-18
9201.99517 1.05703e-17
9204.00221 1.01248e-17
9205.99906 9.93161e-18
9207.99590 1.00818e-17
9210.00294 1.04412e-17
9211.99979 1.06321e-17
9213.99664 1.10877e-17
9216.00367 1.14236e-17
9218.00052 1.15974e-17
9219.99737 1.18454e-17
9222.00440 1.15670e-17
9224.00125 1.13404e-17
9225.99810 1.10433e-17
9227.99495 1.09905e-17
9230.00198 1.05941e-17
9231.99883 1.06493e-17
9233.99568 1.10479e-17
9236.00272 1.18793e-17
9237.99956 1.21967e-17
9239.99641 1.24958e-17
9242.00345 1.18488e-17
9244.00030 1.14657e-17
9245.99714 1.16583e-17
9248.00418 1.15202e-17
9250.00103 1.10056e-17
9251.99788 1.11798e-17
9254.00491 1.13989e-17
9256.00176 1.13452e-17
9257.99861 1.12465e-17
9259.99546 1.14860e-17
9262.00249 1.13192e-17
9263.99934 1.09340e-17
9265.99619 1.09917e-17
9268.00322 1.08305e-17
9270.00007 1.09659e-17
9271.99692 1.13681e-17
9274.00396 1.10434e-17
9276.00080 1.15695e-17
9277.99765 1.15034e-17
9279.99450 1.08567e-17
9282.00154 1.09281e-17
9283.99838 1.11572e-17
9285.99523 1.10721e-17
9288.00227 1.09288e-17
9289.99912 1.08993e-17
9291.99596 1.11537e-17
9294.00300 1.16362e-17
9295.99985 1.15495e-17
9297.99670 1.11834e-17
9300.00373 1.10169e-17
9302.00058 1.11388e-17
9303.99743 1.07494e-17
9306.00446 1.05145e-17
9308.00131 1.12172e-17
9309.99816 1.08799e-17
9312.00520 1.13964e-17
9314.00204 1.18627e-17
9315.99889 1.18177e-17
9317.99574 1.12710e-17
9320.00278 1.03479e-17
9321.99962 1.10172e-17
9323.99647 1.22453e-17
9326.00351 1.16365e-17
9328.00036 1.09644e-17
9329.99720 1.11100e-17
9332.00424 1.17548e-17
9334.00109 1.18854e-17
9335.99794 1.10578e-17
9337.99478 1.02152e-17
9340.00182 1.06583e-17
9341.99867 1.11695e-17
9343.99552 1.06373e-17
9346.00255 9.14922e-18
9347.99940 9.24436e-18
9349.99625 1.02146e-17
9352.00328 1.10763e-17
9354.00013 1.11821e-17
9355.99698 1.12087e-17
9358.00402 1.07815e-17
9360.00086 1.04974e-17
9361.99771 9.98407e-18
9364.00475 9.68696e-18
9366.00160 1.04583e-17
9367.99844 1.08581e-17
9369.99529 1.09880e-17
9372.00233 1.06082e-17
9373.99918 1.08007e-17
9375.99602 1.16864e-17
9378.00306 1.06834e-17
9379.99991 9.94318e-18
9381.99676 9.28373e-18
9384.00379 1.02372e-17
9386.00064 9.76282e-18
9387.99749 9.27542e-18
9390.00452 9.49924e-18
9392.00137 9.77215e-18
9393.99822 9.54267e-18
9395.99507 1.00444e-17
9398.00210 1.01828e-17
9399.99895 1.01620e-17
9401.99580 1.04201e-17
9404.00284 9.99098e-18
9405.99968 9.75069e-18
9407.99653 1.03852e-17
9410.00357 1.01170e-17
9410.42057 1.01170e-17
9411.28203 1.02685e-17
9412.14349 1.04137e-17
9413.00495 1.05588e-17
9413.86641 1.06129e-17
9414.72788 1.06667e-17
9415.58934 1.05730e-17
9416.45080 1.04789e-17
9417.31226 1.02201e-17
9418.17372 9.96071e-18
9419.04520 9.55474e-18
9419.90666 9.14834e-18
9420.76813 8.62237e-18
9421.62959 8.09607e-18
9422.49105 7.63835e-18
9423.35251 7.18084e-18
9424.21397 7.24062e-18
9425.07544 7.30192e-18
9425.93690 8.02345e-18
9426.79836 8.74687e-18
9427.65982 9.65915e-18
9428.53130 1.05719e-17
9429.39276 1.12208e-17
9430.25423 1.18690e-17
9431.11569 1.18341e-17
9431.97715 1.17973e-17
9432.83861 1.08658e-17
9433.70007 9.93175e-18
9434.56153 8.84217e-18
9435.42300 7.75218e-18
9436.28446 7.27713e-18
9437.14592 6.80390e-18
9438.01740 7.06510e-18
9438.87886 7.32844e-18
9439.74032 8.27587e-18
9440.60179 9.22526e-18
9441.46325 1.03777e-17
9442.32471 1.15308e-17
9443.18617 1.22690e-17
9444.04763 1.30059e-17
9444.90910 1.31527e-17
9445.77056 1.32977e-17
9446.63202 1.28918e-17
9447.49348 1.24842e-17
9448.36496 1.17446e-17
9449.22642 1.10041e-17
9450.08788 1.02835e-17
9450.94935 9.56300e-18
9451.81081 9.09121e-18
9452.67227 8.62017e-18
9453.53373 8.48670e-18
9454.39520 8.35423e-18
9455.25666 8.58146e-18
9456.11812 8.80974e-18
9456.98960 9.34253e-18
9457.85106 9.87617e-18
9458.71252 1.05550e-17
9459.57398 1.12342e-17
9460.43545 1.17372e-17
9461.29691 1.22396e-17
9462.15837 1.23728e-17
9463.01983 1.25049e-17
9463.88129 1.24197e-17
9464.74276 1.23340e-17
9465.60422 1.21890e-17
9466.47570 1.20439e-17
9467.33716 1.19363e-17
9468.19862 1.18289e-17
9469.06008 1.18371e-17
9469.92155 1.18455e-17
9470.78301 1.18494e-17
9471.64447 1.18533e-17
9472.50593 1.17252e-17
9473.36739 1.15968e-17
9474.22885 1.14168e-17
9475.09032 1.12366e-17
9475.96180 1.11133e-17
9476.82326 1.09902e-17
9477.68472 1.11491e-17
9478.54618 1.13089e-17
9479.40764 1.20043e-17
9480.26911 1.27012e-17
9481.13057 1.36569e-17
9481.99203 1.46134e-17
9482.85349 1.52956e-17
9483.71495 1.59768e-17
9484.57642 1.61038e-17
9485.43788 1.62291e-17
9486.30936 1.57024e-17
9487.17082 1.51738e-17
9488.03228 1.42079e-17
9488.89374 1.32407e-17
9489.75520 1.24004e-17
9490.61667 1.15605e-17
9491.47813 1.12071e-17
9492.33959 1.08551e-17
9493.20105 1.09820e-17
9494.06252 1.11102e-17
9494.92398 1.17155e-17
9495.79546 1.23221e-17
9496.65692 1.34829e-17
9497.51838 1.46453e-17
9498.37984 1.62393e-17
9499.24130 1.78345e-17
9500.10277 1.92379e-17
9500.96423 2.06408e-17
9501.82569 2.13141e-17
9502.68715 2.19853e-17
9503.54861 2.18433e-17
9504.41008 2.16989e-17
9505.28155 2.07966e-17
9506.14302 1.98921e-17
9507.00448 1.86982e-17
9507.86594 1.75034e-17
9508.72740 1.65754e-17
9509.58887 1.56482e-17
9510.45033 1.50407e-17
9511.31179 1.44341e-17
9512.17325 1.40369e-17
9513.03471 1.36403e-17
9513.89617 1.35619e-17
9514.75764 1.34845e-17
9515.62912 1.38801e-17
9516.49058 1.42771e-17
9517.35204 1.51016e-17
9518.21350 1.59272e-17
9519.07496 1.70282e-17
9519.93643 1.81299e-17
9520.79789 1.92394e-17
9521.65935 2.03489e-17
9522.52081 2.10978e-17
9523.38227 2.18457e-17
9524.24374 2.21096e-17
9525.11522 2.23721e-17
9525.97668 2.23451e-17
9526.83814 2.23173e-17
9527.69960 2.21781e-17
9528.56106 2.20387e-17
9529.42252 2.19287e-17
9530.28399 2.18189e-17
9531.14545 2.18173e-17
9532.00691 2.18162e-17
9532.86837 2.17976e-17
9533.72984 2.17789e-17
9534.60131 2.16373e-17
9535.46278 2.14953e-17
9536.32424 2.11985e-17
9537.18570 2.09012e-17
9538.04716 2.04664e-17
9538.90862 2.00311e-17
9539.77009 1.98550e-17
9540.63155 1.96796e-17
9541.49301 2.01369e-17
9542.35447 2.05960e-17
9543.21593 2.14183e-17
9544.08741 2.22416e-17
9544.94888 2.30294e-17
9545.81034 2.38171e-17
9546.67180 2.41807e-17
9547.53326 2.45431e-17
9548.39472 2.40828e-17
9549.25619 2.36203e-17
9550.11765 2.27997e-17
9550.97911 2.19782e-17
9551.84057 2.17307e-17
9552.70203 2.14848e-17
9553.57351 2.18737e-17
9554.43497 2.22644e-17
9555.29644 2.27380e-17
9556.15790 2.32118e-17
9557.01936 2.33985e-17
9557.88082 2.35843e-17
9558.74228 2.32364e-17
9559.60375 2.28871e-17
9560.46521 2.21582e-17
9561.32667 2.14284e-17
9562.18813 2.11612e-17
9563.05961 2.08954e-17
9563.92107 2.15245e-17
9564.78254 2.21562e-17
9565.64400 2.32341e-17
9566.50546 2.43134e-17
9567.36692 2.53586e-17
9568.22838 2.64037e-17
9569.08985 2.68417e-17
9569.95131 2.72780e-17
9570.81277 2.67133e-17
9571.67423 2.61456e-17
9572.53569 2.50758e-17
9573.40717 2.40047e-17
9574.26863 2.30211e-17
9575.13010 2.20380e-17
9575.99156 2.15360e-17
9576.85302 2.10355e-17
9577.71448 2.13273e-17
9578.57594 2.16215e-17
9579.43741 2.22164e-17
9580.29887 2.28121e-17
9581.16033 2.29934e-17
9582.02179 2.31735e-17
9582.89327 2.28464e-17
9583.75473 2.25178e-17
9584.61620 2.18228e-17
9585.47766 2.11267e-17
9586.33912 2.05651e-17
9587.20058 2.00038e-17
9588.06204 2.03386e-17
9588.92351 2.06761e-17
9589.78497 2.18119e-17
9590.64643 2.29502e-17
9591.51791 2.40114e-17
9592.37937 2.50727e-17
9593.24083 2.55874e-17
9594.10229 2.61008e-17
9594.96376 2.61143e-17
9595.82522 2.61265e-17
9596.68668 2.57338e-17
9597.54814 2.53400e-17
9598.40960 2.47624e-17
9599.27107 2.41846e-17
9600.13253 2.36667e-17
9600.99399 2.31488e-17
9601.86547 2.28837e-17
9602.72693 2.26194e-17
9603.58839 2.27333e-17
9604.44986 2.28486e-17
9605.31132 2.33206e-17
9606.17278 2.37937e-17
9607.03424 2.45174e-17
9607.89570 2.52416e-17
9608.75717 2.57568e-17
9609.61863 2.62713e-17
9610.48009 2.61344e-17
9611.35157 2.59954e-17
9612.21303 2.53944e-17
9613.07449 2.47923e-17
9613.93595 2.40821e-17
9614.79742 2.33715e-17
9615.65888 2.27986e-17
9616.52034 2.22261e-17
9617.38180 2.19962e-17
9618.24326 2.17673e-17
9619.10473 2.19332e-17
9619.96619 2.21003e-17
9620.82765 2.26050e-17
9621.69913 2.31107e-17
9622.56059 2.37721e-17
9623.42205 2.44338e-17
9624.28352 2.49986e-17
9625.14498 2.55631e-17
9626.00644 2.57899e-17
9626.86790 2.60155e-17
9627.72936 2.56779e-17
9628.59083 2.53388e-17
9629.45229 2.45034e-17
9630.31375 2.36667e-17
9631.17521 2.28279e-17
9632.04669 2.19890e-17
9632.90815 2.15305e-17
9633.76961 2.10731e-17
9634.63108 2.11443e-17
9635.49254 2.12170e-17
9636.35400 2.18021e-17
9637.21546 2.23886e-17
9638.07692 2.29326e-17
9638.93839 2.34764e-17
9639.79985 2.35205e-17
9640.67133 2.35631e-17
9641.53279 2.33938e-17
9642.39425 2.32238e-17
9643.25571 2.31756e-17
9644.11718 2.31278e-17
9644.97864 2.32816e-17
9645.84010 2.34363e-17
9646.70156 2.38250e-17
9647.56302 2.42143e-17
9648.42448 2.45782e-17
9649.28595 2.49418e-17
9650.15743 2.49427e-17
9651.01889 2.49423e-17
9651.88035 2.45789e-17
9652.74181 2.42143e-17
9653.60327 2.36383e-17
9654.46474 2.30614e-17
9655.32620 2.24810e-17
9656.18766 2.19006e-17
9657.04912 2.15563e-17
9657.91058 2.12127e-17
9658.77205 2.12389e-17
9659.64352 2.12662e-17
9660.50499 2.16957e-17
9661.36645 2.21264e-17
9662.22791 2.28232e-17
9663.08937 2.35208e-17
9663.95083 2.41299e-17
9664.81230 2.47387e-17
9665.67376 2.50547e-17
9666.53522 2.53699e-17
9667.39668 2.55014e-17
9668.25815 2.56325e-17
9669.11961 2.56419e-17
9669.99109 2.56509e-17
9670.85255 2.54332e-17
9671.71401 2.52145e-17
9672.57547 2.47408e-17
9673.43693 2.42661e-17
9674.29840 2.37299e-17
9675.15986 2.31934e-17
9676.02132 2.27880e-17
9676.88278 2.23832e-17
9677.74424 2.22437e-17
9678.61572 2.21049e-17
9679.47718 2.23206e-17
9680.33865 2.25372e-17
9681.20011 2.29303e-17
9682.06157 2.33237e-17
9682.92303 2.36469e-17
9683.78449 2.39698e-17
9684.64596 2.41497e-17
9685.50742 2.43289e-17
9686.36888 2.43555e-17
9687.23034 2.43816e-17
9688.10182 2.42805e-17
9688.96328 2.41792e-17
9689.82475 2.40130e-17
9690.68621 2.38466e-17
9691.54767 2.36266e-17
9692.40913 2.34064e-17
9693.27059 2.30995e-17
9694.13206 2.27921e-17
9694.99352 2.24434e-17
9695.85498 2.20947e-17
9696.71644 2.18282e-17
9697.57790 2.15620e-17
9698.44938 2.14392e-17
9699.31084 2.13169e-17
9700.17231 2.13145e-17
9701.03377 2.13125e-17
9701.89523 2.13797e-17
9702.75669 2.14472e-17
9703.61816 2.14716e-17
9704.47962 2.14958e-17
9705.34108 2.14044e-17
9706.20254 2.13128e-17
9707.06400 2.11759e-17
9707.93548 2.10388e-17
9708.79694 2.09292e-17
9709.65841 2.08196e-17
9710.51987 2.07768e-17
9711.38133 2.07342e-17
9712.24279 2.07841e-17
9713.10425 2.08343e-17
9713.96572 2.09080e-17
9714.82718 2.09817e-17
9715.68864 2.09958e-17
9716.55010 2.10099e-17
9717.41156 2.09408e-17
9718.28304 2.08715e-17
9719.14451 2.07097e-17
9720.00597 2.05475e-17
9720.86743 2.03794e-17
9721.72889 2.02113e-17
9722.59035 2.01702e-17
9723.45182 2.01295e-17
9724.31328 2.01568e-17
9725.17474 2.01843e-17
9726.03620 2.01064e-17
9726.89766 2.00281e-17
9727.76914 1.97834e-17
9728.63060 1.95382e-17
9729.49207 1.91589e-17
9730.35353 1.87793e-17
9731.21499 1.83464e-17
9732.07645 1.79134e-17
9732.93791 1.75758e-17
9733.79938 1.72385e-17
9734.66084 1.70888e-17
9735.52230 1.69397e-17
9736.38376 1.69599e-17
9737.25524 1.69806e-17
9738.11670 1.71289e-17
9738.97817 1.72777e-17
9739.83963 1.74721e-17
9740.70109 1.76667e-17
9741.56255 1.78260e-17
9742.42401 1.79852e-17
9743.28548 1.80663e-17
9744.14694 1.81472e-17
9745.00840 1.81247e-17
9745.86986 1.81018e-17
9746.74134 1.80102e-17
9747.60280 1.79184e-17
9748.46426 1.78053e-17
9749.32573 1.76920e-17
9750.18719 1.75686e-17
9751.04865 1.74451e-17
9751.91011 1.73173e-17
9752.77157 1.71894e-17
9753.63304 1.70531e-17
9754.49450 1.69167e-17
9755.35596 1.67629e-17
9756.22744 1.66091e-17
9757.08890 1.64700e-17
9757.95036 1.63308e-17
9758.81183 1.62536e-17
9759.67329 1.61765e-17
9760.53475 1.61977e-17
9761.39621 1.62192e-17
9762.25767 1.63702e-17
9763.11913 1.65216e-17
9763.98060 1.67549e-17
9764.84206 1.69884e-17
9765.71354 1.71701e-17
9766.57500 1.73516e-17
9767.43646 1.74160e-17
9768.29792 1.74800e-17
9769.15939 1.74702e-17
9770.02085 1.74601e-17
9770.88231 1.74127e-17
9771.74377 1.73653e-17
9772.60523 1.72987e-17
9773.46670 1.72320e-17
9774.32816 1.71694e-17
9775.19964 1.71068e-17
9776.06110 1.70667e-17
9776.92256 1.70265e-17
9777.78402 1.70210e-17
9778.64548 1.70156e-17
9779.50695 1.70604e-17
9780.36841 1.71054e-17
9781.22987 1.72048e-17
9782.09133 1.73045e-17
9782.95280 1.73725e-17
9783.81426 1.74404e-17
9784.68574 1.73834e-17
9785.54720 1.73260e-17
9786.40866 1.71893e-17
9787.27012 1.70524e-17
9788.13158 1.69212e-17
9788.99305 1.67901e-17
9789.85451 1.66946e-17
9790.71597 1.65992e-17
9791.57743 1.65519e-17
9792.43889 1.65046e-17
9793.30036 1.64733e-17
9794.16182 1.64421e-17
9795.03330 1.63598e-17
9795.89476 1.62773e-17
9796.75622 1.61634e-17
9797.61768 1.60496e-17
9798.47915 1.60025e-17
9799.34061 1.59556e-17
9800.20207 1.60081e-17
9801.06353 1.60608e-17
9801.92499 1.61663e-17
9802.78645 1.62719e-17
9803.64792 1.63834e-17
9804.51940 1.64949e-17
9805.38086 1.65573e-17
9806.24232 1.66195e-17
9807.10378 1.66060e-17
9807.96524 1.65923e-17
9808.82671 1.65559e-17
9809.68817 1.65193e-17
9810.54963 1.65103e-17
9811.41109 1.65013e-17
9812.27255 1.65514e-17
9813.13402 1.66018e-17
9813.99548 1.67259e-17
9814.86696 1.68503e-17
9815.72842 1.69600e-17
9816.58988 1.70698e-17
9817.45134 1.70714e-17
9818.31280 1.70726e-17
9819.17427 1.69785e-17
9820.03573 1.68842e-17
9820.89719 1.67339e-17
9821.75865 1.65834e-17
9822.62012 1.64348e-17
9823.48158 1.62862e-17
9824.35306 1.62068e-17
9825.21452 1.61277e-17
9826.07598 1.61077e-17
9826.93744 1.60879e-17
9827.79890 1.60727e-17
9828.66037 1.60574e-17
9829.52183 1.60334e-17
9830.38329 1.60094e-17
9831.24475 1.59928e-17
9832.10621 1.59763e-17
9832.97769 1.59634e-17
9833.83915 1.59505e-17
9834.70062 1.59201e-17
9835.56208 1.58896e-17
9836.42354 1.58319e-17
9837.28500 1.57741e-17
9838.14647 1.56947e-17
9839.00793 1.56153e-17
9839.86939 1.55209e-17
9840.73085 1.54264e-17
9841.59231 1.53201e-17
9842.45377 1.52139e-17
9843.32525 1.51080e-17
9844.18672 1.50020e-17
9845.04818 1.49340e-17
9845.90964 1.48661e-17
9846.77110 1.48655e-17
9847.63256 1.48650e-17
9848.49403 1.49227e-17
9849.35549 1.49805e-17
9850.21695 1.50797e-17
9851.07841 1.51790e-17
9851.93987 1.53035e-17
9852.81135 1.54282e-17
9853.67282 1.55592e-17
9854.53428 1.56903e-17
9855.39574 1.58158e-17
9856.25720 1.59414e-17
9857.11866 1.60526e-17
9857.98013 1.61637e-17
9858.84159 1.62368e-17
9859.70305 1.63098e-17
9860.56451 1.63175e-17
9861.42597 1.63250e-17
9862.29745 1.62637e-17
9863.15891 1.62021e-17
9864.02038 1.60834e-17
9864.88184 1.59644e-17
9865.74330 1.58100e-17
9866.60476 1.56554e-17
9867.46622 1.54962e-17
9868.32769 1.53371e-17
9869.18915 1.51909e-17
9870.05061 1.50448e-17
9870.92209 1.49097e-17
9871.78355 1.47746e-17
9872.64501 1.46527e-17
9873.50648 1.45309e-17
9874.36794 1.44328e-17
9875.22940 1.43348e-17
9876.09086 1.42687e-17
9876.95232 1.42028e-17
9877.81379 1.41763e-17
9878.67525 1.41499e-17
9879.53671 1.41665e-17
9880.39817 1.41833e-17
9881.26965 1.42377e-17
9882.13111 1.42922e-17
9882.99257 1.43746e-17
9883.85404 1.44571e-17
9884.71550 1.45497e-17
9885.57696 1.46424e-17
9886.43842 1.47259e-17
9887.29988 1.48095e-17
9888.16135 1.48658e-17
9889.02281 1.49221e-17
9889.88427 1.49362e-17
9890.74573 1.49501e-17
9891.61721 1.49215e-17
9892.47867 1.48928e-17
9893.34014 1.48291e-17
9894.20160 1.47653e-17
9895.06306 1.46748e-17
9895.92452 1.45842e-17
9896.78598 1.44755e-17
9897.64745 1.43667e-17
9898.50891 1.42539e-17
9899.37037 1.41410e-17
9900.23183 1.40428e-17
9901.09329 1.39446e-17
9901.96477 1.38640e-17
9902.82623 1.37835e-17
9903.68770 1.37047e-17
9904.54916 1.36260e-17
9905.41062 1.35526e-17
9906.27208 1.34794e-17
9907.13354 1.34461e-17
9907.99501 1.34129e-17
9908.85647 1.34360e-17
9909.71793 1.34594e-17
9910.57939 1.35232e-17
9911.45087 1.35872e-17
9912.31233 1.36661e-17
9913.17380 1.37450e-17
9914.03526 1.37846e-17
9914.89672 1.38242e-17
9915.75818 1.37815e-17
9916.61964 1.37386e-17
9917.48111 1.36287e-17
9918.34257 1.35186e-17
9919.20403 1.33678e-17
9920.07551 1.32168e-17
9920.93697 1.30550e-17
9921.79843 1.28932e-17
9922.65989 1.27508e-17
9923.52136 1.26085e-17
9924.38282 1.24990e-17
9925.24428 1.23895e-17
9926.10574 1.23179e-17
9926.96720 1.22465e-17
9927.82867 1.21932e-17
9928.69013 1.21399e-17
9929.56161 1.20732e-17
9930.42307 1.20066e-17
9931.28453 1.19164e-17
9932.14599 1.18261e-17
9933.00746 1.17169e-17
9933.86892 1.16076e-17
9934.73038 1.14886e-17
9935.59184 1.13695e-17
9936.45330 1.12541e-17
9937.31477 1.11387e-17
9938.17623 1.10445e-17
9939.03769 1.09505e-17
9939.90917 1.08999e-17
9940.77063 1.08494e-17
9941.63209 1.08485e-17
9942.49355 1.08477e-17
9943.35502 1.08733e-17
9944.21648 1.08990e-17
9945.07794 1.09314e-17
9945.93940 1.09638e-17
9946.80086 1.09979e-17
9947.66233 1.10321e-17
9948.52379 1.10621e-17
9949.39527 1.10922e-17
9950.25673 1.11072e-17
9951.11819 1.11221e-17
9951.97965 1.11150e-17
9952.84112 1.11077e-17
9953.70258 1.10926e-17
9954.56404 1.10775e-17
9955.42550 1.10702e-17
9956.28696 1.10629e-17
9957.14843 1.10529e-17
9958.00989 1.10429e-17
9958.88137 1.10157e-17
9959.74283 1.09884e-17
9960.60429 1.09366e-17
9961.46575 1.08847e-17
9962.32721 1.08036e-17
9963.18868 1.07224e-17
9964.05014 1.06362e-17
9964.91160 1.05500e-17
9965.77306 1.04993e-17
9966.63452 1.04487e-17
9967.49599 1.04431e-17
9968.36747 1.04375e-17
9969.22893 1.04612e-17
9970.09039 1.04850e-17
9970.95185 1.05356e-17
9971.81331 1.05864e-17
9972.67477 1.06756e-17
9973.53624 1.07649e-17
9974.39770 1.08879e-17
9975.25916 1.10109e-17
9976.12062 1.11413e-17
9976.98208 1.12716e-17
9977.85356 1.13884e-17
9978.71503 1.15052e-17
9979.57649 1.15985e-17
9980.43795 1.16917e-17
9981.29941 1.17579e-17
9982.16087 1.18240e-17
9983.02234 1.18772e-17
9983.88380 1.19304e-17
9984.74526 1.19848e-17
9985.60672 1.20393e-17
9986.46818 1.21020e-17
9987.32965 1.21647e-17
9988.20112 1.22394e-17
9989.06259 1.23140e-17
9989.92405 1.23743e-17
9990.78551 1.24345e-17
9991.64697 1.24506e-17
9992.50843 1.24666e-17
9993.36990 1.24609e-17
9994.23136 1.24551e-17
9995.09282 1.24659e-17
9995.95428 1.24767e-17
9996.81574 1.24974e-17
9997.67721 1.25181e-17
9998.54869 1.25243e-17
9999.41015 1.25305e-17
