# wavelength flux
3620.00016 7.46868e-18
3621.99701 7.26757e-18
3624.00404 6.73856e-18
3626.00089 7.27914e-18
3627.99774 7.12686e-18
3630.00478 6.80926e-18
3632.00162 6.93572e-18
3633.99847 7.24889e-18
3635.99532 7.24396e-18
3638.00236 6.93176e-18
3639.99920 6.38124e-18
3641.99605 6.64823e-18
3644.00309 6.70501e-18
3645.99994 6.08202e-18
3647.99678 6.46056e-18
3650.00382 6.57620e-18
3652.00067 5.90614e-18
3653.99752 6.10119e-18
3656.00455 5.59907e-18
3658.00140 5.39200e-18
3659.99825 5.33484e-18
3661.99510 5.62268e-18
3664.00213 5.90722e-18
3665.99898 5.77008e-18
3667.99583 4.88971e-18
3670.00286 4.69763e-18
3671.99971 5.18057e-18
3673.99656 5.13847e-18
3676.00360 5.09241e-18
3678.00044 5.83666e-18
3679.99729 5.81268e-18
3682.00433 5.45580e-18
3684.00118 6.03841e-18
3685.99802 6.09589e-18
3688.00506 5.85998e-18
3690.00191 6.27805e-18
3691.99876 6.57498e-18
3693.99560 6.37228e-18
3696.00264 6.69012e-18
3697.99949 6.87971e-18
3699.99634 6.71990e-18
3702.00337 7.18097e-18
3704.00022 7.88800e-18
3705.99707 8.08854e-18
3708.00410 7.54916e-18
3710.00095 7.60178e-18
3711.99780 7.35239e-18
3714.00484 7.30606e-18
3716.00168 7.91188e-18
3717.99853 8.10570e-18
3719.99538 7.64310e-18
3722.00242 7.74289e-18
3723.99926 8.08218e-18
3725.99611 8.05829e-18
3728.00315 7.72320e-18
3730.00000 7.30011e-18
3731.99684 7.40615e-18
3734.00388 7.51125e-18
3736.00073 7.71794e-18
3737.99758 7.60474e-18
3740.00461 7.62934e-18
3742.00146 7.60518e-18
3743.99831 7.05486e-18
3745.99516 6.94658e-18
3748.00219 7.29639e-18
3749.99904 7.64925e-18
3751.99589 7.71659e-18
3754.00292 7.40236e-18
3755.99977 7.05669e-18
3757.99662 7.13588e-18
3760.00366 7.29062e-18
3762.00050 7.05418e-18
3763.99735 7.35808e-18
3766.00439 7.21974e-18
3768.00124 7.23256e-18
3769.99808 6.98061e-18
3772.00512 6.64850e-18
3774.00197 6.55133e-18
3775.99882 6.74645e-18
3777.99566 6.67810e-18
3780.00270 6.60977e-18
3781.99955 6.55250e-18
3783.99640 6.49523e-18
3786.00343 6.43799e-18
3788.00028 6.38075e-18
3789.99713 6.32352e-18
3792.00416 6.26630e-18
3794.00101 6.20909e-18
3795.99786 6.15190e-18
3798.00490 6.09472e-18
3800.00174 6.03754e-18
3801.99859 5.98038e-18
3803.99544 5.92322e-18
3806.00248 5.86608e-18
3807.99932 5.80895e-18
3809.99617 5.75183e-18
3812.00321 5.69471e-18
3814.00006 5.63761e-18
3815.99690 5.58052e-18
3818.00394 5.52344e-18
3820.00079 5.57705e-18
3821.99764 5.61089e-18
3824.00467 5.57113e-18
3826.00152 5.59722e-18
3827.99837 5.55440e-18
3829.99522 5.38570e-18
3832.00225 5.54978e-18
3833.99910 5.48170e-18
3835.99595 5.71453e-18
3838.00298 5.86055e-18
3839.99983 5.65562e-18
3841.99668 5.88498e-18
3844.00372 5.74860e-18
3846.00056 5.68221e-18
3847.99741 5.77099e-18
3850.00445 6.00510e-18
3852.00130 5.88427e-18
3853.99814 5.78969e-18
3855.99499 6.14180e-18
3858.00203 6.14332e-18
3859.99888 6.62002e-18
3861.99572 6.55518e-18
3864.00276 6.60234e-18
3865.99961 7.14465e-18
3867.99646 7.20823e-18
3870.00349 7.33069e-18
3872.00034 7.05267e-18
3873.99719 6.85200e-18
3876.00422 7.26390e-18
3878.00107 7.60355e-18
3879.99792 7.62767e-18
3881.99477 7.76938e-18
3884.00180 7.92657e-18
3885.99865 7.78928e-18
3887.99550 7.91782e-18
3890.00254 8.71578e-18
3891.99938 8.75376e-18
3893.99623 8.63617e-18
3896.00327 8.83199e-18
3898.00012 8.50783e-18
3899.99696 8.54256e-18
3902.00400 8.48360e-18
3904.00085 8.57755e-18
3905.99770 9.37140e-18
3908.00473 9.54745e-18
3910.00158 9.23902e-18
3911.99843 9.32291e-18
3913.99528 9.57170e-18
3916.00231 9.59162e-18
3917.99916 9.61602e-18
3919.99601 9.37730e-18
3922.00304 9.45145e-18
3923.99989 9.64800e-18
3925.99674 1.00550e-17
3928.00378 9.81746e-18
3930.00062 9.95048e-18
3931.99747 1.01870e-17
3934.00451 1.01015e-17
3936.00136 1.04774e-17
3937.99820 1.14158e-17
3939.99505 1.19682e-17
3942.00209 1.19877e-17
3943.99894 1.14551e-17
3945.99578 1.06403e-17
3948.00282 1.04483e-17
3949.99967 1.06324e-17
3951.99652 1.07851e-17
3954.00355 1.07840e-17
3956.00040 1.08768e-17
3957.99725 1.18412e-17
3960.00428 1.33121e-17
3962.00113 1.35998e-17
3963.99798 1.26574e-17
3965.99483 1.18112e-17
3968.00186 1.14168e-17
3969.99871 1.14803e-17
3971.99556 1.12546e-17
3974.00260 1.12436e-17
3975.99944 1.19090e-17
3977.99629 1.20351e-17
3980.00333 1.14855e-17
3982.00018 1.15189e-17
3983.99702 1.19518e-17
3986.00406 1.20274e-17
3988.00091 1.16687e-17
3989.99776 1.21846e-17
3992.00479 1.23210e-17
3994.00164 1.25114e-17
3995.99849 1.18427e-17
3997.99534 1.19552e-17
4000.00237 1.25888e-17
4001.99922 1.21999e-17
4003.99607 1.22565e-17
4006.00310 1.20882e-17
4007.99995 1.21664e-17
4009.99680 1.20071e-17
4012.00384 1.23880e-17
4014.00068 1.23614e-17
4015.99753 1.24825e-17
4018.00457 1.23034e-17
4020.00142 1.26137e-17
4021.99826 1.26711e-17
4023.99511 1.20409e-17
4026.00215 1.21558e-17
4027.99900 1.21459e-17
4029.99584 1.20888e-17
4032.00288 1.20521e-17
4033.99973 1.18778e-17
4035.99658 1.15752e-17
4038.00361 1.16038e-17
4040.00046 1.22456e-17
4041.99731 1.29047e-17
4044.00434 1.32605e-17
4046.00119 1.26947e-17
4047.99804 1.19955e-17
4049.99489 1.13510e-17
4052.00192 1.12453e-17
4053.99877 1.13483e-17
4055.99562 1.11480e-17
4058.00266 1.10983e-17
4059.99950 1.07994e-17
4061.99635 1.09208e-17
4064.00339 1.11676e-17
4066.00024 1.08364e-17
4067.99708 1.09407e-17
4070.00412 1.10209e-17
4072.00097 1.07556e-17
4073.99782 1.09515e-17
4076.00485 1.10177e-17
4078.00170 1.09778e-17
4079.99855 1.10317e-17
4081.99540 1.13721e-17
4084.00243 1.09428e-17
4085.99928 1.09848e-17
4087.99613 1.09007e-17
4090.00316 1.11359e-17
4092.00001 1.09957e-17
4093.99686 1.09327e-17
4096.00390 1.07327e-17
4098.00074 1.10539e-17
4099.99759 1.12157e-17
4102.00463 1.12074e-17
4104.00148 1.12499e-17
4105.99832 1.09044e-17
4107.99517 1.07687e-17
4110.00221 1.08435e-17
4111.99906 1.08959e-17
4113.99590 1.09099e-17
4116.00294 1.07818e-17
4117.99979 1.06886e-17
4119.99664 1.06236e-17
4122.00367 1.05449e-17
4124.00052 1.07547e-17
4125.99737 1.08318e-17
4128.00440 1.06979e-17
4130.00125 1.07558e-17
4131.99810 1.05281e-17
4133.99495 1.05013e-17
4136.00198 1.03106e-17
4137.99883 1.02860e-17
4139.99568 1.05253e-17
4142.00272 1.11959e-17
4143.99956 1.15590e-17
4145.99641 1.10145e-17
4148.00345 1.09291e-17
4150.00030 1.09463e-17
4151.99714 1.07572e-17
4154.00418 1.05015e-17
4156.00103 1.04173e-17
4157.99788 1.05332e-17
4160.00491 1.05496e-17
4162.00176 1.05329e-17
4163.99861 1.03548e-17
4165.99546 9.89332e-18
4168.00249 1.01447e-17
4169.99934 1.03477e-17
4171.99619 1.03388e-17
4174.00322 1.09787e-17
4176.00007 1.28328e-17
4177.99692 1.38768e-17
4180.00396 1.31904e-17
4182.00080 1.15228e-17
4183.99765 1.02082e-17
4186.00469 9.66612e-18
4188.00154 9.29051e-18
4189.99838 9.53296e-18
4191.99523 9.70930e-18
4194.00227 9.45747e-18
4195.99912 9.52893e-18
4197.99596 9.62625e-18
4200.00300 9.65453e-18
4201.99985 9.63381e-18
4203.99670 9.87284e-18
4206.00373 9.78813e-18
4208.00058 9.67284e-18
4209.99743 9.85053e-18
4212.00446 9.48166e-18
4214.00131 9.36166e-18
4215.99816 9.45030e-18
4218.00520 9.60729e-18
4220.00204 9.42746e-18
4221.99889 9.46126e-18
4223.99574 9.48421e-18
4226.00278 9.29030e-18
4227.99962 9.77223e-18
4229.99647 9.79936e-18
4232.00351 9.89365e-18
4234.00036 9.90626e-18
4235.99720 9.65098e-18
4238.00424 9.54975e-18
4240.00109 9.69076e-18
4241.99794 1.01130e-17
4244.00497 9.66540e-18
4246.00182 9.53827e-18
4247.99867 9.86113e-18
4249.99552 9.65170e-18
4252.00255 9.64189e-18
4253.99940 9.99247e-18
4255.99625 1.00225e-17
4258.00328 9.67519e-18
4260.00013 9.59276e-18
4261.99698 9.98505e-18
4264.00402 9.60284e-18
4266.00086 9.63395e-18
4267.99771 9.76960e-18
4270.00475 9.71468e-18
4272.00160 9.72629e-18
4273.99844 9.65412e-18
4275.99529 9.52590e-18
4278.00233 9.88665e-18
4279.99918 1.01026e-17
4281.99602 9.60319e-18
4284.00306 9.58478e-18
4285.99991 9.72695e-18
4287.99676 9.70797e-18
4290.00379 9.40618e-18
4292.00064 9.67866e-18
4293.99749 9.83232e-18
4296.00452 9.62339e-18
4298.00137 9.42992e-18
4299.99822 9.73206e-18
4301.99507 9.88212e-18
4304.00210 9.89302e-18
4305.99895 9.51023e-18
4307.99580 9.55300e-18
4310.00284 9.67335e-18
4311.99968 9.73021e-18
4313.99653 9.87770e-18
4316.00357 9.83758e-18
4318.00042 9.88815e-18
4319.99726 9.40686e-18
4322.00430 9.80862e-18
4324.00115 1.00538e-17
4325.99800 1.03992e-17
4327.99484 1.01105e-17
4330.00188 9.57288e-18
4331.99873 9.84155e-18
4333.99558 9.69209e-18
4336.00261 9.69871e-18
4337.99946 9.75257e-18
4339.99631 9.66855e-18
4342.00334 1.02472e-17
4344.00019 1.04155e-17
4345.99704 1.03281e-17
4348.00408 1.00111e-17
4350.00092 9.70750e-18
4351.99777 1.01208e-17
4354.00481 1.05050e-17
4356.00166 1.02451e-17
4357.99850 9.66620e-18
4359.99535 9.47620e-18
4362.00239 9.54190e-18
4363.99924 9.54441e-18
4365.99608 9.55479e-18
4368.00312 9.68096e-18
4369.99997 9.79301e-18
4371.99682 9.56077e-18
4374.00385 9.44606e-18
4376.00070 9.39341e-18
4377.99755 9.31454e-18
4380.00458 9.24215e-18
4382.00143 9.10556e-18
4383.99828 9.00750e-18
4385.99513 9.16126e-18
4388.00216 9.47116e-18
4389.99901 9.26362e-18
4391.99586 9.15465e-18
4394.00290 9.13231e-18
4395.99974 8.93869e-18
4397.99659 8.93581e-18
4400.00363 8.71935e-18
4402.00048 8.53056e-18
4403.99732 8.69824e-18
4406.00436 8.75292e-18
4408.00121 8.89091e-18
4409.99806 8.83411e-18
4411.99490 8.68674e-18
4414.00194 8.73916e-18
4415.99879 8.76950e-18
4417.99564 8.79983e-18
4420.00267 8.83017e-18
4421.99952 8.86049e-18
4423.99637 8.89081e-18
4426.00340 8.92113e-18
4428.00025 8.95144e-18
4429.99710 8.98175e-18
4432.00414 9.01204e-18
4434.00098 9.04233e-18
4435.99783 9.07263e-18
4437.99468 9.10291e-18
4440.00172 9.13320e-18
4441.99856 9.16347e-18
4443.99541 9.19374e-18
4446.00245 9.22400e-18
4447.99930 9.25426e-18
4449.99614 9.28452e-18
4452.00318 9.31477e-18
4454.00003 9.34502e-18
4455.99688 9.37525e-18
4458.00391 9.40548e-18
4460.00076 9.43572e-18
4461.99761 9.46594e-18
4464.00464 9.49616e-18
4466.00149 9.52637e-18
4467.99834 9.55659e-18
4469.99519 9.58679e-18
4472.00222 9.61698e-18
4473.99907 9.64718e-18
4475.99592 9.67737e-18
4478.00296 9.65631e-18
4479.99980 9.66310e-18
4481.99665 9.51433e-18
4484.00369 9.60795e-18
4486.00054 9.93459e-18
4487.99738 1.02051e-17
4490.00442 9.99960e-18
4492.00127 1.00281e-17
4493.99812 1.02205e-17
4495.99496 1.03189e-17
4498.00200 1.04965e-17
4499.99885 1.04560e-17
4501.99570 1.04215e-17
4504.00273 1.03285e-17
4505.99958 1.04797e-17
4507.99643 1.03033e-17
4510.00346 1.06221e-17
4512.00031 1.07461e-17
4513.99716 1.06788e-17
4516.00420 1.08064e-17
4518.00104 1.11262e-17
4519.99789 1.11945e-17
4522.00493 1.12573e-17
4524.00178 1.12454e-17
4525.99862 1.16319e-17
4527.99547 1.17542e-17
4530.00251 1.18529e-17
4531.99936 1.19393e-17
4533.99620 1.18576e-17
4536.00324 1.16413e-17
4538.00009 1.14477e-17
4539.99694 1.18096e-17
4542.00397 1.18983e-17
4544.00082 1.19490e-17
4545.99767 1.23038e-17
4548.00470 1.20416e-17
4550.00155 1.21477e-17
4551.99840 1.24969e-17
4553.99525 1.29450e-17
4556.00228 1.31921e-17
4557.99913 1.28778e-17
4559.99598 1.28492e-17
4562.00302 1.32019e-17
4563.99986 1.33352e-17
4565.99671 1.34553e-17
4568.00375 1.33635e-17
4570.00060 1.37743e-17
4571.99744 1.35930e-17
4574.00448 1.37410e-17
4576.00133 1.39948e-17
4577.99818 1.40259e-17
4579.99502 1.41167e-17
4582.00206 1.40123e-17
4583.99891 1.42709e-17
4585.99576 1.45889e-17
4588.00279 1.46975e-17
4589.99964 1.51618e-17
4591.99649 1.53547e-17
4594.00352 1.52297e-17
4596.00037 1.52674e-17
4597.99722 1.52972e-17
4600.00426 1.54844e-17
4602.00110 1.59616e-17
4603.99795 1.58677e-17
4605.99480 1.56096e-17
4608.00184 1.57512e-17
4609.99868 1.59748e-17
4611.99553 1.65559e-17
4614.00257 1.66930e-17
4615.99942 1.67097e-17
4617.99626 1.67448e-17
4620.00330 1.64360e-17
4622.00015 1.66396e-17
4623.99700 1.68799e-17
4626.00403 1.64308e-17
4628.00088 1.66468e-17
4629.99773 1.65552e-17
4632.00476 1.66495e-17
4634.00161 1.67385e-17
4635.99846 1.66045e-17
4637.99531 1.69359e-17
4640.00234 1.72734e-17
4641.99919 1.66639e-17
4643.99604 1.67337e-17
4646.00308 1.70174e-17
4647.99992 1.72011e-17
4649.99677 1.74114e-17
4652.00381 1.70701e-17
4654.00066 1.69434e-17
4655.99750 1.72206e-17
4658.00454 1.71894e-17
4660.00139 1.76137e-17
4661.99824 1.75537e-17
4663.99508 1.74023e-17
4666.00212 1.71113e-17
4667.99897 1.70168e-17
4669.99582 1.71368e-17
4672.00285 1.69236e-17
4673.99970 1.68034e-17
4675.99655 1.68558e-17
4678.00358 1.66754e-17
4680.00043 1.64857e-17
4681.99728 1.64764e-17
4684.00432 1.66083e-17
4686.00116 1.64421e-17
4687.99801 1.59246e-17
4690.00505 1.58037e-17
4692.00190 1.57026e-17
4693.99874 1.57662e-17
4695.99559 1.57896e-17
4698.00263 1.57718e-17
4699.99948 1.54064e-17
4701.99632 1.51865e-17
4704.00336 1.51696e-17
4706.00021 1.48530e-17
4707.99706 1.46835e-17
4710.00409 1.45278e-17
4712.00094 1.45825e-17
4713.99779 1.47144e-17
4716.00482 1.45755e-17
4718.00167 1.45103e-17
4719.99852 1.44398e-17
4721.99537 1.41337e-17
4724.00240 1.42995e-17
4725.99925 1.38893e-17
4727.99610 1.37403e-17
4730.00314 1.37340e-17
4731.99998 1.38354e-17
4733.99683 1.34577e-17
4736.00387 1.34993e-17
4738.00072 1.33107e-17
4739.99756 1.33729e-17
4742.00460 1.34966e-17
4744.00145 1.32744e-17
4745.99830 1.29140e-17
4747.99514 1.28992e-17
4750.00218 1.28383e-17
4751.99903 1.26399e-17
4753.99588 1.24555e-17
4756.00291 1.23077e-17
4757.99976 1.24410e-17
4759.99661 1.24630e-17
4762.00364 1.23753e-17
4764.00049 1.24086e-17
4765.99734 1.22547e-17
4768.00438 1.20679e-17
4770.00122 1.19146e-17
4771.99807 1.19600e-17
4773.99492 1.19222e-17
4776.00196 1.13520e-17
4777.99880 1.12989e-17
4779.99565 1.13469e-17
4782.00269 1.09119e-17
4783.99954 1.07086e-17
4785.99638 1.07198e-17
4788.00342 1.08132e-17
4790.00027 1.06396e-17
4791.99712 1.04110e-17
4794.00415 1.06048e-17
4796.00100 1.09133e-17
4797.99785 1.04923e-17
4800.00488 1.02500e-17
4802.00173 1.04691e-17
4803.99858 1.05604e-17
4805.99543 1.07041e-17
4808.00246 1.06213e-17
4809.99931 1.04078e-17
4811.99616 1.04346e-17
4814.00320 1.04818e-17
4816.00004 1.05319e-17
4817.99689 1.05717e-17
4820.00393 1.04686e-17
4822.00078 1.05363e-17
4823.99762 1.06682e-17
4826.00466 1.06900e-17
4828.00151 1.06910e-17
4829.99836 1.08033e-17
4831.99520 1.07422e-17
4834.00224 1.10852e-17
4835.99909 1.10672e-17
4837.99594 1.07843e-17
4840.00297 1.07256e-17
4841.99982 1.10505e-17
4843.99667 1.10568e-17
4846.00370 1.11586e-17
4848.00055 1.14459e-17
4849.99740 1.14488e-17
4852.00444 1.11252e-17
4854.00128 1.08858e-17
4855.99813 1.09276e-17
4857.99498 1.10147e-17
4860.00202 1.10857e-17
4861.99886 1.11448e-17
4863.99571 1.10023e-17
4866.00275 1.09463e-17
4867.99960 1.08508e-17
4869.99644 1.04202e-17
4872.00348 1.06829e-17
4874.00033 1.06462e-17
4875.99718 1.01299e-17
4878.00421 1.03418e-17
4880.00106 1.04707e-17
4881.99791 1.02043e-17
4884.00494 1.00243e-17
4886.00179 1.01239e-17
4887.99864 1.02240e-17
4889.99549 1.00678e-17
4892.00252 1.04442e-17
4893.99937 1.08643e-17
4895.99622 1.06463e-17
4898.00326 1.03981e-17
4900.00010 1.04306e-17
4901.99695 1.03302e-17
4904.00399 1.05929e-17
4906.00084 1.06529e-17
4907.99768 1.06625e-17
4910.00472 1.06564e-17
4912.00157 1.09901e-17
4913.99842 1.09047e-17
4915.99526 1.09383e-17
4918.00230 1.08030e-17
4919.99915 1.07922e-17
4921.99600 1.11547e-17
4924.00303 1.13641e-17
4925.99988 1.11037e-17
4927.99673 1.13554e-17
4930.00376 1.15982e-17
4932.00061 1.13525e-17
4933.99746 1.16038e-17
4936.00450 1.17189e-17
4938.00134 1.18339e-17
4939.99819 1.19490e-17
4941.99504 1.20640e-17
4944.00208 1.21790e-17
4945.99892 1.22940e-17
4947.99577 1.24089e-17
4950.00281 1.25239e-17
4951.99966 1.26388e-17
4953.99650 1.27538e-17
4956.00354 1.28687e-17
4958.00039 1.29835e-17
4959.99724 1.30984e-17
4962.00427 1.32132e-17
4964.00112 1.33281e-17
4965.99797 1.34429e-17
4968.00500 1.35577e-17
4970.00185 1.36724e-17
4971.99870 1.37872e-17
4973.99555 1.37572e-17
4976.00258 1.32184e-17
4977.99943 1.32551e-17
4979.99628 1.35506e-17
4982.00332 1.35157e-17
4984.00016 1.32493e-17
4985.99701 1.31408e-17
4988.00405 1.34465e-17
4990.00090 1.32465e-17
4991.99774 1.31341e-17
4994.00478 1.30366e-17
4996.00163 1.27341e-17
4997.99848 1.25488e-17
4999.99532 1.24280e-17
5002.00236 1.25416e-17
5003.99921 1.24633e-17
5005.99606 1.22450e-17
5008.00309 1.21311e-17
5009.99994 1.22957e-17
5011.99679 1.20416e-17
5014.00382 1.19017e-17
5016.00067 1.17389e-17
5017.99752 1.13861e-17
5020.00456 1.11020e-17
5022.00140 1.06595e-17
5023.99825 1.09087e-17
5025.99510 1.10725e-17
5028.00214 1.07577e-17
5029.99898 1.08995e-17
5031.99583 1.06681e-17
5034.00287 1.06223e-17
5035.99972 1.05765e-17
5037.99656 1.05307e-17
5040.00360 1.04850e-17
5042.00045 1.04392e-17
5043.99730 1.03935e-17
5046.00433 1.03477e-17
5048.00118 1.03020e-17
5049.99803 1.02562e-17
5051.99488 1.02105e-17
5054.00191 1.01648e-17
5055.99876 1.01191e-17
5057.99561 1.00734e-17
5060.00264 1.00277e-17
5061.99949 9.98203e-18
5063.99634 9.93634e-18
5066.00338 9.89068e-18
5068.00022 9.84502e-18
5069.99707 9.79936e-18
5072.00411 9.75371e-18
5074.00096 9.65102e-18
5075.99780 9.96504e-18
5077.99465 9.95255e-18
5080.00169 9.99650e-18
5081.99854 1.01300e-17
5083.99538 1.01497e-17
5086.00242 1.01694e-17
5087.99927 1.01891e-17
5089.99612 1.02089e-17
5092.00315 1.02286e-17
5094.00000 1.02483e-17
5095.99685 1.02680e-17
5098.00388 1.02877e-17
5100.00073 1.03075e-17
5101.99758 1.03272e-17
5104.00462 1.03469e-17
5106.00146 1.03666e-17
5107.99831 1.03863e-17
5109.99516 1.04060e-17
5112.00220 1.04257e-17
5113.99904 1.04454e-17
5115.99589 1.04651e-17
5118.00293 1.04847e-17
5119.99978 1.05044e-17
5121.99662 1.06358e-17
5124.00366 1.07041e-17
5126.00051 1.06787e-17
5127.99736 1.06491e-17
5130.00439 1.06856e-17
5132.00124 1.09180e-17
5133.99809 1.10553e-17
5136.00512 1.10169e-17
5138.00197 1.08704e-17
5139.99882 1.06996e-17
5141.99567 1.09188e-17
5144.00270 1.13301e-17
5145.99955 1.12919e-17
5147.99640 1.08787e-17
5150.00344 1.10045e-17
5152.00028 1.12746e-17
5153.99713 1.11360e-17
5156.00417 1.10383e-17
5158.00102 1.10401e-17
5159.99786 1.12069e-17
5162.00490 1.13602e-17
5164.00175 1.12034e-17
5165.99860 1.11586e-17
5167.99544 1.13052e-17
5170.00248 1.15797e-17
5171.99933 1.15372e-17
5173.99618 1.14142e-17
5176.00321 1.14408e-17
5178.00006 1.14692e-17
5179.99691 1.15222e-17
5182.00394 1.17143e-17
5184.00079 1.16946e-17
5185.99764 1.15418e-17
5188.00468 1.14588e-17
5190.00152 1.11945e-17
5191.99837 1.14560e-17
5193.99522 1.19759e-17
5196.00226 1.18728e-17
5197.99910 1.16666e-17
5199.99595 1.18186e-17
5202.00299 1.18111e-17
5203.99984 1.18350e-17
5205.99668 1.20364e-17
5208.00372 1.21555e-17
5210.00057 1.22190e-17
5211.99742 1.23144e-17
5214.00445 1.22973e-17
5216.00130 1.26226e-17
5217.99815 1.25133e-17
5219.99500 1.24691e-17
5222.00203 1.25616e-17
5223.99888 1.26377e-17
5225.99573 1.28974e-17
5228.00276 1.29543e-17
5229.99961 1.28170e-17
5231.99646 1.27443e-17
5234.00350 1.28361e-17
5236.00034 1.30104e-17
5237.99719 1.29361e-17
5240.00423 1.30405e-17
5242.00108 1.33171e-17
5243.99792 1.32368e-17
5245.99477 1.32525e-17
5248.00181 1.31620e-17
5249.99866 1.33276e-17
5251.99550 1.37322e-17
5254.00254 1.38113e-17
5255.99939 1.36857e-17
5257.99624 1.35015e-17
5260.00327 1.36305e-17
5262.00012 1.37416e-17
5263.99697 1.38225e-17
5266.00400 1.39259e-17
5268.00085 1.43001e-17
5269.99770 1.43294e-17
5272.00474 1.39899e-17
5274.00158 1.41823e-17
5275.99843 1.47170e-17
5277.99528 1.46126e-17
5280.00232 1.46894e-17
5281.99916 1.49180e-17
5283.99601 1.47379e-17
5286.00305 1.47540e-17
5287.99990 1.48687e-17
5289.99674 1.50171e-17
5292.00378 1.51498e-17
5294.00063 1.55479e-17
5295.99748 1.53558e-17
5298.00451 1.57299e-17
5300.00136 1.57257e-17
5301.99821 1.55411e-17
5303.99506 1.55983e-17
5306.00209 1.55261e-17
5307.99894 1.56727e-17
5309.99579 1.60034e-17
5312.00282 1.54623e-17
5313.99967 1.56470e-17
5315.99652 1.57793e-17
5318.00356 1.59607e-17
5320.00040 1.60020e-17
5321.99725 1.61184e-17
5324.00429 1.61524e-17
5326.00114 1.62425e-17
5327.99798 1.65699e-17
5330.00502 1.65984e-17
5332.00187 1.65859e-17
5333.99872 1.63635e-17
5335.99556 1.61738e-17
5338.00260 1.66314e-17
5339.99945 1.68869e-17
5341.99630 1.68062e-17
5344.00333 1.70648e-17
5346.00018 1.72500e-17
5347.99703 1.70208e-17
5350.00406 1.67754e-17
5352.00091 1.73898e-17
5353.99776 1.71211e-17
5356.00480 1.69601e-17
5358.00164 1.74792e-17
5359.99849 1.75221e-17
5361.99534 1.71847e-17
5364.00238 1.73088e-17
5365.99922 1.72232e-17
5367.99607 1.71528e-17
5370.00311 1.73190e-17
5371.99996 1.72817e-17
5373.99680 1.76157e-17
5376.00384 1.71884e-17
5378.00069 1.70164e-17
5379.99754 1.74484e-17
5382.00457 1.75030e-17
5384.00142 1.76304e-17
5385.99827 1.77176e-17
5387.99512 1.73110e-17
5390.00215 1.69276e-17
5391.99900 1.73209e-17
5393.99585 1.75055e-17
5396.00288 1.72025e-17
5397.99973 1.71473e-17
5399.99658 1.74058e-17
5402.00362 1.72895e-17
5404.00046 1.70999e-17
5405.99731 1.70763e-17
5408.00435 1.75257e-17
5410.00120 1.74504e-17
5411.99804 1.70008e-17
5413.99489 1.71936e-17
5416.00193 1.72249e-17
5417.99878 1.70507e-17
5419.99562 1.70768e-17
5422.00266 1.73846e-17
5423.99951 1.74969e-17
5425.99636 1.71317e-17
5428.00339 1.71717e-17
5430.00024 1.72385e-17
5431.99709 1.75684e-17
5434.00412 1.76078e-17
5436.00097 1.74307e-17
5437.99782 1.75019e-17
5440.00486 1.76128e-17
5442.00170 1.74724e-17
5443.99855 1.73860e-17
5445.99540 1.76563e-17
5448.00244 1.74863e-17
5449.99928 1.73635e-17
5451.99613 1.73839e-17
5454.00317 1.73112e-17
5456.00002 1.73771e-17
5457.99686 1.72746e-17
5460.00390 1.71932e-17
5462.00075 1.71180e-17
5463.99760 1.70846e-17
5466.00463 1.73511e-17
5468.00148 1.75972e-17
5469.99833 1.76009e-17
5471.99518 1.75850e-17
5474.00221 1.75709e-17
5475.99906 1.73467e-17
5477.99591 1.73525e-17
5480.00294 1.78344e-17
5481.99979 1.82145e-17
5483.99664 1.79535e-17
5486.00368 1.78508e-17
5488.00052 1.79743e-17
5489.99737 1.81573e-17
5492.00441 1.85724e-17
5494.00126 1.86773e-17
5495.99810 1.84247e-17
5497.99495 1.84258e-17
5500.00199 1.85584e-17
5501.99884 1.85388e-17
5503.99568 1.83886e-17
5506.00272 1.84968e-17
5507.99957 1.85372e-17
5509.99642 1.86600e-17
5512.00345 1.88756e-17
5514.00030 1.88668e-17
5515.99715 1.90805e-17
5518.00418 1.93155e-17
5520.00103 1.90712e-17
5521.99788 1.90806e-17
5523.99473 1.92641e-17
5526.00176 1.93533e-17
5527.99861 1.95577e-17
5529.99546 1.96114e-17
5532.00250 1.96306e-17
5533.99934 1.95888e-17
5535.99619 1.98627e-17
5538.00323 1.96340e-17
5540.00008 1.93782e-17
5541.99692 1.97077e-17
5544.00396 1.97693e-17
5546.00081 1.93799e-17
5547.99766 1.93539e-17
5550.00469 1.94275e-17
5552.00154 1.93707e-17
5553.99839 1.92990e-17
5555.99524 1.91181e-17
5558.00227 1.91405e-17
5559.99912 1.88196e-17
5561.99597 1.87480e-17
5564.00300 1.87085e-17
5565.99985 1.86559e-17
5567.99670 1.87020e-17
5570.00374 1.84390e-17
5572.00058 1.86080e-17
5573.99743 1.86553e-17
5576.00447 1.86314e-17
5578.00132 1.85536e-17
5579.99816 1.78022e-17
5581.99501 1.71532e-17
5584.00205 1.73243e-17
5585.99890 1.74130e-17
5587.99574 1.72233e-17
5590.00278 1.69764e-17
5591.99963 1.69145e-17
5593.99648 1.69349e-17
5596.00351 1.67273e-17
5598.00036 1.65219e-17
5599.99721 1.67461e-17
5602.00424 1.66685e-17
5604.00109 1.65191e-17
5605.99794 1.66975e-17
5608.00498 1.64353e-17
5610.00182 1.62858e-17
5611.99867 1.64947e-17
5613.99552 1.63301e-17
5616.00256 1.61043e-17
5617.99940 1.59204e-17
5619.99625 1.58124e-17
5622.00329 1.56979e-17
5624.00014 1.54644e-17
5625.99698 1.51445e-17
5628.00402 1.52739e-17
5630.00087 1.53704e-17
5631.99772 1.52215e-17
5634.00475 1.51761e-17
5636.00160 1.48028e-17
5637.99845 1.47861e-17
5639.99530 1.47040e-17
5642.00233 1.45747e-17
5643.99918 1.47614e-17
5645.99603 1.42362e-17
5648.00306 1.43843e-17
5649.99991 1.45022e-17
5651.99676 1.43958e-17
5654.00380 1.42017e-17
5656.00064 1.40440e-17
5657.99749 1.37575e-17
5660.00453 1.39751e-17
5662.00138 1.40826e-17
5663.99822 1.40612e-17
5665.99507 1.37661e-17
5668.00211 1.39941e-17
5669.99896 1.38586e-17
5671.99580 1.35175e-17
5674.00284 1.32677e-17
5675.99969 1.35853e-17
5677.99654 1.34564e-17
5680.00357 1.35922e-17
5682.00042 1.35786e-17
5683.99727 1.35893e-17
5686.00430 1.33507e-17
5688.00115 1.34204e-17
5689.99800 1.30494e-17
5691.99485 1.27192e-17
5694.00188 1.24082e-17
5695.99873 1.20582e-17
5697.99558 1.22106e-17
5700.00262 1.21591e-17
5701.99946 1.21869e-17
5703.99631 1.23067e-17
5706.00335 1.19973e-17
5708.00020 1.19455e-17
5709.99704 1.19419e-17
5712.00408 1.15420e-17
5714.00093 1.12523e-17
5715.99778 1.10792e-17
5718.00481 1.12273e-17
5720.00166 1.13615e-17
5721.99851 1.14274e-17
5723.99536 1.12993e-17
5726.00239 1.09508e-17
5727.99924 1.08463e-17
5729.99609 1.08638e-17
5732.00312 1.08491e-17
5733.99997 1.07088e-17
5735.99682 1.03690e-17
5738.00386 1.06539e-17
5740.00070 1.07597e-17
5741.99755 1.05704e-17
5744.00459 1.05081e-17
5746.00144 1.06579e-17
5747.99828 1.04322e-17
5749.99513 1.04663e-17
5752.00217 1.05954e-17
5753.99902 1.03330e-17
5755.99586 1.05126e-17
5758.00290 1.03741e-17
5759.99975 1.02715e-17
5761.99660 1.04360e-17
5764.00363 1.03285e-17
5766.00048 1.03095e-17
5767.99733 1.01010e-17
5770.00436 1.01895e-17
5772.00121 1.03051e-17
5773.99806 1.03345e-17
5776.00510 1.04455e-17
5778.00194 1.02842e-17
5779.99879 1.01156e-17
5781.99564 1.00799e-17
5784.00268 1.00694e-17
5785.99952 9.83512e-18
5787.99637 9.93146e-18
5790.00341 9.92812e-18
5792.00026 9.83077e-18
5793.99710 9.88892e-18
5796.00414 9.68183e-18
5798.00099 9.86747e-18
5799.99784 1.01654e-17
5802.00487 1.02886e-17
5804.00172 1.01885e-17
5805.99857 1.00729e-17
5807.99542 1.01073e-17
5810.00245 1.02400e-17
5811.99930 1.04121e-17
5813.99615 1.04597e-17
5816.00318 1.04911e-17
5818.00003 1.05696e-17
5819.99688 1.06766e-17
5822.00392 1.08667e-17
5824.00076 1.06847e-17
5825.99761 1.06909e-17
5828.00465 1.07375e-17
5830.00150 1.08448e-17
5831.99834 1.07229e-17
5833.99519 1.07281e-17
5836.00223 1.08891e-17
5837.99908 1.07310e-17
5839.99592 1.09552e-17
5842.00296 1.10936e-17
5843.99981 1.09560e-17
5845.99666 1.09083e-17
5848.00369 1.10186e-17
5850.00054 1.12600e-17
5851.99739 1.09030e-17
5854.00442 1.12458e-17
5856.00127 1.10892e-17
5857.99812 1.06287e-17
5859.99497 1.06665e-17
5862.00200 1.10716e-17
5863.99885 1.11875e-17
5865.99570 1.08908e-17
5868.00274 1.05832e-17
5869.99958 1.11889e-17
5871.99643 1.10595e-17
5874.00347 1.10087e-17
5876.00032 1.10992e-17
5877.99716 1.12910e-17
5880.00420 1.10240e-17
5882.00105 1.11122e-17
5883.99790 1.11221e-17
5886.00493 1.10152e-17
5888.00178 1.09318e-17
5889.99863 1.13734e-17
5891.99548 1.13469e-17
5894.00251 1.15669e-17
5895.99936 1.17289e-17
5897.99621 1.17812e-17
5900.00324 1.18894e-17
5902.00009 1.17349e-17
5903.99694 1.19116e-17
5906.00398 1.17364e-17
5908.00082 1.17817e-17
5909.99767 1.22756e-17
5912.00471 1.24652e-17
5914.00156 1.25803e-17
5915.99840 1.25249e-17
5917.99525 1.24636e-17
5920.00229 1.25247e-17
5921.99914 1.26139e-17
5923.99598 1.24648e-17
5926.00302 1.25195e-17
5927.99987 1.29840e-17
5929.99672 1.32985e-17
5932.00375 1.27846e-17
5934.00060 1.27142e-17
5935.99745 1.24156e-17
5938.00448 1.23045e-17
5940.00133 1.19396e-17
5941.99818 1.26539e-17
5943.99503 1.27726e-17
5946.00206 1.23687e-17
5947.99891 1.24986e-17
5949.99576 1.23338e-17
5952.00280 1.24114e-17
5953.99964 1.21134e-17
5955.99649 1.21028e-17
5958.00353 1.20922e-17
5960.00038 1.20816e-17
5961.99722 1.20710e-17
5964.00426 1.20604e-17
5966.00111 1.20498e-17
5967.99796 1.20392e-17
5969.99480 1.20286e-17
5972.00184 1.20180e-17
5973.99869 1.20074e-17
5975.99554 1.19968e-17
5978.00257 1.19862e-17
5979.99942 1.19756e-17
5981.99627 1.19650e-17
5984.00330 1.19544e-17
5986.00015 1.19439e-17
5987.99700 1.19333e-17
5990.00404 1.19227e-17
5992.00088 1.19121e-17
5993.99773 1.19015e-17
5995.99458 1.18910e-17
5998.00162 1.18804e-17
5999.99846 1.18698e-17
6001.99531 1.18592e-17
6004.00235 1.18487e-17
6005.99920 1.18381e-17
6007.99604 1.18275e-17
6010.00308 1.18170e-17
6011.99993 1.18064e-17
6013.99678 1.17958e-17
6016.00381 1.17853e-17
6018.00066 1.17747e-17
6019.99751 1.18428e-17
6022.00454 1.17705e-17
6024.00139 1.17444e-17
6025.99824 1.17095e-17
6027.99509 1.17628e-17
6030.00212 1.16719e-17
6031.99897 1.15076e-17
6033.99582 1.16349e-17
6036.00286 1.17566e-17
6037.99970 1.17761e-17
6039.99655 1.16975e-17
6042.00359 1.15506e-17
6044.00044 1.15893e-17
6045.99728 1.20305e-17
6048.00432 1.20148e-17
6050.00117 1.19518e-17
6051.99802 1.20416e-17
6054.00505 1.19437e-17
6056.00190 1.16807e-17
6057.99875 1.17265e-17
6059.99560 1.19237e-17
6062.00263 1.18511e-17
6063.99948 1.14832e-17
6065.99633 1.16054e-17
6068.00336 1.18416e-17
6070.00021 1.16227e-17
6071.99706 1.17869e-17
6074.00410 1.20355e-17
6076.00094 1.17434e-17
6077.99779 1.15523e-17
6080.00483 1.20335e-17
6082.00168 1.17091e-17
6083.99852 1.14659e-17
6085.99537 1.18556e-17
6088.00241 1.18327e-17
6089.99926 1.17327e-17
6091.99610 1.17823e-17
6094.00314 1.16788e-17
6095.99999 1.17511e-17
6097.99684 1.19357e-17
6100.00387 1.16021e-17
6102.00072 1.15677e-17
6103.99757 1.17991e-17
6106.00460 1.15775e-17
6108.00145 1.15370e-17
6109.99830 1.16998e-17
6111.99515 1.17154e-17
6114.00218 1.16268e-17
6115.99903 1.16282e-17
6117.99588 1.18355e-17
6120.00292 1.18440e-17
6121.99976 1.16907e-17
6123.99661 1.18133e-17
6126.00365 1.18847e-17
6128.00050 1.18102e-17
6129.99734 1.16455e-17
6132.00438 1.17045e-17
6134.00123 1.17401e-17
6135.99808 1.14959e-17
6137.99492 1.16372e-17
6140.00196 1.17141e-17
6141.99881 1.16482e-17
6143.99566 1.17751e-17
6146.00269 1.17429e-17
6147.99954 1.16421e-17
6149.99639 1.18780e-17
6152.00342 1.19376e-17
6154.00027 1.15799e-17
6155.99712 1.16149e-17
6158.00416 1.19259e-17
6160.00100 1.20056e-17
6161.99785 1.18022e-17
6163.99470 1.18438e-17
6166.00174 1.18491e-17
6167.99858 1.16403e-17
6169.99543 1.17933e-17
6172.00247 1.20381e-17
6173.99932 1.20335e-17
6175.99616 1.19450e-17
6178.00320 1.18225e-17
6180.00005 1.20336e-17
6181.99690 1.23704e-17
6184.00393 1.21583e-17
6186.00078 1.21807e-17
6187.99763 1.24478e-17
6190.00466 1.23839e-17
6192.00151 1.24068e-17
6193.99836 1.24959e-17
6195.99521 1.23752e-17
6198.00224 1.23640e-17
6199.99909 1.25120e-17
6201.99594 1.24673e-17
6204.00298 1.24261e-17
6205.99982 1.24636e-17
6207.99667 1.23736e-17
6210.00371 1.23074e-17
6212.00056 1.25660e-17
6213.99740 1.29163e-17
6216.00444 1.28403e-17
6218.00129 1.26719e-17
6219.99814 1.28406e-17
6221.99498 1.30119e-17
6224.00202 1.30899e-17
6225.99887 1.31583e-17
6227.99572 1.29096e-17
6230.00275 1.28798e-17
6231.99960 1.31576e-17
6233.99645 1.36072e-17
6236.00348 1.35399e-17
6238.00033 1.32422e-17
6239.99718 1.32853e-17
6242.00422 1.31745e-17
6244.00106 1.33675e-17
6245.99791 1.35529e-17
6248.00495 1.33602e-17
6250.00180 1.34206e-17
6251.99864 1.37365e-17
6253.99549 1.35696e-17
6256.00253 1.33032e-17
6257.99938 1.35902e-17
6259.99622 1.37140e-17
6262.00326 1.35048e-17
6264.00011 1.36932e-17
6265.99696 1.35098e-17
6268.00399 1.32454e-17
6270.00084 1.37914e-17
6271.99769 1.39669e-17
6274.00472 1.35007e-17
6276.00157 1.32586e-17
6277.99842 1.33230e-17
6279.99527 1.29141e-17
6282.00230 1.28022e-17
6283.99915 1.28024e-17
6285.99600 1.27506e-17
6288.00304 1.29058e-17
6289.99988 1.30092e-17
6291.99673 1.30165e-17
6294.00377 1.33306e-17
6296.00062 1.34206e-17
6297.99746 1.32582e-17
6300.00450 1.26663e-17
6302.00135 1.19439e-17
6303.99820 1.23010e-17
6305.99504 1.23689e-17
6308.00208 1.22536e-17
6309.99893 1.27618e-17
6311.99578 1.26407e-17
6314.00281 1.23814e-17
6315.99966 1.22948e-17
6317.99651 1.21573e-17
6320.00354 1.21104e-17
6322.00039 1.20816e-17
6323.99724 1.25415e-17
6326.00428 1.24657e-17
6328.00112 1.24286e-17
6329.99797 1.26705e-17
6331.99482 1.25809e-17
6334.00186 1.26924e-17
6335.99870 1.28886e-17
6337.99555 1.28077e-17
6340.00259 1.26905e-17
6341.99944 1.28972e-17
6343.99628 1.30229e-17
6346.00332 1.29941e-17
6348.00017 1.29138e-17
6349.99702 1.29293e-17
6352.00405 1.26843e-17
6354.00090 1.26739e-17
6355.99775 1.27454e-17
6358.00478 1.24710e-17
6360.00163 1.28619e-17
6361.99848 1.26668e-17
6363.99533 1.25711e-17
6366.00236 1.24515e-17
6367.99921 1.21588e-17
6369.99606 1.23369e-17
6372.00310 1.24366e-17
6373.99994 1.24307e-17
6375.99679 1.24477e-17
6378.00383 1.23443e-17
6380.00068 1.24662e-17
6381.99752 1.27096e-17
6384.00456 1.26462e-17
6386.00141 1.24258e-17
6387.99826 1.25728e-17
6389.99510 1.28396e-17
6392.00214 1.30881e-17
6393.99899 1.31606e-17
6395.99584 1.27524e-17
6398.00287 1.25896e-17
6399.99972 1.27241e-17
6401.99657 1.27313e-17
6404.00360 1.27882e-17
6406.00045 1.32654e-17
6407.99730 1.31665e-17
6410.00434 1.29589e-17
6412.00118 1.32946e-17
6413.99803 1.37973e-17
6415.99488 1.46328e-17
6418.00192 1.49660e-17
6419.99876 1.46190e-17
6421.99561 1.40392e-17
6424.00265 1.39872e-17
6425.99950 1.43301e-17
6427.99634 1.37935e-17
6430.00338 1.39595e-17
6432.00023 1.45206e-17
6433.99708 1.40461e-17
6436.00411 1.40198e-17
6438.00096 1.44378e-17
6439.99781 1.46474e-17
6441.99466 1.45638e-17
6444.00169 1.46860e-17
6445.99854 1.48558e-17
6447.99539 1.47806e-17
6450.00242 1.48986e-17
6451.99927 1.47871e-17
6453.99612 1.48347e-17
6456.00316 1.51627e-17
6458.00000 1.50520e-17
6459.99685 1.50492e-17
6462.00389 1.51586e-17
6464.00074 1.50098e-17
6465.99758 1.50647e-17
6468.00462 1.52895e-17
6470.00147 1.58254e-17
6471.99832 1.56378e-17
6473.99516 1.51146e-17
6476.00220 1.51456e-17
6477.99905 1.53774e-17
6479.99590 1.56126e-17
6482.00293 1.56159e-17
6483.99978 1.55009e-17
6485.99663 1.55040e-17
6488.00366 1.55041e-17
6490.00051 1.57695e-17
6491.99736 1.57507e-17
6494.00440 1.55964e-17
6496.00124 1.55292e-17
6497.99809 1.55735e-17
6499.99494 1.58445e-17
6502.00198 1.58626e-17
6503.99882 1.57189e-17
6505.99567 1.56382e-17
6508.00271 1.55326e-17
6509.99956 1.56495e-17
6511.99640 1.57168e-17
6514.00344 1.58988e-17
6516.00029 1.61030e-17
6517.99714 1.59906e-17
6520.00417 1.58345e-17
6522.00102 1.58078e-17
6523.99787 1.59993e-17
6526.00490 1.60707e-17
6528.00175 1.54534e-17
6529.99860 1.54267e-17
6531.99545 1.55498e-17
6534.00248 1.57553e-17
6535.99933 1.58067e-17
6537.99618 1.54956e-17
6540.00322 1.54037e-17
6542.00006 1.54274e-17
6543.99691 1.57290e-17
6546.00395 1.54525e-17
6548.00080 1.51950e-17
6549.99764 1.51863e-17
6552.00468 1.49965e-17
6554.00153 1.48310e-17
6555.99838 1.48589e-17
6557.99522 1.51444e-17
6560.00226 1.52561e-17
6561.99911 1.49134e-17
6563.99596 1.45963e-17
6566.00299 1.47499e-17
6567.99984 1.45690e-17
6569.99669 1.39248e-17
6572.00372 1.39660e-17
6574.00057 1.41811e-17
6575.99742 1.37923e-17
6578.00446 1.38866e-17
6580.00130 1.43708e-17
6581.99815 1.42934e-17
6583.99500 1.39050e-17
6586.00204 1.39490e-17
6587.99888 1.41020e-17
6589.99573 1.39047e-17
6592.00277 1.36340e-17
6593.99962 1.35041e-17
6595.99646 1.35401e-17
6598.00350 1.37233e-17
6600.00035 1.36289e-17
6601.99720 1.32678e-17
6604.00423 1.31918e-17
6606.00108 1.31697e-17
6607.99793 1.30655e-17
6609.99478 1.33922e-17
6612.00181 1.36546e-17
6613.99866 1.32210e-17
6615.99551 1.32007e-17
6618.00254 1.31308e-17
6619.99939 1.26551e-17
6621.99624 1.24316e-17
6624.00328 1.25823e-17
6626.00012 1.26433e-17
6627.99697 1.26491e-17
6630.00401 1.29146e-17
6632.00086 1.28253e-17
6633.99770 1.26952e-17
6636.00474 1.26409e-17
6638.00159 1.23821e-17
6639.99844 1.24743e-17
6641.99528 1.24849e-17
6644.00232 1.21247e-17
6645.99917 1.20646e-17
6647.99602 1.19896e-17
6650.00305 1.18724e-17
6651.99990 1.19075e-17
6653.99675 1.18775e-17
6656.00378 1.18476e-17
6658.00063 1.18177e-17
6659.99748 1.17878e-17
6662.00452 1.17578e-17
6664.00136 1.17279e-17
6665.99821 1.16980e-17
6667.99506 1.16681e-17
6670.00210 1.16382e-17
6671.99894 1.16083e-17
6673.99579 1.15784e-17
6676.00283 1.15485e-17
6677.99968 1.15185e-17
6679.99652 1.14886e-17
6682.00356 1.14587e-17
6684.00041 1.14288e-17
6685.99726 1.13989e-17
6688.00429 1.13691e-17
6690.00114 1.13392e-17
6691.99799 1.13108e-17
6694.00502 1.12824e-17
6696.00187 1.12540e-17
6697.99872 1.12256e-17
6699.99557 1.11973e-17
6702.00260 1.11689e-17
6703.99945 1.11405e-17
6705.99630 1.11121e-17
6708.00334 1.10838e-17
6710.00018 1.10554e-17
6711.99703 1.10270e-17
6714.00407 1.09987e-17
6716.00092 1.09703e-17
6717.99776 1.09420e-17
6720.00480 1.09136e-17
6722.00165 1.08853e-17
6723.99850 1.08569e-17
6725.99534 1.08285e-17
6728.00238 1.06588e-17
6729.99923 1.05815e-17
6731.99608 1.08169e-17
6734.00311 1.08844e-17
6735.99996 1.07189e-17
6737.99681 1.08862e-17
6740.00384 1.08132e-17
6742.00069 1.04877e-17
6743.99754 1.02350e-17
6746.00458 1.01092e-17
6748.00142 1.02276e-17
6749.99827 1.01658e-17
6751.99512 1.01336e-17
6754.00216 9.82661e-18
6755.99900 9.75766e-18
6757.99585 9.62224e-18
6760.00289 9.79426e-18
6761.99974 1.00404e-17
6763.99658 9.89192e-18
6766.00362 9.82123e-18
6768.00047 9.74327e-18
6769.99732 9.55908e-18
6772.00435 9.60284e-18
6774.00120 9.69644e-18
6775.99805 9.50374e-18
6777.99490 9.29051e-18
6780.00193 9.14053e-18
6781.99878 9.35241e-18
6783.99563 9.60093e-18
6786.00266 9.48815e-18
6787.99951 9.16247e-18
6789.99636 9.19343e-18
6792.00340 9.16258e-18
6794.00024 9.24089e-18
6795.99709 9.23806e-18
6798.00413 9.14180e-18
6800.00098 9.26455e-18
6801.99782 9.48311e-18
6804.00486 9.12337e-18
6806.00171 8.77201e-18
6807.99856 8.69478e-18
6809.99540 8.82815e-18
6812.00244 8.92417e-18
6813.99929 9.03550e-18
6815.99614 9.01268e-18
6818.00317 8.76737e-18
6820.00002 8.99621e-18
6821.99687 9.33471e-18
6824.00390 9.50209e-18
6826.00075 9.47143e-18
6827.99760 9.44077e-18
6830.00464 9.41011e-18
6832.00148 9.37945e-18
6833.99833 9.34879e-18
6835.99518 9.31814e-18
6838.00222 9.28749e-18
6839.99906 9.22952e-18
6841.99591 9.17155e-18
6844.00295 9.11358e-18
6845.99980 9.05562e-18
6847.99664 8.99765e-18
6850.00368 8.93970e-18
6852.00053 8.88174e-18
6853.99738 8.82380e-18
6856.00441 8.76586e-18
6858.00126 8.70791e-18
6859.99811 8.64998e-18
6862.00514 8.59204e-18
6864.00199 8.53412e-18
6865.99884 8.47620e-18
6867.99569 8.41827e-18
6870.00272 8.36036e-18
6871.99957 8.30243e-18
6873.99642 8.24453e-18
6876.00346 8.18662e-18
6878.00030 8.26550e-18
6879.99715 8.24566e-18
6882.00419 7.90622e-18
6884.00104 7.89412e-18
6885.99788 8.21236e-18
6888.00492 8.14010e-18
6890.00177 7.78181e-18
6891.99862 7.94126e-18
6893.99546 7.83449e-18
6896.00250 8.04849e-18
6897.99935 7.89196e-18
6899.99620 7.96722e-18
6902.00323 8.09887e-18
6904.00008 7.57302e-18
6905.99693 7.33096e-18
6908.00396 7.59538e-18
6910.00081 7.49088e-18
6911.99766 7.20388e-18
6914.00470 7.55087e-18
6916.00154 7.63855e-18
6917.99839 7.75913e-18
6919.99524 7.88561e-18
6922.00228 7.97779e-18
6923.99912 8.18190e-18
6925.99597 7.58754e-18
6928.00301 7.56776e-18
6929.99986 7.42676e-18
6931.99670 7.40420e-18
6934.00374 7.57254e-18
6936.00059 7.39843e-18
6937.99744 7.42629e-18
6940.00447 7.74670e-18
6942.00132 7.65165e-18
6943.99817 7.88642e-18
6945.99502 7.51372e-18
6948.00205 7.44201e-18
6949.99890 7.66138e-18
6951.99575 7.62359e-18
6954.00278 8.08475e-18
6955.99963 8.00571e-18
6957.99648 7.85894e-18
6960.00352 8.33143e-18
6962.00036 8.49052e-18
6963.99721 8.15305e-18
6966.00425 8.12343e-18
6968.00110 8.13030e-18
6969.99794 8.21672e-18
6972.00498 8.20274e-18
6974.00183 8.00313e-18
6975.99868 7.91596e-18
6977.99552 7.57326e-18
6980.00256 7.66149e-18
6981.99941 7.89329e-18
6983.99626 8.52412e-18
6986.00329 8.44855e-18
6988.00014 8.49757e-18
6989.99699 8.72225e-18
6992.00402 8.79618e-18
6994.00087 9.13727e-18
6995.99772 9.18401e-18
6998.00476 8.97725e-18
7000.00160 9.19700e-18
7001.99845 9.76254e-18
7003.99530 9.75770e-18
7006.00234 9.57939e-18
7007.99918 9.73493e-18
7009.99603 9.59971e-18
7012.00307 9.23432e-18
7013.99992 8.83662e-18
7015.99676 9.14645e-18
7018.00380 9.42891e-18
7020.00065 9.06907e-18
7021.99750 9.11424e-18
7024.00453 9.58983e-18
7026.00138 9.16528e-18
7027.99823 8.98966e-18
7029.99508 9.44652e-18
7032.00211 9.68097e-18
7033.99896 9.57440e-18
7035.99581 1.00587e-17
7038.00284 9.82854e-18
7039.99969 9.85364e-18
7041.99654 1.00379e-17
7044.00358 9.63117e-18
7046.00042 9.56525e-18
7047.99727 9.84817e-18
7050.00431 9.60465e-18
7052.00116 9.76301e-18
7053.99800 9.48066e-18
7055.99485 9.15901e-18
7058.00189 8.95689e-18
7059.99874 8.96890e-18
7061.99558 9.17147e-18
7064.00262 9.19983e-18
7065.99947 8.96922e-18
7067.99632 8.90934e-18
7070.00335 8.68700e-18
7072.00020 8.93370e-18
7073.99705 8.93031e-18
7076.00408 8.49399e-18
7078.00093 8.74150e-18
7079.99778 8.91668e-18
7081.99463 9.44881e-18
7084.00166 8.84534e-18
7085.99851 8.75062e-18
7087.99536 8.95642e-18
7090.00240 8.67518e-18
7091.99924 9.12194e-18
7093.99609 9.00117e-18
7096.00313 9.00700e-18
7097.99998 8.99655e-18
7099.99682 8.95305e-18
7102.00386 8.97556e-18
7104.00071 8.81553e-18
7105.99756 8.68938e-18
7108.00459 8.72126e-18
7110.00144 8.66063e-18
7111.99829 8.62981e-18
7113.99514 8.50375e-18
7116.00217 8.47955e-18
7117.99902 8.27774e-18
7119.99587 8.32073e-18
7122.00290 8.20627e-18
7123.99975 8.23908e-18
7125.99660 8.29120e-18
7128.00364 8.29919e-18
7130.00048 8.31633e-18
7131.99733 8.34429e-18
7134.00437 8.57745e-18
7136.00122 8.54356e-18
7137.99806 8.47755e-18
7139.99491 8.56659e-18
7142.00195 8.90682e-18
7143.99880 8.98989e-18
7145.99564 8.98512e-18
7148.00268 8.93919e-18
7149.99953 8.97205e-18
7151.99638 9.16243e-18
7154.00341 8.98793e-18
7156.00026 9.06410e-18
7157.99711 9.02457e-18
7160.00414 9.14790e-18
7162.00099 9.31739e-18
7163.99784 9.62900e-18
7166.00488 9.52601e-18
7168.00172 9.33405e-18
7169.99857 9.34538e-18
7171.99542 8.89507e-18
7174.00246 8.93291e-18
7175.99930 9.13538e-18
7177.99615 9.09385e-18
7180.00319 9.36517e-18
7182.00004 9.42933e-18
7183.99688 9.21031e-18
7186.00392 9.09329e-18
7188.00077 9.24739e-18
7189.99762 9.32573e-18
7192.00465 9.39713e-18
7194.00150 9.62476e-18
7195.99835 9.94784e-18
7197.99520 1.02317e-17
7200.00223 9.98245e-18
7201.99908 9.86265e-18
7203.99593 9.96934e-18
7206.00296 9.99645e-18
7207.99981 9.78571e-18
7209.99666 9.77161e-18
7212.00370 1.02264e-17
7214.00054 1.03353e-17
7215.99739 1.03747e-17
7218.00443 1.04679e-17
7220.00128 1.03483e-17
7221.99812 1.05811e-17
7223.99497 1.08063e-17
7226.00201 1.07883e-17
7227.99886 1.09562e-17
7229.99570 1.12316e-17
7232.00274 1.10369e-17
7233.99959 1.09388e-17
7235.99644 1.13230e-17
7238.00347 1.12337e-17
7240.00032 1.15077e-17
7241.99717 1.10779e-17
7244.00420 1.08073e-17
7246.00105 1.14239e-17
7247.99790 1.14840e-17
7249.99475 1.13376e-17
7252.00178 1.09455e-17
7253.99863 1.13672e-17
7255.99548 1.15120e-17
7258.00252 1.14852e-17
7259.99936 1.12406e-17
7261.99621 1.15630e-17
7264.00325 1.24120e-17
7266.00010 1.28651e-17
7267.99694 1.36132e-17
7270.00398 1.35793e-17
7272.00083 1.32909e-17
7273.99768 1.31067e-17
7276.00471 1.21636e-17
7278.00156 1.21421e-17
7279.99841 1.23949e-17
7281.99526 1.26032e-17
7284.00229 1.22062e-17
7285.99914 1.18430e-17
7287.99599 1.20979e-17
7290.00302 1.25576e-17
7291.99987 1.24059e-17
7293.99672 1.26429e-17
7296.00376 1.25139e-17
7298.00060 1.19814e-17
7299.99745 1.29595e-17
7302.00449 1.33211e-17
7304.00134 1.32541e-17
7305.99818 1.28235e-17
7307.99503 1.23425e-17
7310.00207 1.22855e-17
7311.99892 1.23715e-17
7313.99576 1.22587e-17
7316.00280 1.25269e-17
7317.99965 1.26348e-17
7319.99650 1.32746e-17
7322.00353 1.28970e-17
7324.00038 1.30578e-17
7325.99723 1.29316e-17
7328.00426 1.26616e-17
7330.00111 1.30706e-17
7331.99796 1.31509e-17
7334.00500 1.32792e-17
7336.00184 1.35233e-17
7337.99869 1.33606e-17
7339.99554 1.32043e-17
7342.00258 1.38127e-17
7343.99942 1.34845e-17
7345.99627 1.33461e-17
7348.00331 1.36977e-17
7350.00016 1.40471e-17
7351.99700 1.39681e-17
7354.00404 1.36347e-17
7356.00089 1.38104e-17
7357.99774 1.36116e-17
7360.00477 1.36048e-17
7362.00162 1.35979e-17
7363.99847 1.35778e-17
7365.99532 1.37605e-17
7368.00235 1.34673e-17
7369.99920 1.25440e-17
7371.99605 1.21493e-17
7374.00308 1.25657e-17
7375.99993 1.29193e-17
7377.99678 1.26051e-17
7380.00382 1.27362e-17
7382.00066 1.28763e-17
7383.99751 1.25658e-17
7386.00455 1.25852e-17
7388.00140 1.26044e-17
7389.99824 1.26181e-17
7391.99509 1.24768e-17
7394.00213 1.27052e-17
7395.99898 1.24876e-17
7397.99582 1.27210e-17
7400.00286 1.24140e-17
7401.99971 1.19274e-17
7403.99656 1.22414e-17
7406.00359 1.20726e-17
7408.00044 1.25291e-17
7409.99729 1.27697e-17
7412.00432 1.25129e-17
7414.00117 1.21803e-17
7415.99802 1.19251e-17
7417.99487 1.23056e-17
7420.00190 1.20163e-17
7421.99875 1.20819e-17
7423.99560 1.19697e-17
7426.00264 1.21077e-17
7427.99948 1.22052e-17
7429.99633 1.21948e-17
7432.00337 1.18544e-17
7434.00022 1.18850e-17
7435.99706 1.22827e-17
7438.00410 1.23671e-17
7440.00095 1.21857e-17
7441.99780 1.18265e-17
7444.00483 1.21087e-17
7446.00168 1.21099e-17
7447.99853 1.20011e-17
7449.99538 1.19454e-17
7452.00241 1.19114e-17
7453.99926 1.26858e-17
7455.99611 1.29928e-17
7458.00314 1.26143e-17
7459.99999 1.22182e-17
7461.99684 1.22754e-17
7464.00388 1.27001e-17
7466.00072 1.26905e-17
7467.99757 1.25839e-17
7470.00461 1.22032e-17
7472.00146 1.22351e-17
7473.99830 1.21335e-17
7475.99515 1.23384e-17
7478.00219 1.23196e-17
7479.99904 1.20937e-17
7481.99588 1.20490e-17
7484.00292 1.20285e-17
7485.99977 1.18848e-17
7487.99662 1.16443e-17
7490.00365 1.20389e-17
7492.00050 1.19686e-17
7493.99735 1.15300e-17
7496.00438 1.14866e-17
7498.00123 1.15942e-17
7499.99808 1.17654e-17
7501.99493 1.15320e-17
7504.00196 1.10490e-17
7505.99881 1.10631e-17
7507.99566 1.10540e-17
7510.00270 1.12204e-17
7511.99954 1.13581e-17
7513.99639 1.07892e-17
7516.00343 1.04615e-17
7518.00028 1.08560e-17
7519.99712 1.09971e-17
7522.00416 1.09277e-17
7524.00101 1.06815e-17
7525.99786 1.06864e-17
7527.99470 1.07243e-17
7530.00174 1.08387e-17
7531.99859 1.08367e-17
7533.99544 1.06460e-17
7536.00247 1.05020e-17
7537.99932 1.03561e-17
7539.99617 1.03142e-17
7542.00320 1.02520e-17
7544.00005 1.03056e-17
7545.99690 1.02544e-17
7548.00394 9.93701e-18
7550.00078 1.01490e-17
7551.99763 1.01187e-17
7554.00467 9.98218e-18
7556.00152 1.02225e-17
7557.99836 9.96856e-18
7559.99521 9.67577e-18
7562.00225 9.61940e-18
7563.99910 9.44720e-18
7565.99594 9.21068e-18
7568.00298 9.11401e-18
7569.99983 9.53088e-18
7571.99668 9.64576e-18
7574.00371 9.31945e-18
7576.00056 9.18891e-18
7577.99741 9.28666e-18
7580.00444 9.23774e-18
7582.00129 9.30782e-18
7583.99814 9.29826e-18
7585.99499 9.28169e-18
7588.00202 9.34002e-18
7589.99887 9.67402e-18
7591.99572 9.40695e-18
7594.00276 8.72400e-18
7595.99960 9.29664e-18
7597.99645 9.39381e-18
7600.00349 8.99318e-18
7602.00034 7.84510e-18
7603.99718 8.10837e-18
7606.00422 8.89197e-18
7608.00107 8.92133e-18
7609.99792 8.30315e-18
7612.00495 7.80289e-18
7614.00180 8.94314e-18
7615.99865 8.98463e-18
7617.99550 8.03301e-18
7620.00253 7.87643e-18
7621.99938 7.87203e-18
7623.99623 8.36676e-18
7626.00326 8.53231e-18
7628.00011 8.36999e-18
7629.99696 8.78985e-18
7632.00400 8.81190e-18
7634.00084 8.94800e-18
7635.99769 8.39386e-18
7638.00473 8.11512e-18
7640.00158 7.88505e-18
7641.99842 7.87952e-18
7643.99527 8.02285e-18
7646.00231 8.14299e-18
7647.99916 8.43596e-18
7649.99600 8.55063e-18
7652.00304 8.69378e-18
7653.99989 8.92105e-18
7655.99674 8.83296e-18
7658.00377 9.16938e-18
7660.00062 9.27002e-18
7661.99747 9.25904e-18
7664.00450 8.93665e-18
7666.00135 8.97137e-18
7667.99820 9.64280e-18
7669.99505 9.47217e-18
7672.00208 9.32066e-18
7673.99893 9.56454e-18
7675.99578 9.49974e-18
7678.00282 9.65920e-18
7679.99966 9.61132e-18
7681.99651 9.47443e-18
7684.00355 9.58650e-18
7686.00040 9.81449e-18
7687.99724 9.59425e-18
7690.00428 9.91842e-18
7692.00113 1.00185e-17
7693.99798 9.55751e-18
7695.99482 9.30781e-18
7698.00186 9.70490e-18
7699.99871 9.74685e-18
7701.99556 9.82220e-18
7704.00259 9.81070e-18
7705.99944 9.78620e-18
7707.99629 9.73569e-18
7710.00332 1.05106e-17
7712.00017 1.02605e-17
7713.99702 1.07027e-17
7716.00406 1.09881e-17
7718.00090 1.04427e-17
7719.99775 9.95145e-18
7722.00479 1.02087e-17
7724.00164 1.06932e-17
7725.99848 1.04845e-17
7727.99533 1.00872e-17
7730.00237 1.06415e-17
7731.99922 1.07696e-17
7733.99606 1.01520e-17
7736.00310 1.02703e-17
7737.99995 1.05064e-17
7739.99680 1.06008e-17
7742.00383 1.05967e-17
7744.00068 1.06397e-17
7745.99753 1.13303e-17
7748.00456 1.11518e-17
7750.00141 1.00804e-17
7751.99826 1.03031e-17
7753.99511 1.11636e-17
7756.00214 1.19438e-17
7757.99899 1.18566e-17
7759.99584 1.12960e-17
7762.00288 1.18650e-17
7763.99972 1.21261e-17
7765.99657 1.26874e-17
7768.00361 1.29298e-17
7770.00046 1.29249e-17
7771.99730 1.26687e-17
7774.00434 1.27139e-17
7776.00119 1.31902e-17
7777.99804 1.30581e-17
7780.00507 1.25566e-17
7782.00192 1.24592e-17
7783.99877 1.26243e-17
7785.99562 1.30824e-17
7788.00265 1.28828e-17
7789.99950 1.27282e-17
7791.99635 1.29341e-17
7794.00338 1.28415e-17
7796.00023 1.26458e-17
7797.99708 1.27036e-17
7800.00412 1.30855e-17
7802.00096 1.31224e-17
7803.99781 1.34645e-17
7806.00485 1.38097e-17
7808.00170 1.35303e-17
7809.99854 1.42154e-17
7811.99539 1.45077e-17
7814.00243 1.42503e-17
7815.99928 1.44491e-17
7817.99612 1.47783e-17
7820.00316 1.50246e-17
7822.00001 1.46428e-17
7823.99686 1.38663e-17
7826.00389 1.39141e-17
7828.00074 1.39367e-17
7829.99759 1.32870e-17
7832.00462 1.30045e-17
7834.00147 1.31190e-17
7835.99832 1.32784e-17
7837.99517 1.34992e-17
7840.00220 1.36390e-17
7841.99905 1.31509e-17
7843.99590 1.26420e-17
7846.00294 1.25056e-17
7847.99978 1.26694e-17
7849.99663 1.29174e-17
7852.00367 1.28872e-17
7854.00052 1.22289e-17
7855.99736 1.21377e-17
7858.00440 1.20791e-17
7860.00125 1.19764e-17
7861.99810 1.18384e-17
7863.99494 1.19551e-17
7866.00198 1.18466e-17
7867.99883 1.16333e-17
7869.99568 1.11038e-17
7872.00271 1.09424e-17
7873.99956 1.10853e-17
7875.99641 1.15813e-17
7878.00344 1.19184e-17
7880.00029 1.16702e-17
7881.99714 1.12956e-17
7884.00418 1.11566e-17
7886.00102 1.15935e-17
7887.99787 1.17433e-17
7889.99472 1.12702e-17
7892.00176 1.13463e-17
7893.99860 1.13143e-17
7895.99545 1.15923e-17
7898.00249 1.10322e-17
7899.99934 1.07987e-17
7901.99618 1.04964e-17
7904.00322 1.02290e-17
7906.00007 1.05675e-17
7907.99692 1.12124e-17
7910.00395 1.20545e-17
7912.00080 1.11229e-17
7913.99765 1.02416e-17
7916.00468 1.07987e-17
7918.00153 1.06724e-17
7919.99838 1.00460e-17
7921.99523 1.03295e-17
7924.00226 1.12478e-17
7925.99911 1.11681e-17
7927.99596 1.12289e-17
7930.00300 1.12722e-17
7931.99984 1.14244e-17
7933.99669 1.17132e-17
7936.00373 1.12192e-17
7938.00058 1.12602e-17
7939.99742 1.12527e-17
7942.00446 1.09962e-17
7944.00131 1.12452e-17
7945.99816 1.18109e-17
7947.99500 1.08552e-17
7950.00204 1.05567e-17
7951.99889 1.11132e-17
7953.99574 1.03005e-17
7956.00277 9.93603e-18
7957.99962 1.05072e-17
7959.99647 1.08648e-17
7962.00350 1.13051e-17
7964.00035 1.08533e-17
7965.99720 1.01577e-17
7968.00424 1.10121e-17
7970.00108 1.12608e-17
7971.99793 1.09524e-17
7973.99478 1.12550e-17
7976.00182 1.16246e-17
7977.99866 1.11175e-17
7979.99551 1.05912e-17
7982.00255 1.05634e-17
7983.99940 1.04444e-17
7985.99624 1.08000e-17
7988.00328 1.14001e-17
7990.00013 1.15085e-17
7991.99698 1.13880e-17
7994.00401 1.10843e-17
7996.00086 1.09075e-17
7997.99771 1.18829e-17
8000.00474 1.17657e-17
8002.00159 1.03405e-17
8003.99844 1.02911e-17
8005.99529 1.06236e-17
8008.00232 1.04329e-17
8009.99917 1.03147e-17
8011.99602 1.04896e-17
8014.00306 1.04407e-17
8015.99990 1.03148e-17
8017.99675 1.03918e-17
8020.00379 1.10582e-17
8022.00064 1.12145e-17
8023.99748 1.16173e-17
8026.00452 1.12916e-17
8028.00137 1.03733e-17
8029.99822 1.03106e-17
8031.99506 1.00004e-17
8034.00210 1.02841e-17
8035.99895 1.02593e-17
8037.99580 9.89458e-18
8040.00283 9.65894e-18
8041.99968 9.55348e-18
8043.99653 9.77366e-18
8046.00356 9.86499e-18
8048.00041 1.00455e-17
8049.99726 9.48949e-18
8052.00430 9.02611e-18
8054.00114 9.28765e-18
8055.99799 9.00734e-18
8057.99484 8.92106e-18
8060.00188 9.45157e-18
8061.99872 9.71762e-18
8063.99557 9.03947e-18
8066.00261 8.90175e-18
8067.99946 9.21992e-18
8069.99630 9.01888e-18
8072.00334 9.22147e-18
8074.00019 9.23150e-18
8075.99704 8.91849e-18
8078.00407 9.17449e-18
8080.00092 9.13207e-18
8081.99777 9.05697e-18
8084.00480 8.81251e-18
8086.00165 8.67386e-18
8087.99850 8.85154e-18
8089.99535 8.22539e-18
8092.00238 8.40547e-18
8093.99923 9.01134e-18
8095.99608 8.73272e-18
8098.00312 8.24375e-18
8099.99996 7.97641e-18
8101.99681 8.03171e-18
8104.00385 7.92955e-18
8106.00070 8.35771e-18
8107.99754 8.17975e-18
8110.00458 8.21131e-18
8112.00143 7.77146e-18
8113.99828 7.56573e-18
8115.99512 8.27089e-18
8118.00216 8.72885e-18
8119.99901 8.35454e-18
8121.99586 8.07837e-18
8124.00289 7.77126e-18
8125.99974 7.39783e-18
8127.99659 7.43486e-18
8130.00362 7.87863e-18
8132.00047 8.25326e-18
8133.99732 7.83835e-18
8136.00436 7.96636e-18
8138.00120 7.56982e-18
8139.99805 7.60212e-18
8141.99490 7.63415e-18
8144.00194 8.04551e-18
8145.99878 7.44579e-18
8147.99563 7.48806e-18
8150.00267 7.46238e-18
8151.99952 7.43182e-18
8153.99636 6.86333e-18
8156.00340 6.84828e-18
8158.00025 6.82729e-18
8159.99710 7.02770e-18
8162.00413 6.90614e-18
8164.00098 6.66541e-18
8165.99783 6.50201e-18
8167.99468 6.60345e-18
8170.00171 6.64692e-18
8171.99856 6.53305e-18
8173.99541 6.25189e-18
8176.00244 6.61947e-18
8177.99929 7.19124e-18
8179.99614 7.11040e-18
8182.00318 6.29863e-18
8184.00002 6.59621e-18
8185.99687 6.83176e-18
8188.00391 6.70161e-18
8190.00076 6.41144e-18
8191.99760 5.98139e-18
8194.00464 5.79113e-18
8196.00149 6.42655e-18
8197.99834 6.15307e-18
8199.99518 5.70460e-18
8202.00222 6.13246e-18
8203.99907 6.20547e-18
8205.99592 5.99605e-18
8208.00295 5.90670e-18
8209.99980 5.26099e-18
8211.99665 5.51325e-18
8214.00368 5.39204e-18
8216.00053 4.92239e-18
8217.99738 4.77002e-18
8220.00442 5.03661e-18
8222.00126 5.13126e-18
8223.99811 5.22026e-18
8225.99496 4.93681e-18
8228.00200 5.04842e-18
8229.99884 5.40812e-18
8231.99569 5.43115e-18
8234.00273 5.07223e-18
8235.99958 4.62555e-18
8237.99642 4.93943e-18
8240.00346 5.09092e-18
8242.00031 5.20030e-18
8243.99716 5.29561e-18
8246.00419 4.57281e-18
8248.00104 4.23027e-18
8249.99789 4.04680e-18
8252.00492 4.11763e-18
8254.00177 4.42752e-18
8255.99862 4.31865e-18
8257.99547 4.34057e-18
8260.00250 4.13212e-18
8261.99935 4.22593e-18
8263.99620 4.23935e-18
8266.00324 3.93800e-18
8268.00008 3.86178e-18
8269.99693 3.92526e-18
8272.00397 3.82259e-18
8274.00082 3.73138e-18
8275.99766 3.86915e-18
8278.00470 4.63378e-18
8280.00155 3.88693e-18
8281.99840 2.98551e-18
8283.99524 3.68332e-18
8286.00228 3.95419e-18
8287.99913 3.44033e-18
8289.99598 2.87838e-18
8292.00301 3.34918e-18
8293.99986 4.79916e-18
8295.99671 3.70393e-18
8298.00374 2.74277e-18
8300.00059 3.84894e-18
8301.99744 3.69674e-18
8304.00448 4.12813e-18
8306.00132 4.17019e-18
8307.99817 4.50757e-18
8309.99502 3.95595e-18
8312.00206 3.86184e-18
8313.99890 3.97655e-18
8315.99575 4.01929e-18
8318.00279 4.09031e-18
8319.99964 4.21651e-18
8321.99648 3.94581e-18
8324.00352 3.68408e-18
8326.00037 3.61596e-18
8327.99722 3.35494e-18
8330.00425 3.68157e-18
8332.00110 4.17192e-18
8333.99795 4.24378e-18
8335.99480 3.90678e-18
8338.00183 4.03884e-18
8339.99868 4.88552e-18
8341.99553 4.18588e-18
8344.00256 3.10231e-18
8345.99941 5.41970e-18
8347.99626 4.04631e-18
8350.00330 3.28091e-18
8352.00014 4.13680e-18
8353.99699 4.48780e-18
8356.00403 5.06464e-18
8358.00088 4.94464e-18
8359.99772 4.09201e-18
8362.00476 4.17403e-18
8364.00161 4.72192e-18
8365.99846 4.32233e-18
8367.99530 4.52601e-18
8370.00234 4.45437e-18
8371.99919 4.40389e-18
8373.99604 4.73855e-18
8376.00307 4.94188e-18
8377.99992 5.40817e-18
8379.99677 4.51487e-18
8382.00380 3.77742e-18
8384.00065 4.75955e-18
8385.99750 4.71901e-18
8388.00454 4.49964e-18
8390.00138 4.34427e-18
8391.99823 5.01911e-18
8393.99508 5.21591e-18
8396.00212 6.11855e-18
8397.99896 4.67534e-18
8399.99581 4.66205e-18
8402.00285 4.36353e-18
8403.99970 4.53103e-18
8405.99654 4.75910e-18
8408.00358 4.72797e-18
8410.00043 5.12940e-18
8411.99728 5.69467e-18
8414.00431 5.54192e-18
8416.00116 5.39964e-18
8417.99801 4.76675e-18
8419.99486 4.42792e-18
8422.00189 4.84717e-18
8423.99874 5.02059e-18
8425.99559 5.71577e-18
8428.00262 6.00388e-18
8429.99947 5.73426e-18
8431.99632 5.82404e-18
8434.00336 5.28109e-18
8436.00020 5.35766e-18
8437.99705 5.91210e-18
8440.00409 5.36175e-18
8442.00094 5.05539e-18
8443.99778 5.61096e-18
8446.00482 5.42232e-18
8448.00167 5.37976e-18
8449.99852 5.41239e-18
8451.99536 5.87560e-18
8454.00240 6.32882e-18
8455.99925 5.98914e-18
8457.99610 5.97987e-18
8460.00313 5.58744e-18
8461.99998 6.02661e-18
8463.99683 6.68942e-18
8466.00386 6.28913e-18
8468.00071 6.11129e-18
8469.99756 5.98596e-18
8472.00460 5.90076e-18
8474.00144 5.91156e-18
8475.99829 6.37467e-18
8477.99514 6.53381e-18
8480.00218 6.10213e-18
8481.99902 6.31223e-18
8483.99587 6.12112e-18
8486.00291 6.33380e-18
8487.99976 7.13385e-18
8489.99660 7.06545e-18
8492.00364 6.40119e-18
8494.00049 6.90662e-18
8495.99734 6.45071e-18
8498.00437 6.76022e-18
8500.00122 7.01523e-18
8501.99807 7.46772e-18
8504.00510 6.51137e-18
8506.00195 5.94092e-18
8507.99880 6.55902e-18
8509.99565 6.74362e-18
8512.00268 7.44355e-18
8513.99953 7.35526e-18
8515.99638 8.30534e-18
8518.00342 8.10015e-18
8520.00026 7.68941e-18
8521.99711 7.48963e-18
8524.00415 8.31501e-18
8526.00100 8.59330e-18
8527.99784 8.92608e-18
8529.99469 8.70136e-18
8532.00173 9.11031e-18
8533.99858 9.54400e-18
8535.99542 9.94595e-18
8538.00246 9.95100e-18
8539.99931 1.04308e-17
8541.99616 1.01863e-17
8544.00319 9.96577e-18
8546.00004 1.09004e-17
8547.99689 1.01533e-17
8550.00392 9.84458e-18
8552.00077 9.83408e-18
8553.99762 1.03484e-17
8556.00466 1.09244e-17
8558.00150 1.05918e-17
8559.99835 1.10984e-17
8561.99520 1.09114e-17
8564.00224 1.13687e-17
8565.99908 1.18120e-17
8567.99593 1.13587e-17
8570.00297 1.12021e-17
8571.99982 1.16386e-17
8573.99666 1.20705e-17
8576.00370 1.23538e-17
8578.00055 1.24656e-17
8579.99740 1.29978e-17
8582.00443 1.33824e-17
8584.00128 1.34359e-17
8585.99813 1.35566e-17
8587.99498 1.37586e-17
8590.00201 1.37695e-17
8591.99886 1.41190e-17
8593.99571 1.43764e-17
8596.00274 1.42320e-17
8597.99959 1.43697e-17
8599.99644 1.50247e-17
8602.00348 1.55630e-17
8604.00032 1.55196e-17
8605.99717 1.54322e-17
8608.00421 1.48618e-17
8610.00106 1.49705e-17
8611.99790 1.56254e-17
8613.99475 1.48554e-17
8616.00179 1.50628e-17
8617.99864 1.66599e-17
8619.99548 1.71235e-17
8622.00252 1.66982e-17
8623.99937 1.71428e-17
8625.99622 1.79649e-17
8628.00325 1.74565e-17
8630.00010 1.76857e-17
8631.99695 1.82334e-17
8634.00398 1.83334e-17
8636.00083 1.77521e-17
8637.99768 1.75751e-17
8640.00472 1.83786e-17
8642.00156 1.88715e-17
8643.99841 1.82881e-17
8645.99526 1.86813e-17
8648.00230 2.00110e-17
8649.99914 2.01767e-17
8651.99599 1.97177e-17
8654.00303 1.87755e-17
8655.99988 2.03211e-17
8657.99672 2.12082e-17
8660.00376 2.18988e-17
8662.00061 2.24654e-17
8663.99746 2.27920e-17
8665.99430 2.20782e-17
8668.00134 2.25825e-17
8669.99819 2.20339e-17
8671.99504 2.18340e-17
8674.00207 2.23497e-17
8675.99892 2.30623e-17
8677.99577 2.34426e-17
8680.00280 2.33127e-17
8681.99965 2.29806e-17
8683.99650 2.36317e-17
8686.00354 2.35344e-17
8688.00038 2.46326e-17
8689.99723 2.50449e-17
8692.00427 2.47562e-17
8694.00112 2.31245e-17
8695.99796 2.41913e-17
8698.00500 2.44707e-17
8700.00185 2.40674e-17
8701.99870 2.41874e-17
8703.99554 2.55422e-17
8706.00258 2.53390e-17
8707.99943 2.56828e-17
8709.99628 2.53949e-17
8712.00331 2.50254e-17
8714.00016 2.54557e-17
8715.99701 2.56397e-17
8718.00404 2.51551e-17
8720.00089 2.39100e-17
8721.99774 2.40579e-17
8724.00478 2.36421e-17
8726.00162 2.41545e-17
8727.99847 2.52085e-17
8729.99532 2.42092e-17
8732.00236 2.35661e-17
8733.99920 2.36707e-17
8735.99605 2.31217e-17
8738.00309 2.20463e-17
8739.99994 2.23738e-17
8741.99678 2.24253e-17
8744.00382 2.15472e-17
8746.00067 2.26386e-17
8747.99752 2.26727e-17
8750.00455 2.16574e-17
8752.00140 2.18343e-17
8753.99825 2.13017e-17
8755.99510 2.17940e-17
8758.00213 2.19259e-17
8759.99898 2.20210e-17
8761.99583 2.18325e-17
8764.00286 2.04008e-17
8765.99971 2.08612e-17
8767.99656 2.04633e-17
8770.00360 1.98767e-17
8772.00044 2.10292e-17
8773.99729 2.14230e-17
8776.00433 2.17362e-17
8778.00118 1.98441e-17
8779.99802 1.95655e-17
8782.00506 2.05357e-17
8784.00191 2.03433e-17
8785.99876 2.06169e-17
8787.99560 2.05536e-17
8790.00264 2.03060e-17
8791.99949 1.96498e-17
8793.99634 1.97096e-17
8796.00337 1.92504e-17
8798.00022 1.84700e-17
8799.99707 1.90551e-17
8802.00410 2.04981e-17
8804.00095 1.99494e-17
8805.99780 1.90118e-17
8807.99465 1.85613e-17
8810.00168 1.80917e-17
8811.99853 1.89375e-17
8813.99538 1.94910e-17
8816.00242 1.94054e-17
8817.99926 2.00980e-17
8819.99611 1.99664e-17
8822.00315 1.91225e-17
8824.00000 1.97513e-17
8825.99684 2.09195e-17
8828.00388 1.99826e-17
8830.00073 1.92791e-17
8830.05562 1.92791e-17
8830.91708 1.90369e-17
8831.77854 1.87948e-17
8832.64000 1.86060e-17
8833.50147 1.84174e-17
8834.36293 1.82754e-17
8835.22439 1.81334e-17
8836.08585 1.80215e-17
8836.94732 1.79096e-17
8837.80878 1.78083e-17
8838.67024 1.77070e-17
8839.54172 1.75962e-17
8840.40318 1.74855e-17
8841.26464 1.73507e-17
8842.12610 1.72159e-17
8842.98757 1.70550e-17
8843.84903 1.68941e-17
8844.71049 1.67103e-17
8845.57195 1.65264e-17
8846.43341 1.63304e-17
8847.29488 1.61344e-17
8848.15634 1.59399e-17
8849.02782 1.57455e-17
8849.88928 1.55601e-17
8850.75074 1.53747e-17
8851.61220 1.52052e-17
8852.47367 1.50358e-17
8853.33513 1.49183e-17
8854.19659 1.48010e-17
8855.05805 1.47713e-17
8855.91951 1.47419e-17
8856.78097 1.47716e-17
8857.64244 1.48014e-17
8858.50390 1.48403e-17
8859.36536 1.48792e-17
8860.23684 1.48858e-17
8861.09830 1.48924e-17
8861.95976 1.48293e-17
8862.82123 1.47661e-17
8863.68269 1.46474e-17
8864.54415 1.45286e-17
8865.40561 1.44089e-17
8866.26707 1.42892e-17
8867.12854 1.41939e-17
8867.99000 1.40986e-17
8868.86148 1.40213e-17
8869.72294 1.39439e-17
8870.58440 1.38817e-17
8871.44586 1.38195e-17
8872.30732 1.37700e-17
8873.16879 1.37206e-17
8874.03025 1.36865e-17
8874.89171 1.36525e-17
8875.75317 1.36549e-17
8876.61463 1.36574e-17
8877.47610 1.37048e-17
8878.34758 1.37522e-17
8879.20904 1.38183e-17
8880.07050 1.38845e-17
8880.93196 1.39418e-17
8881.79342 1.39992e-17
8882.65489 1.40223e-17
8883.51635 1.40454e-17
8884.37781 1.40157e-17
8885.23927 1.39859e-17
8886.10073 1.39205e-17
8886.96220 1.38550e-17
8887.83367 1.37809e-17
8888.69514 1.37068e-17
8889.55660 1.36487e-17
8890.41806 1.35907e-17
8891.27952 1.35713e-17
8892.14099 1.35520e-17
8893.00245 1.35839e-17
8893.86391 1.36159e-17
8894.72537 1.37042e-17
8895.58683 1.37926e-17
8896.44830 1.39165e-17
8897.30976 1.40405e-17
8898.18124 1.41646e-17
8899.04270 1.42886e-17
8899.90416 1.43825e-17
8900.76562 1.44762e-17
8901.62708 1.45147e-17
8902.48855 1.45529e-17
8903.35001 1.45398e-17
8904.21147 1.45265e-17
8905.07293 1.45039e-17
8905.93439 1.44812e-17
8906.80587 1.44765e-17
8907.66734 1.44719e-17
8908.52880 1.44825e-17
8909.39026 1.44932e-17
8910.25172 1.45191e-17
8911.11318 1.45451e-17
8911.97465 1.45915e-17
8912.83611 1.46379e-17
8913.69757 1.47069e-17
8914.55903 1.47759e-17
8915.42049 1.48723e-17
8916.29197 1.49688e-17
8917.15343 1.50916e-17
8918.01490 1.52143e-17
8918.87636 1.53318e-17
8919.73782 1.54493e-17
8920.59928 1.55299e-17
8921.46074 1.56103e-17
8922.32221 1.56451e-17
8923.18367 1.56797e-17
8924.04513 1.56677e-17
8924.90659 1.56556e-17
8925.76805 1.56340e-17
8926.63953 1.56124e-17
8927.50100 1.56321e-17
8928.36246 1.56518e-17
8929.22392 1.57147e-17
8930.08538 1.57777e-17
8930.94684 1.58608e-17
8931.80831 1.59439e-17
8932.66977 1.60306e-17
8933.53123 1.61172e-17
8934.39269 1.61914e-17
8935.25415 1.62655e-17
8936.12563 1.63347e-17
8936.98709 1.64039e-17
8937.84856 1.65044e-17
8938.71002 1.66051e-17
8939.57148 1.67387e-17
8940.43294 1.68724e-17
8941.29440 1.69898e-17
8942.15587 1.71071e-17
8943.01733 1.71721e-17
8943.87879 1.72370e-17
8944.74025 1.72334e-17
8945.61173 1.72296e-17
8946.47319 1.71633e-17
8947.33466 1.70968e-17
8948.19612 1.70438e-17
8949.05758 1.69908e-17
8949.91904 1.70127e-17
8950.78050 1.70348e-17
8951.64197 1.71126e-17
8952.50343 1.71905e-17
8953.36489 1.72929e-17
8954.22635 1.73955e-17
8955.08781 1.74420e-17
8955.95929 1.74882e-17
8956.82075 1.73991e-17
8957.68222 1.73097e-17
8958.54368 1.71839e-17
8959.40514 1.70580e-17
8960.26660 1.70412e-17
8961.12806 1.70248e-17
8961.98953 1.71378e-17
8962.85099 1.72512e-17
8963.71245 1.74665e-17
8964.57391 1.76821e-17
8965.44539 1.79299e-17
8966.30685 1.81777e-17
8967.16832 1.83523e-17
8968.02978 1.85268e-17
8968.89124 1.86398e-17
8969.75270 1.87528e-17
8970.61416 1.89197e-17
8971.47563 1.90868e-17
8972.33709 1.93476e-17
8973.19855 1.96087e-17
8974.06001 1.99139e-17
8974.93149 2.02192e-17
8975.79295 2.04973e-17
8976.65441 2.07752e-17
8977.51588 2.09166e-17
8978.37734 2.10576e-17
8979.23880 2.09771e-17
8980.10026 2.08959e-17
8980.96172 2.05386e-17
8981.82319 2.01805e-17
8982.68465 1.95815e-17
8983.54611 1.89820e-17
8984.41759 1.84636e-17
8985.27905 1.79454e-17
8986.14051 1.78048e-17
8987.00198 1.76652e-17
8987.86344 1.80043e-17
8988.72490 1.83446e-17
8989.58636 1.91787e-17
8990.44782 2.00141e-17
8991.30928 2.09451e-17
8992.17075 2.18763e-17
8993.03221 2.24251e-17
8993.89367 2.29728e-17
8994.76515 2.30674e-17
8995.62661 2.31608e-17
8996.48807 2.28890e-17
8997.34954 2.26161e-17
8998.21100 2.21921e-17
8999.07246 2.17676e-17
8999.93392 2.14839e-17
9000.79538 2.12005e-17
9001.65685 2.11846e-17
9002.51831 2.11694e-17
9003.38979 2.14134e-17
9004.25125 2.16580e-17
9005.11271 2.20769e-17
9005.97417 2.24962e-17
9006.83563 2.29231e-17
9007.69710 2.33500e-17
9008.55856 2.36551e-17
9009.42002 2.39598e-17
9010.28148 2.40826e-17
9011.14295 2.42049e-17
9012.00441 2.41482e-17
9012.87589 2.40910e-17
9013.73735 2.39981e-17
9014.59881 2.39050e-17
9015.46027 2.38822e-17
9016.32173 2.38595e-17
9017.18320 2.38417e-17
9018.04466 2.38240e-17
9018.90612 2.37630e-17
9019.76758 2.37020e-17
9020.62904 2.36537e-17
9021.49051 2.36055e-17
9022.35197 2.36279e-17
9023.22345 2.36505e-17
9024.08491 2.38166e-17
9024.94637 2.39831e-17
9025.80783 2.43511e-17
9026.66930 2.47197e-17
9027.53076 2.52013e-17
9028.39222 2.56832e-17
9029.25368 2.61444e-17
9030.11514 2.66054e-17
9030.97660 2.69534e-17
9031.83807 2.73009e-17
9032.70955 2.74666e-17
9033.57101 2.76317e-17
9034.43247 2.76089e-17
9035.29393 2.75855e-17
9036.15539 2.74093e-17
9037.01686 2.72326e-17
9037.87832 2.69935e-17
9038.73978 2.67541e-17
9039.60124 2.65911e-17
9040.46270 2.64285e-17
9041.32417 2.63787e-17
9042.18563 2.63291e-17
9043.05711 2.62908e-17
9043.91857 2.62523e-17
9044.78003 2.61719e-17
9045.64149 2.60913e-17
9046.50295 2.60009e-17
9047.36442 2.59105e-17
9048.22588 2.58381e-17
9049.08734 2.57656e-17
9049.94880 2.57559e-17
9050.81027 2.57459e-17
9051.67173 2.58106e-17
9052.54321 2.58756e-17
9053.40467 2.58825e-17
9054.26613 2.58889e-17
9055.12759 2.57220e-17
9055.98905 2.55547e-17
9056.85052 2.52758e-17
9057.71198 2.49966e-17
9058.57344 2.46897e-17
9059.43490 2.43829e-17
9060.29636 2.40585e-17
9061.16784 2.37341e-17
9062.02931 2.33964e-17
9062.89077 2.30587e-17
9063.75223 2.26953e-17
9064.61369 2.23319e-17
9065.47515 2.19158e-17
9066.33662 2.14996e-17
9067.19808 2.11367e-17
9068.05954 2.07740e-17
9068.92100 2.06404e-17
9069.78246 2.05073e-17
9070.64393 2.05639e-17
9071.51540 2.06210e-17
9072.37687 2.06709e-17
9073.23833 2.07208e-17
9074.09979 2.06913e-17
9074.96125 2.06616e-17
9075.82271 2.06077e-17
9076.68418 2.05537e-17
9077.54564 2.05099e-17
9078.40710 2.04661e-17
9079.26856 2.04521e-17
9080.13002 2.04383e-17
9080.99149 2.04535e-17
9081.86297 2.04687e-17
9082.72443 2.04447e-17
9083.58589 2.04206e-17
9084.44735 2.03193e-17
9085.30881 2.02178e-17
9086.17028 2.01144e-17
9087.03174 2.00110e-17
9087.89320 1.99635e-17
9088.75466 1.99161e-17
9089.61612 1.98505e-17
9090.48760 1.97848e-17
9091.34906 1.96303e-17
9092.21053 1.94763e-17
9093.07199 1.93059e-17
9093.93345 1.91355e-17
9094.79491 1.90387e-17
9095.65637 1.89422e-17
9096.51784 1.88938e-17
9097.37930 1.88455e-17
9098.24076 1.87920e-17
9099.10222 1.87385e-17
9099.97370 1.86937e-17
9100.83516 1.86490e-17
9101.69663 1.86415e-17
9102.55809 1.86342e-17
9103.41955 1.87188e-17
9104.28101 1.88036e-17
9105.14247 1.90586e-17
9106.00393 1.93141e-17
9106.86540 1.96466e-17
9107.72686 1.99793e-17
9108.58832 2.01509e-17
9109.45980 2.03221e-17
9110.32126 2.02313e-17
9111.18272 2.01397e-17
9112.04419 1.98456e-17
9112.90565 1.95509e-17
9113.76711 1.91750e-17
9114.62857 1.87989e-17
9115.49003 1.85907e-17
9116.35150 1.83829e-17
9117.21296 1.84723e-17
9118.07442 1.85626e-17
9118.93588 1.87572e-17
9119.80736 1.89521e-17
9120.66882 1.90640e-17
9121.53028 1.91756e-17
9122.39175 1.90845e-17
9123.25321 1.89928e-17
9124.11467 1.86263e-17
9124.97613 1.82591e-17
9125.83760 1.77868e-17
9126.69906 1.73142e-17
9127.56052 1.69424e-17
9128.43200 1.65709e-17
9129.29346 1.64062e-17
9130.15492 1.62420e-17
9131.01638 1.63530e-17
9131.87785 1.64647e-17
9132.73931 1.68051e-17
9133.60077 1.71462e-17
9134.46223 1.76114e-17
9135.32369 1.80769e-17
9136.18516 1.85580e-17
9137.04662 1.90390e-17
9137.90808 1.94235e-17
9138.76954 1.98076e-17
9139.64102 2.00231e-17
9140.50248 2.02382e-17
9141.36395 2.02603e-17
9142.22541 2.02819e-17
9143.08687 2.00740e-17
9143.94833 1.98655e-17
9144.80979 1.93748e-17
9145.67125 1.88835e-17
9146.53272 1.81738e-17
9147.39418 1.74634e-17
9148.26566 1.67489e-17
9149.12712 1.60345e-17
9149.98858 1.55097e-17
9150.85004 1.49855e-17
9151.71151 1.48079e-17
9152.57297 1.46313e-17
9153.43443 1.48623e-17
9154.29589 1.50943e-17
9155.15735 1.55319e-17
9156.01882 1.59701e-17
9156.88028 1.64012e-17
9157.75176 1.68322e-17
9158.61322 1.71570e-17
9159.47468 1.74814e-17
9160.33614 1.76229e-17
9161.19760 1.77639e-17
9162.05907 1.77272e-17
9162.92053 1.76899e-17
9163.78199 1.75169e-17
9164.64345 1.73435e-17
9165.50492 1.70284e-17
9166.36638 1.67129e-17
9167.22784 1.62482e-17
9168.09932 1.57831e-17
9168.96078 1.52841e-17
9169.82224 1.47851e-17
9170.68370 1.44080e-17
9171.54517 1.40312e-17
9172.40663 1.38538e-17
9173.26809 1.36770e-17
9174.12955 1.37335e-17
9174.99101 1.37905e-17
9175.85248 1.39848e-17
9176.71394 1.41794e-17
9177.58542 1.42935e-17
9178.44688 1.44074e-17
9179.30834 1.43778e-17
9180.16980 1.43479e-17
9181.03127 1.43178e-17
9181.89273 1.42878e-17
9182.75419 1.43359e-17
9183.61565 1.43843e-17
9184.47711 1.44825e-17
9185.33857 1.45809e-17
9186.20004 1.46954e-17
9187.07152 1.48099e-17
9187.93298 1.48585e-17
9188.79444 1.49070e-17
9189.65590 1.48441e-17
9190.51736 1.47810e-17
9191.37883 1.47336e-17
9192.24029 1.46862e-17
9193.10175 1.47673e-17
9193.96321 1.48487e-17
9194.82467 1.50079e-17
9195.68614 1.51673e-17
9196.55762 1.53331e-17
9197.41908 1.54989e-17
9198.28054 1.56064e-17
9199.14200 1.57138e-17
9200.00346 1.57007e-17
9200.86492 1.56874e-17
9201.72639 1.55998e-17
9202.58785 1.55119e-17
9203.44931 1.54398e-17
9204.31077 1.53678e-17
9205.17224 1.53139e-17
9206.04371 1.52601e-17
9206.90518 1.51848e-17
9207.76664 1.51095e-17
9208.62810 1.50254e-17
9209.48956 1.49412e-17
9210.35102 1.48907e-17
9211.21249 1.48402e-17
9212.07395 1.48658e-17
9212.93541 1.48916e-17
9213.79687 1.50421e-17
9214.65833 1.51929e-17
9215.52981 1.54586e-17
9216.39127 1.57246e-17
9217.25274 1.60045e-17
9218.11420 1.62844e-17
9218.97566 1.65130e-17
9219.83712 1.67414e-17
9220.69859 1.69395e-17
9221.56005 1.71376e-17
9222.42151 1.73171e-17
9223.28297 1.74965e-17
9224.14443 1.76374e-17
9225.00590 1.77781e-17
9225.87737 1.78664e-17
9226.73884 1.79545e-17
9227.60030 1.79755e-17
9228.46176 1.79963e-17
9229.32322 1.79444e-17
9230.18468 1.78923e-17
9231.04615 1.78266e-17
9231.90761 1.77610e-17
9232.76907 1.77500e-17
9233.63053 1.77391e-17
9234.49199 1.77677e-17
9235.35346 1.77965e-17
9236.22494 1.78262e-17
9237.08640 1.78560e-17
9237.94786 1.79044e-17
9238.80932 1.79529e-17
9239.67078 1.80562e-17
9240.53225 1.81596e-17
9241.39371 1.83350e-17
9242.25517 1.85106e-17
9243.11663 1.87652e-17
9243.97809 1.90201e-17
9244.84957 1.93317e-17
9245.71103 1.96435e-17
9246.57250 1.99616e-17
9247.43396 2.02797e-17
9248.29542 2.05753e-17
9249.15688 2.08709e-17
9250.01834 2.11500e-17
9250.87981 2.14291e-17
9251.74127 2.16776e-17
9252.60273 2.19261e-17
9253.46419 2.20844e-17
9254.32565 2.22425e-17
9255.19713 2.23010e-17
9256.05860 2.23591e-17
9256.92006 2.24334e-17
9257.78152 2.25078e-17
9258.64298 2.26852e-17
9259.50444 2.28627e-17
9260.36591 2.31167e-17
9261.22737 2.33710e-17
9262.08883 2.36548e-17
9262.95029 2.39387e-17
9263.81175 2.41499e-17
9264.68323 2.43609e-17
9265.54469 2.44014e-17
9266.40616 2.44414e-17
9267.26762 2.43140e-17
9268.12908 2.41861e-17
9268.99054 2.39311e-17
9269.85200 2.36758e-17
9270.71347 2.33881e-17
9271.57493 2.31004e-17
9272.43639 2.28934e-17
9273.29785 2.26865e-17
9274.16933 2.26493e-17
9275.03079 2.26125e-17
9275.89226 2.28106e-17
9276.75372 2.30092e-17
9277.61518 2.34092e-17
9278.47664 2.38097e-17
9279.33810 2.43014e-17
9280.19957 2.47933e-17
9281.06103 2.52579e-17
9281.92249 2.57225e-17
9282.79397 2.60453e-17
9283.65543 2.63679e-17
9284.51689 2.64578e-17
9285.37835 2.65469e-17
9286.23982 2.63497e-17
9287.10128 2.61516e-17
9287.96274 2.56912e-17
9288.82420 2.52297e-17
9289.68566 2.46518e-17
9290.54713 2.40737e-17
9291.40859 2.35484e-17
9292.27005 2.30232e-17
9293.14153 2.27739e-17
9294.00299 2.25253e-17
9294.86445 2.26980e-17
9295.72592 2.28718e-17
9296.58738 2.33161e-17
9297.44884 2.37612e-17
9298.31030 2.42775e-17
9299.17176 2.47941e-17
9300.03323 2.51105e-17
9300.89469 2.54264e-17
9301.75615 2.52821e-17
9302.62763 2.51364e-17
9303.48909 2.47819e-17
9304.35055 2.44267e-17
9305.21201 2.42717e-17
9306.07348 2.41172e-17
9306.93494 2.40661e-17
9307.79640 2.40153e-17
9308.65786 2.37710e-17
9309.51932 2.35261e-17
9310.38079 2.31023e-17
9311.24225 2.26780e-17
9312.11373 2.22501e-17
9312.97519 2.18223e-17
9313.83665 2.15624e-17
9314.69811 2.13030e-17
9315.55958 2.14065e-17
9316.42104 2.15112e-17
9317.28250 2.19402e-17
9318.14396 2.23701e-17
9319.00542 2.27485e-17
9319.86688 2.31268e-17
9320.72835 2.33069e-17
9321.58981 2.34865e-17
9322.46129 2.38151e-17
9323.32275 2.41440e-17
9324.18421 2.46967e-17
9325.04567 2.52500e-17
9325.90714 2.53181e-17
9326.76860 2.53849e-17
9327.63006 2.45316e-17
9328.49152 2.36757e-17
9329.35298 2.25869e-17
9330.21445 2.14975e-17
9331.07591 2.08374e-17
9331.94739 2.01785e-17
9332.80885 1.98190e-17
9333.67031 1.94603e-17
9334.53177 1.92096e-17
9335.39323 1.89591e-17
9336.25470 1.88214e-17
9337.11616 1.86841e-17
9337.97762 1.86266e-17
9338.83908 1.85693e-17
9339.70055 1.91769e-17
9340.56201 1.97863e-17
9341.43349 2.18509e-17
9342.29495 2.39196e-17
9343.15641 2.64267e-17
9344.01787 2.89348e-17
9344.87933 3.00179e-17
9345.74080 3.10965e-17
9346.60226 3.01987e-17
9347.46372 2.92949e-17
9348.32518 2.67339e-17
9349.18664 2.41682e-17
9350.04811 2.11218e-17
9350.90957 1.80741e-17
9351.78105 1.67144e-17
9352.64251 1.53596e-17
9353.50397 1.63992e-17
9354.36543 1.74457e-17
9355.22689 1.93134e-17
9356.08836 2.11834e-17
9356.94982 2.25580e-17
9357.81128 2.39312e-17
9358.67274 2.40247e-17
9359.53420 2.41145e-17
9360.39567 2.25862e-17
9361.26715 2.10533e-17
9362.12861 1.91411e-17
9362.99007 1.72278e-17
9363.85153 1.60999e-17
9364.71299 1.49743e-17
9365.57446 1.46981e-17
9366.43592 1.44244e-17
9367.29738 1.48873e-17
9368.15884 1.53523e-17
9369.02030 1.59740e-17
9369.89178 1.65960e-17
9370.75324 1.67115e-17
9371.61471 1.68256e-17
9372.47617 1.64758e-17
9373.33763 1.61248e-17
9374.19909 1.55581e-17
9375.06056 1.49908e-17
9375.92202 1.45870e-17
9376.78348 1.41836e-17
9377.64494 1.44067e-17
9378.50640 1.46315e-17
9379.37788 1.53054e-17
9380.23934 1.59806e-17
9381.10081 1.65080e-17
9381.96227 1.70350e-17
9382.82373 1.72256e-17
9383.68519 1.74153e-17
9384.54665 1.74409e-17
9385.40812 1.74660e-17
9386.26958 1.73741e-17
9387.13104 1.72819e-17
9387.99250 1.69920e-17
9388.85396 1.67016e-17
9389.72544 1.62092e-17
9390.58691 1.57163e-17
9391.44837 1.50957e-17
9392.30983 1.44748e-17
9393.17129 1.38278e-17
9394.03275 1.31807e-17
9394.89422 1.26880e-17
9395.75568 1.21958e-17
9396.61714 1.19796e-17
9397.47860 1.17643e-17
9398.34006 1.17340e-17
9399.21154 1.17044e-17
9400.07300 1.17461e-17
9400.93447 1.17881e-17
9401.79593 1.17923e-17
9402.65739 1.17964e-17
9403.51885 1.16673e-17
9404.38031 1.15378e-17
9405.24178 1.13830e-17
9406.10324 1.12281e-17
9406.96470 1.11989e-17
9407.82616 1.11700e-17
9408.69764 1.12680e-17
9409.55910 1.13663e-17
9410.42057 1.15389e-17
9411.28203 1.17117e-17
9412.14349 1.18773e-17
9413.00495 1.20429e-17
9413.86641 1.21045e-17
9414.72788 1.21659e-17
9415.58934 1.20591e-17
9416.45080 1.19517e-17
9417.31226 1.16565e-17
9418.17372 1.13607e-17
9419.04520 1.08976e-17
9419.90666 1.04341e-17
9420.76813 9.83424e-18
9421.62959 9.23396e-18
9422.49105 8.71191e-18
9423.35251 8.19010e-18
9424.21397 8.25829e-18
9425.07544 8.32819e-18
9425.93690 9.15113e-18
9426.79836 9.97623e-18
9427.65982 1.10167e-17
9428.53130 1.20578e-17
9429.39276 1.27979e-17
9430.25423 1.35371e-17
9431.11569 1.34974e-17
9431.97715 1.34554e-17
9432.83861 1.23930e-17
9433.70007 1.13276e-17
9434.56153 1.00849e-17
9435.42300 8.84174e-18
9436.28446 8.29992e-18
9437.14592 7.76017e-18
9438.01740 8.05809e-18
9438.87886 8.35845e-18
9439.74032 9.43903e-18
9440.60179 1.05219e-17
9441.46325 1.18363e-17
9442.32471 1.31514e-17
9443.18617 1.39933e-17
9444.04763 1.48339e-17
9444.90910 1.50013e-17
9445.77056 1.51667e-17
9446.63202 1.47037e-17
9447.49348 1.42388e-17
9448.36496 1.33953e-17
9449.22642 1.25507e-17
9450.08788 1.17288e-17
9450.94935 1.09071e-17
9451.81081 1.03690e-17
9452.67227 9.83172e-18
9453.53373 9.67950e-18
9454.39520 9.52841e-18
9455.25666 9.78757e-18
9456.11812 1.00479e-17
9456.98960 1.06556e-17
9457.85106 1.12643e-17
9458.71252 1.20385e-17
9459.57398 1.28132e-17
9460.43545 1.33869e-17
9461.29691 1.39599e-17
9462.15837 1.41118e-17
9463.01983 1.42624e-17
9463.88129 1.41653e-17
9464.74276 1.40675e-17
9465.60422 1.39022e-17
9466.47570 1.37366e-17
9467.33716 1.36140e-17
9468.19862 1.34915e-17
9469.06008 1.35007e-17
9469.92155 1.35104e-17
9470.78301 1.35148e-17
9471.64447 1.35193e-17
9472.50593 1.33732e-17
9473.36739 1.32267e-17
9474.22885 1.30214e-17
9475.09032 1.28159e-17
9475.96180 1.26753e-17
9476.82326 1.25348e-17
9477.68472 1.27161e-17
9478.54618 1.28983e-17
9479.40764 1.36915e-17
9480.26911 1.44863e-17
9481.13057 1.55764e-17
9481.99203 1.66674e-17
9482.85349 1.74453e-17
9483.71495 1.82223e-17
9484.57642 1.83672e-17
9485.43788 1.85101e-17
9486.30936 1.79094e-17
9487.17082 1.73065e-17
9488.03228 1.62048e-17
9488.89374 1.51016e-17
9489.75520 1.41433e-17
9490.61667 1.31854e-17
9491.47813 1.27823e-17
9492.33959 1.23808e-17
9493.20105 1.25255e-17
9494.06252 1.26717e-17
9494.92398 1.33621e-17
9495.79546 1.40540e-17
9496.65692 1.53779e-17
9497.51838 1.67037e-17
9498.37984 1.85217e-17
9499.24130 2.03411e-17
9500.10277 2.19418e-17
9500.96423 2.35418e-17
9501.82569 2.43098e-17
9502.68715 2.50753e-17
9503.54861 2.49133e-17
9504.41008 2.47486e-17
9505.28155 2.37195e-17
9506.14302 2.26879e-17
9507.00448 2.13262e-17
9507.86594 1.99635e-17
9508.72740 1.89051e-17
9509.58887 1.78475e-17
9510.45033 1.71546e-17
9511.31179 1.64628e-17
9512.17325 1.60098e-17
9513.03471 1.55574e-17
9513.89617 1.54680e-17
9514.75764 1.53797e-17
9515.62912 1.58310e-17
9516.49058 1.62838e-17
9517.35204 1.72241e-17
9518.21350 1.81658e-17
9519.07496 1.94215e-17
9519.93643 2.06781e-17
9520.79789 2.19435e-17
9521.65935 2.32089e-17
9522.52081 2.40631e-17
9523.38227 2.49160e-17
9524.24374 2.52171e-17
9525.11522 2.55165e-17
9525.97668 2.54857e-17
9526.83814 2.54539e-17
9527.69960 2.52952e-17
9528.56106 2.51362e-17
9529.42252 2.50108e-17
9530.28399 2.48855e-17
9531.14545 2.48837e-17
9532.00691 2.48824e-17
9532.86837 2.48612e-17
9533.72984 2.48399e-17
9534.60131 2.46784e-17
9535.46278 2.45164e-17
9536.32424 2.41779e-17
9537.18570 2.38389e-17
9538.04716 2.33429e-17
9538.90862 2.28464e-17
9539.77009 2.26456e-17
9540.63155 2.24456e-17
9541.49301 2.29671e-17
9542.35447 2.34907e-17
9543.21593 2.44286e-17
9544.08741 2.53676e-17
9544.94888 2.62662e-17
9545.81034 2.71646e-17
9546.67180 2.75793e-17
9547.53326 2.79926e-17
9548.39472 2.74676e-17
9549.25619 2.69401e-17
9550.11765 2.60042e-17
9550.97911 2.50672e-17
9551.84057 2.47849e-17
9552.70203 2.45045e-17
9553.57351 2.49480e-17
9554.43497 2.53936e-17
9555.29644 2.59339e-17
9556.15790 2.64742e-17
9557.01936 2.66871e-17
9557.88082 2.68990e-17
9558.74228 2.65022e-17
9559.60375 2.61039e-17
9560.46521 2.52726e-17
9561.32667 2.44401e-17
9562.18813 2.41354e-17
9563.05961 2.38322e-17
9563.92107 2.45497e-17
9564.78254 2.52702e-17
9565.64400 2.64996e-17
9566.50546 2.77306e-17
9567.36692 2.89228e-17
9568.22838 3.01147e-17
9569.08985 3.06142e-17
9569.95131 3.11119e-17
9570.81277 3.04678e-17
9571.67423 2.98204e-17
9572.53569 2.86002e-17
9573.40717 2.73785e-17
9574.26863 2.62567e-17
9575.13010 2.51354e-17
9575.99156 2.45629e-17
9576.85302 2.39920e-17
9577.71448 2.43249e-17
9578.57594 2.46604e-17
9579.43741 2.53389e-17
9580.29887 2.60183e-17
9581.16033 2.62251e-17
9582.02179 2.64305e-17
9582.89327 2.60574e-17
9583.75473 2.56827e-17
9584.61620 2.48900e-17
9585.47766 2.40960e-17
9586.33912 2.34554e-17
9587.20058 2.28153e-17
9588.06204 2.31972e-17
9588.92351 2.35821e-17
9589.78497 2.48776e-17
9590.64643 2.61758e-17
9591.51791 2.73862e-17
9592.37937 2.85966e-17
9593.24083 2.91837e-17
9594.10229 2.97693e-17
9594.96376 2.97847e-17
9595.82522 2.97985e-17
9596.68668 2.93506e-17
9597.54814 2.89015e-17
9598.40960 2.82427e-17
9599.27107 2.75837e-17
9600.13253 2.69930e-17
9600.99399 2.64023e-17
9601.86547 2.61000e-17
9602.72693 2.57985e-17
9603.58839 2.59285e-17
9604.44986 2.60600e-17
9605.31132 2.65983e-17
9606.17278 2.71378e-17
9607.03424 2.79633e-17
9607.89570 2.87892e-17
9608.75717 2.93768e-17
9609.61863 2.99637e-17
9610.48009 2.98075e-17
9611.35157 2.96491e-17
9612.21303 2.89636e-17
9613.07449 2.82769e-17
9613.93595 2.74668e-17
9614.79742 2.66563e-17
9615.65888 2.60029e-17
9616.52034 2.53499e-17
9617.38180 2.50877e-17
9618.24326 2.48267e-17
9619.10473 2.50159e-17
9619.96619 2.52065e-17
9620.82765 2.57821e-17
9621.69913 2.63589e-17
9622.56059 2.71132e-17
9623.42205 2.78680e-17
9624.28352 2.85121e-17
9625.14498 2.91560e-17
9626.00644 2.94146e-17
9626.86790 2.96719e-17
9627.72936 2.92869e-17
9628.59083 2.89002e-17
9629.45229 2.79474e-17
9630.31375 2.69930e-17
9631.17521 2.60363e-17
9632.04669 2.50795e-17
9632.90815 2.45566e-17
9633.76961 2.40349e-17
9634.63108 2.41161e-17
9635.49254 2.41990e-17
9636.35400 2.48663e-17
9637.21546 2.55353e-17
9638.07692 2.61557e-17
9638.93839 2.67760e-17
9639.79985 2.68263e-17
9640.67133 2.68749e-17
9641.53279 2.66817e-17
9642.39425 2.64878e-17
9643.25571 2.64329e-17
9644.11718 2.63784e-17
9644.97864 2.65538e-17
9645.84010 2.67303e-17
9646.70156 2.71735e-17
9647.56302 2.76176e-17
9648.42448 2.80326e-17
9649.28595 2.84474e-17
9650.15743 2.84484e-17
9651.01889 2.84479e-17
9651.88035 2.80334e-17
9652.74181 2.76176e-17
9653.60327 2.69606e-17
9654.46474 2.63027e-17
9655.32620 2.56407e-17
9656.18766 2.49787e-17
9657.04912 2.45860e-17
9657.91058 2.41942e-17
9658.77205 2.42240e-17
9659.64352 2.42551e-17
9660.50499 2.47450e-17
9661.36645 2.52362e-17
9662.22791 2.60309e-17
9663.08937 2.68266e-17
9663.95083 2.75213e-17
9664.81230 2.82157e-17
9665.67376 2.85761e-17
9666.53522 2.89356e-17
9667.39668 2.90856e-17
9668.25815 2.92351e-17
9669.11961 2.92459e-17
9669.99109 2.92561e-17
9670.85255 2.90078e-17
9671.71401 2.87584e-17
9672.57547 2.82180e-17
9673.43693 2.76767e-17
9674.29840 2.70652e-17
9675.15986 2.64532e-17
9676.02132 2.59909e-17
9676.88278 2.55291e-17
9677.74424 2.53700e-17
9678.61572 2.52118e-17
9679.47718 2.54577e-17
9680.33865 2.57048e-17
9681.20011 2.61532e-17
9682.06157 2.66019e-17
9682.92303 2.69704e-17
9683.78449 2.73387e-17
9684.64596 2.75439e-17
9685.50742 2.77483e-17
9686.36888 2.77786e-17
9687.23034 2.78084e-17
9688.10182 2.76931e-17
9688.96328 2.75775e-17
9689.82475 2.73880e-17
9690.68621 2.71982e-17
9691.54767 2.69473e-17
9692.40913 2.66961e-17
9693.27059 2.63461e-17
9694.13206 2.59955e-17
9694.99352 2.55978e-17
9695.85498 2.52001e-17
9696.71644 2.48961e-17
9697.57790 2.45925e-17
9698.44938 2.44525e-17
9699.31084 2.43130e-17
9700.17231 2.43102e-17
9701.03377 2.43079e-17
9701.89523 2.43846e-17
9702.75669 2.44616e-17
9703.61816 2.44894e-17
9704.47962 2.45170e-17
9705.34108 2.44128e-17
9706.20254 2.43082e-17
9707.06400 2.41521e-17
9707.93548 2.39958e-17
9708.79694 2.38707e-17
9709.65841 2.37458e-17
9710.51987 2.36969e-17
9711.38133 2.36483e-17
9712.24279 2.37053e-17
9713.10425 2.37626e-17
9713.96572 2.38466e-17
9714.82718 2.39306e-17
9715.68864 2.39468e-17
9716.55010 2.39628e-17
9717.41156 2.38840e-17
9718.28304 2.38050e-17
9719.14451 2.36204e-17
9720.00597 2.34354e-17
9720.86743 2.32437e-17
9721.72889 2.30520e-17
9722.59035 2.30051e-17
9723.45182 2.29586e-17
9724.31328 2.29898e-17
9725.17474 2.30212e-17
9726.03620 2.29323e-17
9726.89766 2.28431e-17
9727.76914 2.25639e-17
9728.63060 2.22842e-17
9729.49207 2.18517e-17
9730.35353 2.14187e-17
9731.21499 2.09250e-17
9732.07645 2.04312e-17
9732.93791 2.00461e-17
9733.79938 1.96614e-17
9734.66084 1.94906e-17
9735.52230 1.93205e-17
9736.38376 1.93436e-17
9737.25524 1.93672e-17
9738.11670 1.95364e-17
9738.97817 1.97060e-17
9739.83963 1.99278e-17
9740.70109 2.01497e-17
9741.56255 2.03314e-17
9742.42401 2.05130e-17
9743.28548 2.06055e-17
9744.14694 2.06978e-17
9745.00840 2.06721e-17
9745.86986 2.06460e-17
9746.74134 2.05415e-17
9747.60280 2.04369e-17
9748.46426 2.03078e-17
9749.32573 2.01786e-17
9750.18719 2.00378e-17
9751.04865 1.98969e-17
9751.91011 1.97512e-17
9752.77157 1.96054e-17
9753.63304 1.94498e-17
9754.49450 1.92943e-17
9755.35596 1.91189e-17
9756.22744 1.89435e-17
9757.08890 1.87848e-17
9757.95036 1.86261e-17
9758.81183 1.85380e-17
9759.67329 1.84501e-17
9760.53475 1.84743e-17
9761.39621 1.84988e-17
9762.25767 1.86710e-17
9763.11913 1.88437e-17
9763.98060 1.91098e-17
9764.84206 1.93761e-17
9765.71354 1.95833e-17
9766.57500 1.97903e-17
9767.43646 1.98638e-17
9768.29792 1.99368e-17
9769.15939 1.99256e-17
9770.02085 1.99141e-17
9770.88231 1.98601e-17
9771.74377 1.98059e-17
9772.60523 1.97300e-17
9773.46670 1.96539e-17
9774.32816 1.95826e-17
9775.19964 1.95112e-17
9776.06110 1.94653e-17
9776.92256 1.94196e-17
9777.78402 1.94133e-17
9778.64548 1.94071e-17
9779.50695 1.94582e-17
9780.36841 1.95095e-17
9781.22987 1.96230e-17
9782.09133 1.97366e-17
9782.95280 1.98142e-17
9783.81426 1.98917e-17
9784.68574 1.98266e-17
9785.54720 1.97611e-17
9786.40866 1.96052e-17
9787.27012 1.94490e-17
9788.13158 1.92995e-17
9788.99305 1.91500e-17
9789.85451 1.90410e-17
9790.71597 1.89322e-17
9791.57743 1.88782e-17
9792.43889 1.88243e-17
9793.30036 1.87886e-17
9794.16182 1.87530e-17
9795.03330 1.86591e-17
9795.89476 1.85650e-17
9796.75622 1.84352e-17
9797.61768 1.83053e-17
9798.47915 1.82516e-17
9799.34061 1.81981e-17
9800.20207 1.82580e-17
9801.06353 1.83182e-17
9801.92499 1.84385e-17
9802.78645 1.85589e-17
9803.64792 1.86861e-17
9804.51940 1.88132e-17
9805.38086 1.88844e-17
9806.24232 1.89553e-17
9807.10378 1.89400e-17
9807.96524 1.89243e-17
9808.82671 1.88828e-17
9809.68817 1.88411e-17
9810.54963 1.88308e-17
9811.41109 1.88205e-17
9812.27255 1.88777e-17
9813.13402 1.89351e-17
9813.99548 1.90767e-17
9814.86696 1.92185e-17
9815.72842 1.93437e-17
9816.58988 1.94689e-17
9817.45134 1.94707e-17
9818.31280 1.94722e-17
9819.17427 1.93649e-17
9820.03573 1.92572e-17
9820.89719 1.90858e-17
9821.75865 1.89142e-17
9822.62012 1.87447e-17
9823.48158 1.85752e-17
9824.35306 1.84847e-17
9825.21452 1.83944e-17
9826.07598 1.83716e-17
9826.93744 1.83490e-17
9827.79890 1.83316e-17
9828.66037 1.83143e-17
9829.52183 1.82869e-17
9830.38329 1.82595e-17
9831.24475 1.82406e-17
9832.10621 1.82217e-17
9832.97769 1.82070e-17
9833.83915 1.81923e-17
9834.70062 1.81577e-17
9835.56208 1.81229e-17
9836.42354 1.80571e-17
9837.28500 1.79911e-17
9838.14647 1.79006e-17
9839.00793 1.78101e-17
9839.86939 1.77023e-17
9840.73085 1.75945e-17
9841.59231 1.74734e-17
9842.45377 1.73521e-17
9843.32525 1.72314e-17
9844.18672 1.71106e-17
9845.04818 1.70330e-17
9845.90964 1.69555e-17
9846.77110 1.69548e-17
9847.63256 1.69543e-17
9848.49403 1.70201e-17
9849.35549 1.70860e-17
9850.21695 1.71991e-17
9851.07841 1.73123e-17
9851.93987 1.74544e-17
9852.81135 1.75966e-17
9853.67282 1.77461e-17
9854.53428 1.78955e-17
9855.39574 1.80387e-17
9856.25720 1.81819e-17
9857.11866 1.83087e-17
9857.98013 1.84355e-17
9858.84159 1.85189e-17
9859.70305 1.86021e-17
9860.56451 1.86109e-17
9861.42597 1.86195e-17
9862.29745 1.85495e-17
9863.15891 1.84793e-17
9864.02038 1.83438e-17
9864.88184 1.82082e-17
9865.74330 1.80321e-17
9866.60476 1.78558e-17
9867.46622 1.76742e-17
9868.32769 1.74927e-17
9869.18915 1.73260e-17
9870.05061 1.71594e-17
9870.92209 1.70052e-17
9871.78355 1.68511e-17
9872.64501 1.67121e-17
9873.50648 1.65732e-17
9874.36794 1.64614e-17
9875.22940 1.63496e-17
9876.09086 1.62742e-17
9876.95232 1.61989e-17
9877.81379 1.61687e-17
9878.67525 1.61387e-17
9879.53671 1.61576e-17
9880.39817 1.61767e-17
9881.26965 1.62387e-17
9882.13111 1.63009e-17
9882.99257 1.63949e-17
9883.85404 1.64890e-17
9884.71550 1.65947e-17
9885.57696 1.67004e-17
9886.43842 1.67957e-17
9887.29988 1.68909e-17
9888.16135 1.69552e-17
9889.02281 1.70194e-17
9889.88427 1.70355e-17
9890.74573 1.70513e-17
9891.61721 1.70187e-17
9892.47867 1.69859e-17
9893.34014 1.69133e-17
9894.20160 1.68406e-17
9895.06306 1.67374e-17
9895.92452 1.66340e-17
9896.78598 1.65100e-17
9897.64745 1.63859e-17
9898.50891 1.62572e-17
9899.37037 1.61285e-17
9900.23183 1.60165e-17
9901.09329 1.59045e-17
9901.96477 1.58126e-17
9902.82623 1.57207e-17
9903.68770 1.56309e-17
9904.54916 1.55411e-17
9905.41062 1.54575e-17
9906.27208 1.53739e-17
9907.13354 1.53359e-17
9907.99501 1.52980e-17
9908.85647 1.53244e-17
9909.71793 1.53511e-17
9910.57939 1.54239e-17
9911.45087 1.54968e-17
9912.31233 1.55868e-17
9913.17380 1.56768e-17
9914.03526 1.57221e-17
9914.89672 1.57672e-17
9915.75818 1.57185e-17
9916.61964 1.56696e-17
9917.48111 1.55442e-17
9918.34257 1.54186e-17
9919.20403 1.52466e-17
9920.07551 1.50745e-17
9920.93697 1.48899e-17
9921.79843 1.47053e-17
9922.65989 1.45429e-17
9923.52136 1.43806e-17
9924.38282 1.42557e-17
9925.24428 1.41308e-17
9926.10574 1.40492e-17
9926.96720 1.39677e-17
9927.82867 1.39069e-17
9928.69013 1.38461e-17
9929.56161 1.37701e-17
9930.42307 1.36941e-17
9931.28453 1.35912e-17
9932.14599 1.34883e-17
9933.00746 1.33637e-17
9933.86892 1.32390e-17
9934.73038 1.31033e-17
9935.59184 1.29675e-17
9936.45330 1.28358e-17
9937.31477 1.27042e-17
9938.17623 1.25968e-17
9939.03769 1.24896e-17
9939.90917 1.24319e-17
9940.77063 1.23743e-17
9941.63209 1.23732e-17
9942.49355 1.23723e-17
9943.35502 1.24015e-17
9944.21648 1.24309e-17
9945.07794 1.24678e-17
9945.93940 1.25048e-17
9946.80086 1.25437e-17
9947.66233 1.25826e-17
9948.52379 1.26169e-17
9949.39527 1.26512e-17
9950.25673 1.26683e-17
9951.11819 1.26853e-17
9951.97965 1.26772e-17
9952.84112 1.26689e-17
9953.70258 1.26517e-17
9954.56404 1.26345e-17
9955.42550 1.26261e-17
9956.28696 1.26178e-17
9957.14843 1.26064e-17
9958.00989 1.25949e-17
9958.88137 1.25639e-17
9959.74283 1.25328e-17
9960.60429 1.24737e-17
9961.46575 1.24146e-17
9962.32721 1.23220e-17
9963.18868 1.22294e-17
9964.05014 1.21311e-17
9964.91160 1.20328e-17
9965.77306 1.19750e-17
9966.63452 1.19173e-17
9967.49599 1.19108e-17
9968.36747 1.19045e-17
9969.22893 1.19315e-17
9970.09039 1.19587e-17
9970.95185 1.20164e-17
9971.81331 1.20743e-17
9972.67477 1.21760e-17
9973.53624 1.22779e-17
9974.39770 1.24181e-17
9975.25916 1.25585e-17
9976.12062 1.27071e-17
9976.98208 1.28558e-17
9977.85356 1.29891e-17
9978.71503 1.31223e-17
9979.57649 1.32286e-17
9980.43795 1.33349e-17
9981.29941 1.34104e-17
9982.16087 1.34859e-17
9983.02234 1.35466e-17
9983.88380 1.36072e-17
9984.74526 1.36693e-17
9985.60672 1.37314e-17
9986.46818 1.38029e-17
9987.32965 1.38744e-17
9988.20112 1.39596e-17
9989.06259 1.40447e-17
9989.92405 1.41135e-17
9990.78551 1.41822e-17
9991.64697 1.42006e-17
9992.50843 1.42188e-17
9993.36990 1.42123e-17
9994.23136 1.42057e-17
9995.09282 1.42179e-17
9995.95428 1.42303e-17
9996.81574 1.42538e-17
9997.67721 1.42775e-17
9998.54869 1.42846e-17
9999.41015 1.42916e-17
