# wavelength flux
3483.11419 1.11776e-17
3487.33202 1.10585e-17
3491.54986 9.16771e-18
3495.76769 1.61937e-17
3499.98552 1.81061e-17
3504.20335 1.61510e-17
3508.42118 1.68297e-17
3512.63902 1.57885e-17
3516.85685 2.23456e-17
3521.07468 2.46442e-17
3525.29251 2.24009e-17
3529.51034 2.03154e-17
3533.72818 1.52211e-17
3537.94601 1.29829e-17
3542.16384 1.49687e-17
3546.38167 1.25781e-17
3550.59950 1.34350e-17
3554.81734 1.43567e-17
3559.03517 1.40859e-17
3563.25300 1.84254e-17
3567.47083 1.43176e-17
3571.67848 1.29797e-17
3575.89631 1.37585e-17
3580.11414 1.26138e-17
3584.33197 1.33293e-17
3588.54980 1.38349e-17
3592.76764 1.62882e-17
3596.98547 1.55999e-17
3601.20330 1.34964e-17
3605.42113 1.27370e-17
3609.63896 1.60639e-17
3613.85680 1.65406e-17
3618.07463 1.57143e-17
3622.29246 1.71048e-17
3626.51029 1.59595e-17
3630.72812 1.27863e-17
3634.94596 9.98160e-18
3639.16379 1.43816e-17
3643.38162 1.36473e-17
3647.59945 1.42439e-17
3651.81728 1.37114e-17
3656.03512 1.46454e-17
3660.25295 1.76618e-17
3664.47078 2.06598e-17
3668.67842 2.02204e-17
3672.89626 1.88173e-17
3677.11409 1.56336e-17
3681.33192 1.41219e-17
3685.54975 1.48265e-17
3689.76758 1.41122e-17
3693.98542 1.41753e-17
3698.20325 1.45984e-17
3702.42108 1.59595e-17
3706.63891 1.49417e-17
3710.85674 1.35091e-17
3715.07458 1.40833e-17
3719.29241 1.47209e-17
3723.51024 1.40676e-17
3727.72807 1.45729e-17
3731.94590 1.54491e-17
3736.16374 1.55023e-17
3740.38157 1.36155e-17
3744.59940 1.27877e-17
3748.81723 1.30873e-17
3753.03506 1.41157e-17
3757.25290 1.43251e-17
3761.47073 1.39296e-17
3765.67837 1.44073e-17
3769.89620 1.33532e-17
3774.11404 1.44279e-17
3778.33187 1.42684e-17
3782.54970 1.41921e-17
3786.76753 1.41158e-17
3790.98536 1.40395e-17
3795.20320 1.39633e-17
3799.42103 1.38871e-17
3803.63886 1.38110e-17
3807.85669 1.37349e-17
3812.07452 1.36588e-17
3816.29236 1.35828e-17
3820.51019 1.35069e-17
3824.72802 1.36319e-17
3828.94585 1.32421e-17
3833.16368 1.33917e-17
3837.38152 1.33342e-17
3841.59935 1.37109e-17
3845.81718 1.34280e-17
3850.03501 1.33287e-17
3854.25284 1.29654e-17
3858.47068 1.30944e-17
3862.67832 1.27639e-17
3866.89615 1.31490e-17
3871.11398 1.36917e-17
3875.33182 1.37287e-17
3879.54965 1.33053e-17
3883.76748 1.33448e-17
3887.98531 1.36834e-17
3892.20314 1.34866e-17
3896.42098 1.38960e-17
3900.63881 1.42376e-17
3904.85664 1.38670e-17
3909.07447 1.38396e-17
3913.29230 1.39374e-17
3917.51014 1.34101e-17
3921.72797 1.37099e-17
3925.94580 1.35976e-17
3930.16363 1.36321e-17
3934.38146 1.37001e-17
3938.59930 1.36186e-17
3942.81713 1.38010e-17
3947.03496 1.35291e-17
3951.25279 1.43943e-17
3955.47062 1.46319e-17
3959.67827 1.43439e-17
3963.89610 1.45899e-17
3968.11393 1.41649e-17
3972.33176 1.42688e-17
3976.54960 1.44138e-17
3980.76743 1.43094e-17
3984.98526 1.44028e-17
3989.20309 1.48326e-17
3993.42092 1.52689e-17
3997.63876 1.51181e-17
4001.85659 1.45373e-17
4006.07442 1.46989e-17
4010.29225 1.46570e-17
4014.51008 1.48636e-17
4018.72792 1.49111e-17
4022.94575 1.51847e-17
4027.16358 1.52416e-17
4031.38141 1.50637e-17
4035.59924 1.52464e-17
4039.81708 1.58864e-17
4044.03491 1.55822e-17
4048.25274 1.52148e-17
4052.47057 1.53695e-17
4056.67822 1.53653e-17
4060.89605 1.59324e-17
4065.11388 1.60457e-17
4069.33171 1.55267e-17
4073.54954 1.52794e-17
4077.76738 1.56805e-17
4081.98521 1.57573e-17
4086.20304 1.52556e-17
4090.42087 1.49406e-17
4094.63870 1.52232e-17
4098.85654 1.54055e-17
4103.07437 1.48576e-17
4107.29220 1.45609e-17
4111.51003 1.48971e-17
4115.72786 1.52688e-17
4119.94570 1.50624e-17
4124.16353 1.45265e-17
4128.38136 1.45422e-17
4132.59919 1.47138e-17
4136.81702 1.48257e-17
4141.03486 1.45729e-17
4145.25269 1.43518e-17
4149.47052 1.42373e-17
4153.67816 1.46439e-17
4157.89600 1.48232e-17
4162.11383 1.47013e-17
4166.33166 1.46944e-17
4170.54949 1.46859e-17
4174.76732 1.51640e-17
4178.98516 1.51547e-17
4183.20299 1.48391e-17
4187.42082 1.49147e-17
4191.63865 1.47147e-17
4195.85648 1.47963e-17
4200.07432 1.46344e-17
4204.29215 1.42827e-17
4208.50998 1.40042e-17
4212.72781 1.41007e-17
4216.94564 1.43298e-17
4221.16348 1.42217e-17
4225.38131 1.43072e-17
4229.59914 1.41734e-17
4233.81697 1.38406e-17
4238.03480 1.35054e-17
4242.25264 1.35563e-17
4246.47047 1.38808e-17
4250.67811 1.36758e-17
4254.89594 1.37629e-17
4259.11378 1.34487e-17
4263.33161 1.36271e-17
4267.54944 1.35169e-17
4271.76727 1.34513e-17
4275.98510 1.33616e-17
4280.20294 1.33324e-17
4284.42077 1.31577e-17
4288.63860 1.29507e-17
4292.85643 1.27341e-17
4297.07426 1.28179e-17
4301.29210 1.28199e-17
4305.50993 1.27675e-17
4309.72776 1.28482e-17
4313.94559 1.27455e-17
4318.16342 1.24573e-17
4322.38126 1.23201e-17
4326.59909 1.23065e-17
4330.81692 1.23846e-17
4335.03475 1.28291e-17
4339.25258 1.28260e-17
4343.46023 1.24585e-17
4347.68825 1.23667e-17
4351.89589 1.25173e-17
4356.11372 1.29287e-17
4360.33156 1.31578e-17
4364.54939 1.28864e-17
4368.76722 1.26012e-17
4372.98505 1.26209e-17
4377.20288 1.31251e-17
4381.42072 1.33810e-17
4385.63855 1.34414e-17
4389.85638 1.35389e-17
4394.07421 1.34741e-17
4398.29204 1.35344e-17
4402.50988 1.33236e-17
4406.72771 1.36062e-17
4410.94554 1.42715e-17
4415.16337 1.43037e-17
4419.38120 1.43360e-17
4423.59904 1.43682e-17
4427.81687 1.44004e-17
4432.03470 1.44326e-17
4436.25253 1.44648e-17
4440.46018 1.44970e-17
4444.68820 1.45292e-17
4448.89584 1.45613e-17
4453.11367 1.45934e-17
4457.33150 1.46255e-17
4461.54934 1.46576e-17
4465.76717 1.46897e-17
4469.98500 1.47218e-17
4474.20283 1.47538e-17
4478.42066 1.47859e-17
4482.63850 1.50785e-17
4486.85633 1.51326e-17
4491.07416 1.51514e-17
4495.29199 1.51563e-17
4499.50982 1.49888e-17
4503.72766 1.53098e-17
4507.94549 1.54178e-17
4512.16332 1.51970e-17
4516.38115 1.51604e-17
4520.59898 1.51739e-17
4524.81682 1.51623e-17
4529.03465 1.51729e-17
4533.25248 1.53886e-17
4537.46012 1.52945e-17
4541.67796 1.54986e-17
4545.89579 1.55269e-17
4550.11362 1.57837e-17
4554.33145 1.57722e-17
4558.54928 1.55817e-17
4562.76712 1.55499e-17
4566.98495 1.56495e-17
4571.20278 1.55962e-17
4575.42061 1.54744e-17
4579.63844 1.54888e-17
4583.85628 1.56306e-17
4588.07411 1.53999e-17
4592.29194 1.53894e-17
4596.50977 1.55221e-17
4600.72760 1.54502e-17
4604.94544 1.52924e-17
4609.16327 1.51786e-17
4613.38110 1.50145e-17
4617.59893 1.47813e-17
4621.81676 1.49571e-17
4626.03460 1.49423e-17
4630.25243 1.50804e-17
4634.47026 1.51544e-17
4638.67790 1.51410e-17
4642.89574 1.52943e-17
4647.11357 1.51581e-17
4651.33140 1.50563e-17
4655.54923 1.51741e-17
4659.76706 1.51022e-17
4663.98490 1.50362e-17
4668.20273 1.49339e-17
4672.42056 1.47819e-17
4676.63839 1.47393e-17
4680.85622 1.45654e-17
4685.07406 1.44411e-17
4689.29189 1.43625e-17
4693.50972 1.42209e-17
4697.72755 1.40838e-17
4701.94538 1.40676e-17
4706.16322 1.40054e-17
4710.38105 1.40182e-17
4714.59888 1.38802e-17
4718.81671 1.38229e-17
4723.03454 1.38381e-17
4727.25238 1.37435e-17
4731.47021 1.38361e-17
4735.67785 1.38652e-17
4739.89568 1.37534e-17
4744.11352 1.34595e-17
4748.33135 1.32797e-17
4752.54918 1.34057e-17
4756.76701 1.32963e-17
4760.98484 1.31118e-17
4765.20268 1.30542e-17
4769.42051 1.31394e-17
4773.63834 1.28908e-17
4777.85617 1.29004e-17
4782.07400 1.29492e-17
4786.29184 1.29514e-17
4790.50967 1.28775e-17
4794.72750 1.29185e-17
4798.94533 1.28279e-17
4803.16316 1.29288e-17
4807.38100 1.29271e-17
4811.59883 1.30083e-17
4815.81666 1.28452e-17
4820.03449 1.27410e-17
4824.25232 1.26719e-17
4828.47016 1.26679e-17
4832.67780 1.26430e-17
4836.89563 1.26756e-17
4841.11346 1.28121e-17
4845.33130 1.24846e-17
4849.54913 1.24403e-17
4853.76696 1.23843e-17
4857.98479 1.25441e-17
4862.20262 1.25678e-17
4866.42046 1.24485e-17
4870.63829 1.22119e-17
4874.85612 1.22631e-17
4879.07395 1.22398e-17
4883.29178 1.22413e-17
4887.50962 1.21519e-17
4891.72745 1.20978e-17
4895.94528 1.20784e-17
4900.16311 1.19975e-17
4904.38094 1.18211e-17
4908.59878 1.18319e-17
4912.81661 1.21370e-17
4917.03444 1.20945e-17
4921.25227 1.20363e-17
4925.47010 1.17506e-17
4929.67775 1.18654e-17
4933.89558 1.19609e-17
4938.11341 1.19385e-17
4942.33124 1.19162e-17
4946.54908 1.18939e-17
4950.76691 1.18715e-17
4954.98474 1.18492e-17
4959.20257 1.18269e-17
4963.42040 1.18047e-17
4967.63824 1.17824e-17
4971.85607 1.17601e-17
4976.07390 1.16183e-17
4980.29173 1.16548e-17
4984.50956 1.17385e-17
4988.72740 1.16737e-17
4992.94523 1.19572e-17
4997.16306 1.19250e-17
5001.38089 1.15524e-17
5005.59872 1.15097e-17
5009.81656 1.16667e-17
5014.03439 1.16476e-17
5018.25222 1.16168e-17
5022.47005 1.16594e-17
5026.67770 1.20076e-17
5030.89553 1.21464e-17
5035.11336 1.22377e-17
5039.33119 1.23290e-17
5043.54902 1.24203e-17
5047.76686 1.25115e-17
5051.98469 1.26027e-17
5056.20252 1.26939e-17
5060.42035 1.27851e-17
5064.63818 1.28762e-17
5068.85602 1.29673e-17
5073.07385 1.30584e-17
5077.29168 1.30011e-17
5081.50951 1.30597e-17
5085.72734 1.31283e-17
5089.94518 1.31970e-17
5094.16301 1.32656e-17
5098.38084 1.33342e-17
5102.59867 1.34028e-17
5106.81650 1.34713e-17
5111.03434 1.35399e-17
5115.25217 1.36084e-17
5119.45981 1.36769e-17
5123.67764 1.36845e-17
5127.89548 1.37451e-17
5132.11331 1.39151e-17
5136.33114 1.39411e-17
5140.54897 1.39151e-17
5144.76680 1.38980e-17
5148.98464 1.38879e-17
5153.20247 1.40561e-17
5157.42030 1.40872e-17
5161.63813 1.41104e-17
5165.85596 1.40461e-17
5170.07380 1.39609e-17
5174.29163 1.40537e-17
5178.50946 1.39496e-17
5182.72729 1.40588e-17
5186.94512 1.40896e-17
5191.16296 1.41169e-17
5195.38079 1.42659e-17
5199.59862 1.42656e-17
5203.81645 1.41235e-17
5208.03428 1.41495e-17
5212.25212 1.42301e-17
5216.46995 1.42486e-17
5220.67759 1.40974e-17
5224.89542 1.39618e-17
5229.11326 1.40667e-17
5233.33109 1.41034e-17
5237.54892 1.40878e-17
5241.76675 1.41035e-17
5245.98458 1.40641e-17
5250.20242 1.41436e-17
5254.42025 1.41331e-17
5258.63808 1.40426e-17
5262.85591 1.40408e-17
5267.07374 1.39557e-17
5271.29158 1.38276e-17
5275.50941 1.39411e-17
5279.72724 1.38835e-17
5283.94507 1.36888e-17
5288.16290 1.36651e-17
5292.38074 1.37060e-17
5296.59857 1.35870e-17
5300.81640 1.34489e-17
5305.03423 1.34566e-17
5309.25206 1.34212e-17
5313.46990 1.32437e-17
5317.67754 1.31710e-17
5321.89537 1.30283e-17
5326.11320 1.31652e-17
5330.33104 1.32064e-17
5334.54887 1.29618e-17
5338.76670 1.27477e-17
5342.98453 1.27550e-17
5347.20236 1.26830e-17
5351.42020 1.28473e-17
5355.63803 1.28415e-17
5359.85586 1.27120e-17
5364.07369 1.27449e-17
5368.29152 1.26336e-17
5372.50936 1.25163e-17
5376.72719 1.24839e-17
5380.94502 1.26582e-17
5385.16285 1.28445e-17
5389.38068 1.27808e-17
5393.59852 1.25409e-17
5397.81635 1.23284e-17
5402.03418 1.22990e-17
5406.25201 1.22744e-17
5410.45966 1.22362e-17
5414.67749 1.20672e-17
5418.89532 1.20555e-17
5423.11315 1.22564e-17
5427.33098 1.20452e-17
5431.54882 1.19847e-17
5435.76665 1.21359e-17
5439.98448 1.20752e-17
5444.20231 1.19813e-17
5448.42014 1.19549e-17
5452.63798 1.19132e-17
5456.85581 1.19076e-17
5461.07364 1.16799e-17
5465.29147 1.17076e-17
5469.50930 1.15718e-17
5473.72714 1.14631e-17
5477.94497 1.16362e-17
5482.16280 1.16831e-17
5486.38063 1.15101e-17
5490.59846 1.16538e-17
5494.81630 1.15108e-17
5499.03413 1.13175e-17
5503.25196 1.12529e-17
5507.45960 1.13402e-17
5511.67744 1.12989e-17
5515.89527 1.12284e-17
5520.11310 1.11310e-17
5524.33093 1.11627e-17
5528.54876 1.11830e-17
5532.76660 1.11195e-17
5536.98443 1.11141e-17
5541.20226 1.09955e-17
5545.42009 1.09608e-17
5549.63792 1.09095e-17
5553.85576 1.08266e-17
5558.07359 1.07384e-17
5562.29142 1.05498e-17
5566.50925 1.04019e-17
5570.72708 1.04743e-17
5574.94492 1.05975e-17
5579.16275 1.04857e-17
5583.38058 1.03839e-17
5587.59841 1.04008e-17
5591.81624 1.05687e-17
5596.03408 1.06338e-17
5600.25191 1.04324e-17
5604.45955 1.03829e-17
5608.67738 1.03529e-17
5612.89522 1.01628e-17
5617.11305 1.01981e-17
5621.33088 1.00475e-17
5625.54871 1.00383e-17
5629.76654 1.00641e-17
5633.98438 1.00815e-17
5638.20221 1.01059e-17
5642.42004 1.00653e-17
5646.63787 9.98067e-18
5650.85570 9.95883e-18
5655.07354 9.88382e-18
5659.29137 9.83988e-18
5663.50920 9.86052e-18
5667.72703 9.81384e-18
5671.94486 9.72988e-18
5676.16270 9.65865e-18
5680.38053 9.70254e-18
5684.59836 9.57481e-18
5688.81619 9.49360e-18
5693.03402 9.45555e-18
5697.25186 9.43412e-18
5701.46969 9.55256e-18
5705.67733 9.52880e-18
5709.89516 9.51262e-18
5714.11300 9.54285e-18
5718.33083 9.51639e-18
5722.54866 9.55640e-18
5726.76649 9.54484e-18
5730.98432 9.50631e-18
5735.20216 9.55041e-18
5739.41999 9.59022e-18
5743.63782 9.44510e-18
5747.85565 9.41576e-18
5752.07348 9.51406e-18
5756.29132 9.54057e-18
5760.50915 9.52159e-18
5764.72698 9.53365e-18
5768.94481 9.44203e-18
5773.16264 9.46588e-18
5777.38048 9.49402e-18
5781.59831 9.49999e-18
5785.81614 9.43826e-18
5790.03397 9.43263e-18
5794.25180 9.38337e-18
5798.45945 9.45493e-18
5802.67728 9.52500e-18
5806.89511 9.52552e-18
5811.11294 9.52758e-18
5815.33078 9.56112e-18
5819.54861 9.64276e-18
5823.76644 9.66739e-18
5827.98427 9.65999e-18
5832.20210 9.57555e-18
5836.41994 9.46105e-18
5840.63777 9.60453e-18
5844.85560 9.68549e-18
5849.07343 9.47282e-18
5853.29126 9.42817e-18
5857.50910 9.45486e-18
5861.72693 9.38420e-18
5865.94476 9.38772e-18
5870.16259 9.33332e-18
5874.38042 9.25513e-18
5878.59826 9.01032e-18
5882.81609 8.89403e-18
5887.03392 8.92891e-18
5891.25175 9.07441e-18
5895.45940 8.64201e-18
5899.67723 8.55202e-18
5903.89506 8.70205e-18
5908.11289 8.93111e-18
5912.33072 8.81145e-18
5916.54856 8.72745e-18
5920.76639 8.80559e-18
5924.98422 8.77369e-18
5929.20205 8.55648e-18
5933.41988 8.56640e-18
5937.63772 8.42610e-18
5941.85555 8.36090e-18
5946.07338 8.48163e-18
5950.29121 8.54269e-18
5954.50904 8.45137e-18
5958.72688 8.42598e-18
5962.94471 8.40059e-18
5967.16254 8.37521e-18
5971.38037 8.34984e-18
5975.59820 8.32447e-18
5979.81604 8.29911e-18
5984.03387 8.27375e-18
5988.25170 8.24841e-18
5992.45934 8.22306e-18
5996.67718 8.19773e-18
6000.89501 8.17240e-18
6005.11284 8.14708e-18
6009.33067 8.12176e-18
6013.54850 8.09646e-18
6017.76634 8.07116e-18
6021.98417 8.00300e-18
6026.20200 8.11972e-18
6030.41983 8.15814e-18
6034.63766 7.96297e-18
6038.85550 8.05831e-18
6043.07333 8.10341e-18
6047.29116 8.00418e-18
6051.50899 8.01399e-18
6055.72682 7.94293e-18
6059.94466 7.76228e-18
6064.16249 7.64331e-18
6068.38032 7.61706e-18
6072.59815 7.65829e-18
6076.81598 7.73097e-18
6081.03382 7.79015e-18
6085.25165 7.64339e-18
6089.45929 7.60127e-18
6093.67712 7.51683e-18
6097.89496 7.47596e-18
6102.11279 7.35572e-18
6106.33062 7.28620e-18
6110.54845 7.25740e-18
6114.76628 7.28499e-18
6118.98412 7.23813e-18
6123.20195 7.16071e-18
6127.41978 7.19044e-18
6131.63761 6.98998e-18
6135.85544 6.96248e-18
6140.07328 7.04426e-18
6144.29111 6.89943e-18
6148.50894 6.76805e-18
6152.72677 6.82112e-18
6156.94460 6.84615e-18
6161.16244 6.67973e-18
6165.38027 6.67733e-18
6169.59810 6.68451e-18
6173.81593 6.71241e-18
6178.03376 6.73936e-18
6182.25160 6.72586e-18
6186.45924 6.70992e-18
6190.67707 6.77332e-18
6194.89490 6.67574e-18
6199.11274 6.68846e-18
6203.33057 6.68689e-18
6207.54840 6.68749e-18
6211.76623 6.76465e-18
6215.98406 6.81928e-18
6220.20190 6.75132e-18
6224.41973 6.75571e-18
6228.63756 6.89680e-18
6232.85539 6.96123e-18
6237.07322 6.94826e-18
6241.29106 6.92785e-18
6245.50889 6.97617e-18
6249.72672 6.99139e-18
6253.94455 6.88169e-18
6258.16238 6.88897e-18
6262.38022 6.89486e-18
6266.59805 6.86576e-18
6270.81588 6.80795e-18
6275.03371 6.70973e-18
6279.25154 6.55135e-18
6283.46938 6.34348e-18
6287.67702 6.52998e-18
6291.89485 6.69408e-18
6296.11268 6.86965e-18
6300.33052 6.88624e-18
6304.54835 6.73847e-18
6308.76618 6.53511e-18
6312.98401 7.21403e-18
6317.20184 7.25350e-18
6321.41968 6.86880e-18
6325.63751 6.84400e-18
6329.85534 6.90173e-18
6334.07317 6.92461e-18
6338.29100 6.84856e-18
6342.50884 6.82885e-18
6346.72667 6.90807e-18
6350.94450 6.97336e-18
6355.16233 7.00127e-18
6359.38016 6.99634e-18
6363.59800 7.06943e-18
6367.81583 7.23821e-18
6372.03366 7.28721e-18
6376.24130 7.37193e-18
6380.46932 7.33452e-18
6384.67697 7.21889e-18
6388.89480 7.18510e-18
6393.11263 7.19303e-18
6397.33046 7.35253e-18
6401.54830 7.43564e-18
6405.76613 7.40069e-18
6409.98396 7.36434e-18
6414.20179 7.28249e-18
6418.41962 7.37683e-18
6422.63746 7.55560e-18
6426.85529 7.48760e-18
6431.07312 7.41380e-18
6435.29095 7.42409e-18
6439.50878 7.36885e-18
6443.72662 7.28494e-18
6447.94445 7.38676e-18
6452.16228 7.44708e-18
6456.38011 7.36404e-18
6460.59794 7.21759e-18
6464.81578 7.34130e-18
6469.03361 7.41309e-18
6473.24125 7.35051e-18
6477.45908 7.42747e-18
6481.67692 7.46382e-18
6485.89475 7.36914e-18
6490.11258 7.29600e-18
6494.33041 7.28144e-18
6498.54824 7.30664e-18
6502.76608 7.41677e-18
6506.98391 7.41845e-18
6511.20174 7.33615e-18
6515.41957 7.35751e-18
6519.63740 7.33180e-18
6523.85524 7.33498e-18
6528.07307 7.28054e-18
6532.29090 7.25054e-18
6536.50873 7.23103e-18
6540.72656 7.30925e-18
6544.94440 7.34066e-18
6549.16223 7.21186e-18
6553.38006 7.21925e-18
6557.59789 7.22818e-18
6561.81572 7.22453e-18
6566.03356 7.24143e-18
6570.25139 7.17796e-18
6574.45903 7.11734e-18
6578.67686 7.11334e-18
6582.89470 7.09217e-18
6587.11253 7.11511e-18
6591.33036 7.22402e-18
6595.54819 7.21018e-18
6599.76602 7.12861e-18
6603.98386 7.07163e-18
6608.20169 7.02401e-18
6612.41952 7.05539e-18
6616.63735 7.09633e-18
6620.85518 7.07970e-18
6625.07302 6.99698e-18
6629.29085 6.94341e-18
6633.50868 6.93432e-18
6637.72651 6.94411e-18
6641.94434 6.93515e-18
6646.16218 6.88683e-18
6650.38001 6.81103e-18
6654.59784 6.79420e-18
6658.81567 6.77738e-18
6663.03350 6.76056e-18
6667.25134 6.74374e-18
6671.45898 6.72692e-18
6675.67681 6.71011e-18
6679.89464 6.69329e-18
6684.11248 6.67649e-18
6688.33031 6.65968e-18
6692.54814 6.64288e-18
6696.76597 6.61048e-18
6700.98380 6.57809e-18
6705.20164 6.54571e-18
6709.41947 6.51333e-18
6713.63730 6.48096e-18
6717.85513 6.44859e-18
6722.07296 6.41622e-18
6726.29080 6.38386e-18
6730.50863 6.35736e-18
6734.72646 6.30423e-18
6738.94429 6.24955e-18
6743.16212 6.18306e-18
6747.37996 6.24946e-18
6751.59779 6.26963e-18
6755.81562 6.16563e-18
6760.03345 6.05299e-18
6764.25128 6.03429e-18
6768.45893 6.12266e-18
6772.67676 6.16581e-18
6776.89459 6.06955e-18
6781.11242 5.98210e-18
6785.33026 6.03547e-18
6789.54809 6.06060e-18
6793.76592 6.04493e-18
6797.98375 6.00034e-18
6802.20158 5.90690e-18
6806.41942 5.93425e-18
6810.63725 5.92251e-18
6814.85508 5.90438e-18
6819.07291 5.85561e-18
6823.29074 5.87835e-18
6827.50858 5.79487e-18
6831.72641 5.71139e-18
6835.94424 5.62793e-18
6840.16207 5.61793e-18
6844.37990 5.60793e-18
6848.59774 5.59793e-18
6852.81557 5.58793e-18
6857.03340 5.57794e-18
6861.25123 5.56794e-18
6865.45888 5.55795e-18
6869.67671 5.54796e-18
6873.89454 5.53797e-18
6878.11237 5.52798e-18
6882.33020 5.37285e-18
6886.54804 5.12258e-18
6890.76587 5.08869e-18
6894.98370 5.11233e-18
6899.20153 5.14374e-18
6903.41936 5.12228e-18
6907.63720 5.12824e-18
6911.85503 5.16623e-18
6916.07286 5.16460e-18
6920.29069 5.10884e-18
6924.50852 5.04640e-18
6928.72636 5.03640e-18
6932.94419 5.10465e-18
6937.16202 5.05445e-18
6941.37985 4.95927e-18
6945.59768 4.97093e-18
6949.81552 5.08987e-18
6954.03335 5.05439e-18
6958.25118 4.96809e-18
6962.45882 4.97306e-18
6966.67666 4.97242e-18
6970.89449 4.98097e-18
6975.11232 4.94951e-18
6979.33015 4.91251e-18
6983.54798 4.82946e-18
6987.76582 4.79340e-18
6991.98365 4.82342e-18
6996.20148 4.85940e-18
7000.41931 4.87913e-18
7004.63714 4.78516e-18
7008.85498 4.75034e-18
7013.07281 4.82273e-18
7017.29064 4.80434e-18
7021.50847 4.84736e-18
7025.72630 4.81850e-18
7029.94414 4.78886e-18
7034.16197 4.78276e-18
7038.37980 4.80583e-18
7042.59763 4.80676e-18
7046.81546 4.92310e-18
7051.03330 4.92103e-18
7055.24094 4.84317e-18
7059.45877 4.84864e-18
7063.67660 4.81873e-18
7067.89444 4.82963e-18
7072.11227 4.90706e-18
7076.33010 4.93185e-18
7080.54793 4.90091e-18
7084.76576 4.83658e-18
7088.98360 4.82117e-18
7093.20143 4.81794e-18
7097.41926 4.85889e-18
7101.63709 4.85733e-18
7105.85492 4.81463e-18
7110.07276 4.82941e-18
7114.29059 4.76825e-18
7118.50842 4.80198e-18
7122.72625 4.85679e-18
7126.94408 4.79278e-18
7131.16192 4.79919e-18
7135.37975 4.84710e-18
7139.59758 4.83653e-18
7143.81541 4.85317e-18
7148.03324 4.89108e-18
7152.25108 4.84189e-18
7156.45872 4.71997e-18
7160.67655 4.65592e-18
7164.89438 4.64327e-18
7169.11222 4.79810e-18
7173.33005 4.93639e-18
7177.54788 5.02723e-18
7181.76571 5.18300e-18
7185.98354 5.20388e-18
7190.20138 5.09253e-18
7194.41921 5.02892e-18
7198.63704 5.06415e-18
7202.85487 5.17249e-18
7207.07270 5.20415e-18
7211.29054 5.02824e-18
7215.50837 4.80865e-18
7219.72620 4.69239e-18
7223.94403 4.70061e-18
7228.16186 4.74795e-18
7232.37970 4.82981e-18
7236.59753 4.93333e-18
7240.81536 4.94667e-18
7245.03319 4.85264e-18
7249.25102 4.82830e-18
7253.45867 4.93546e-18
7257.67650 4.87951e-18
7261.89433 4.76494e-18
7266.11216 4.79417e-18
7270.33000 4.72501e-18
7274.54783 4.62628e-18
7278.76566 4.72044e-18
7282.98349 4.80850e-18
7287.20132 4.70494e-18
7291.41916 4.59363e-18
7295.63699 4.55203e-18
7299.85482 4.51799e-18
7304.07265 4.45087e-18
7308.29048 4.34786e-18
7312.50832 4.32126e-18
7316.72615 4.36017e-18
7320.94398 4.34383e-18
7325.16181 4.26818e-18
7329.37964 4.22699e-18
7333.59748 4.19934e-18
7337.81531 4.21584e-18
7342.03314 4.13622e-18
7346.25097 4.11873e-18
7350.45862 4.12790e-18
7354.67645 4.01164e-18
7358.89428 3.89136e-18
7363.11211 3.86079e-18
7367.32994 3.87009e-18
7371.54778 3.80871e-18
7375.76561 3.82892e-18
7379.98344 3.88953e-18
7384.20127 3.92608e-18
7388.41910 3.85644e-18
7392.63694 3.76300e-18
7396.85477 3.73055e-18
7401.07260 3.66613e-18
7405.29043 3.59424e-18
7409.50826 3.66898e-18
7413.72610 3.71082e-18
7417.94393 3.59332e-18
7422.16176 3.58275e-18
7426.37959 3.56822e-18
7430.59742 3.51507e-18
7434.81526 3.56432e-18
7439.03309 3.53971e-18
7443.25092 3.49274e-18
7447.45856 3.44772e-18
7451.67640 3.43018e-18
7455.89423 3.45330e-18
7460.11206 3.51498e-18
7464.32989 3.52503e-18
7468.54772 3.41947e-18
7472.76556 3.32266e-18
7476.98339 3.30940e-18
7478.00219 3.30940e-18
7479.99904 3.27710e-18
7481.99588 3.23134e-18
7484.00292 3.26458e-18
7485.99977 3.42045e-18
7487.99662 3.35803e-18
7490.00365 3.07508e-18
7492.00050 2.92051e-18
7493.99735 2.93900e-18
7496.00438 3.03169e-18
7498.00123 3.07949e-18
7499.99808 3.14023e-18
7501.99493 3.18058e-18
7504.00196 3.20097e-18
7505.99881 3.21220e-18
7507.99566 3.21928e-18
7510.00270 3.23130e-18
7511.99954 3.26300e-18
7513.99639 3.32259e-18
7516.00343 3.32149e-18
7518.00028 3.24454e-18
7519.99712 3.19773e-18
7522.00416 3.17186e-18
7524.00101 3.15388e-18
7525.99786 3.15277e-18
7527.99470 3.16437e-18
7530.00174 3.14205e-18
7531.99859 3.05738e-18
7533.99544 3.04050e-18
7536.00247 3.08188e-18
7537.99932 3.11435e-18
7539.99617 3.11760e-18
7542.00320 3.11675e-18
7544.00005 3.12404e-18
7545.99690 3.15761e-18
7548.00394 3.12602e-18
7550.00078 3.01146e-18
7551.99763 2.94068e-18
7554.00467 2.90543e-18
7556.00152 2.91163e-18
7557.99836 2.99283e-18
7559.99521 3.19347e-18
7562.00225 3.21026e-18
7563.99910 3.05146e-18
7565.99594 2.96495e-18
7568.00298 2.96419e-18
7569.99983 2.97682e-18
7571.99668 2.91910e-18
7574.00371 2.81900e-18
7576.00056 2.82442e-18
7577.99741 2.98436e-18
7580.00444 3.00110e-18
7582.00129 2.84160e-18
7583.99814 2.70796e-18
7585.99499 2.72344e-18
7588.00202 2.83757e-18
7589.99887 2.89879e-18
7591.99572 2.95163e-18
7594.00276 2.99737e-18
7595.99960 2.99062e-18
7597.99645 3.02331e-18
7600.00349 3.17690e-18
7602.00034 3.37408e-18
7603.99718 3.35058e-18
7606.00422 3.09413e-18
7608.00107 2.99635e-18
7609.99792 2.95791e-18
7612.00495 2.95879e-18
7614.00180 3.00876e-18
7615.99865 3.07766e-18
7617.99550 3.11784e-18
7620.00253 3.06741e-18
7621.99938 3.21054e-18
7623.99623 3.68152e-18
7626.00326 3.84774e-18
7628.00011 3.60073e-18
7629.99696 3.24218e-18
7632.00400 3.07431e-18
7634.00084 2.97073e-18
7635.99769 2.87322e-18
7638.00473 2.76175e-18
7640.00158 2.76067e-18
7641.99842 2.92098e-18
7643.99527 3.08605e-18
7646.00231 3.10882e-18
7647.99916 3.06117e-18
7649.99600 3.02059e-18
7652.00304 2.89233e-18
7653.99989 2.85442e-18
7655.99674 2.89397e-18
7658.00377 2.95624e-18
7660.00062 3.03291e-18
7661.99747 3.13061e-18
7664.00450 3.13931e-18
7666.00135 3.08191e-18
7667.99820 3.01043e-18
7669.99505 2.89989e-18
7672.00208 2.79635e-18
7673.99893 2.70084e-18
7675.99578 2.62631e-18
7678.00282 2.61397e-18
7679.99966 2.67041e-18
7681.99651 2.76926e-18
7684.00355 2.95120e-18
7686.00040 3.09426e-18
7687.99724 3.20372e-18
7690.00428 3.27765e-18
7692.00113 3.27003e-18
7693.99798 3.16821e-18
7695.99482 3.13504e-18
7698.00186 3.14078e-18
7699.99871 3.13356e-18
7701.99556 3.13146e-18
7704.00259 3.10881e-18
7705.99944 3.01835e-18
7707.99629 2.86057e-18
7710.00332 2.90363e-18
7712.00017 3.20280e-18
7713.99702 3.28144e-18
7716.00406 3.15242e-18
7718.00090 3.02294e-18
7719.99775 2.96939e-18
7722.00479 2.93878e-18
7724.00164 2.98426e-18
7725.99848 3.16629e-18
7727.99533 3.21315e-18
7730.00237 3.16006e-18
7731.99922 3.10397e-18
7733.99606 3.03439e-18
7736.00310 2.98003e-18
7737.99995 3.01843e-18
7739.99680 3.16398e-18
7742.00383 3.26317e-18
7744.00068 3.42503e-18
7745.99753 3.46043e-18
7748.00456 3.30517e-18
7750.00141 3.07365e-18
7751.99826 2.95198e-18
7753.99511 2.84356e-18
7756.00214 2.88325e-18
7757.99899 3.16815e-18
7759.99584 3.31231e-18
7762.00288 3.32045e-18
7763.99972 3.24881e-18
7765.99657 3.07401e-18
7768.00361 2.75281e-18
7770.00046 2.68706e-18
7771.99730 2.80824e-18
7774.00434 2.90403e-18
7776.00119 3.04660e-18
7777.99804 3.14988e-18
7780.00507 3.16358e-18
7782.00192 3.10441e-18
7783.99877 3.05973e-18
7785.99562 2.95617e-18
7788.00265 2.92139e-18
7789.99950 2.94917e-18
7791.99635 3.00341e-18
7794.00338 3.10026e-18
7796.00023 3.22283e-18
7797.99708 3.22571e-18
7800.00412 3.04902e-18
7802.00096 3.03305e-18
7803.99781 3.13271e-18
7806.00485 3.19306e-18
7808.00170 3.18689e-18
7809.99854 3.13079e-18
7811.99539 3.09676e-18
7814.00243 3.01777e-18
7815.99928 3.09571e-18
7817.99612 3.37535e-18
7820.00316 3.52973e-18
7822.00001 3.54788e-18
7823.99686 3.48610e-18
7826.00389 3.31675e-18
7828.00074 2.98510e-18
7829.99759 2.87669e-18
7832.00462 2.89979e-18
7834.00147 2.97075e-18
7835.99832 3.17230e-18
7837.99517 3.33633e-18
7840.00220 3.28884e-18
7841.99905 3.09063e-18
7843.99590 2.95904e-18
7846.00294 2.76984e-18
7847.99978 2.69934e-18
7849.99663 2.69140e-18
7852.00367 2.78340e-18
7854.00052 3.02941e-18
7855.99736 3.35304e-18
7858.00440 3.46416e-18
7860.00125 3.45726e-18
7861.99810 3.36427e-18
7863.99494 3.10104e-18
7866.00198 2.88415e-18
7867.99883 2.77903e-18
7869.99568 2.73569e-18
7872.00271 2.72613e-18
7873.99956 2.81449e-18
7875.99641 2.83653e-18
7878.00344 2.82285e-18
7880.00029 2.83698e-18
7881.99714 2.87584e-18
7884.00418 2.91134e-18
7886.00102 2.94155e-18
7887.99787 2.94103e-18
7889.99472 2.97585e-18
7892.00176 3.06753e-18
7893.99860 3.11220e-18
7895.99545 3.14941e-18
7898.00249 3.14939e-18
7899.99934 3.04784e-18
7901.99618 2.84286e-18
7904.00322 2.73855e-18
7906.00007 2.67220e-18
7907.99692 2.69076e-18
7910.00395 2.81811e-18
7912.00080 2.94696e-18
7913.99765 3.03429e-18
7916.00468 3.10426e-18
7918.00153 3.07152e-18
7919.99838 2.89002e-18
7921.99523 2.84086e-18
7924.00226 2.83869e-18
7925.99911 2.91883e-18
7927.99596 3.14136e-18
7930.00300 3.43251e-18
7931.99984 3.45916e-18
7933.99669 3.23772e-18
7936.00373 3.11096e-18
7938.00058 2.89842e-18
7939.99742 2.80155e-18
7942.00446 2.90425e-18
7944.00131 3.08432e-18
7945.99816 3.13689e-18
7947.99500 3.14554e-18
7950.00204 3.12750e-18
7951.99889 3.03457e-18
7953.99574 3.01103e-18
7956.00277 3.13521e-18
7957.99962 3.24517e-18
7959.99647 3.14221e-18
7962.00350 2.87065e-18
7964.00035 2.81157e-18
7965.99720 2.88431e-18
7968.00424 2.91746e-18
7970.00108 2.93624e-18
7971.99793 2.96378e-18
7973.99478 2.98760e-18
7976.00182 3.01471e-18
7977.99866 2.99603e-18
7979.99551 2.90093e-18
7982.00255 2.86051e-18
7983.99940 2.83088e-18
7985.99624 2.85300e-18
7988.00328 3.01023e-18
7990.00013 3.24374e-18
7991.99698 3.24363e-18
7994.00401 3.03823e-18
7996.00086 2.90925e-18
7997.99771 2.71756e-18
8000.00474 2.61858e-18
8002.00159 2.70273e-18
8003.99844 2.86539e-18
8005.99529 2.96281e-18
8008.00232 3.10248e-18
8009.99917 3.13417e-18
8011.99602 3.08101e-18
8014.00306 2.98827e-18
8015.99990 2.85205e-18
8017.99675 2.69440e-18
8020.00379 2.56583e-18
8022.00064 2.38702e-18
8023.99748 2.44462e-18
8026.00452 2.83392e-18
8028.00137 3.00985e-18
8029.99822 2.88972e-18
8031.99506 2.74132e-18
8034.00210 2.79563e-18
8035.99895 2.95487e-18
8037.99580 2.97419e-18
8040.00283 2.87714e-18
8041.99968 2.84299e-18
8043.99653 2.86627e-18
8046.00356 2.90060e-18
8048.00041 2.91410e-18
8049.99726 2.92757e-18
8052.00430 2.97427e-18
8054.00114 3.11181e-18
8055.99799 3.12807e-18
8057.99484 3.02389e-18
8060.00188 2.93919e-18
8061.99872 2.91098e-18
8063.99557 2.90089e-18
8066.00261 2.89644e-18
8067.99946 2.92777e-18
8069.99630 2.93976e-18
8072.00334 2.92428e-18
8074.00019 2.94672e-18
8075.99704 3.08597e-18
8078.00407 3.23381e-18
8080.00092 3.15547e-18
8081.99777 2.85752e-18
8084.00480 2.76822e-18
8086.00165 2.81208e-18
8087.99850 2.82967e-18
8089.99535 2.82215e-18
8092.00238 2.80954e-18
8093.99923 2.76328e-18
8095.99608 2.68061e-18
8098.00312 2.67570e-18
8099.99996 2.73548e-18
8101.99681 2.79006e-18
8104.00385 2.86103e-18
8106.00070 2.92817e-18
8107.99754 2.96248e-18
8110.00458 2.97964e-18
8112.00143 3.01678e-18
8113.99828 3.12406e-18
8115.99512 3.11366e-18
8118.00216 2.96939e-18
8119.99901 2.83847e-18
8121.99586 2.81136e-18
8124.00289 2.81991e-18
8125.99974 2.72382e-18
8127.99659 2.46009e-18
8130.00362 2.42973e-18
8132.00047 2.58976e-18
8133.99732 2.72809e-18
8136.00436 2.80184e-18
8138.00120 2.86028e-18
8139.99805 2.93627e-18
8141.99490 3.02633e-18
8144.00194 3.04156e-18
8145.99878 2.95890e-18
8147.99563 2.93538e-18
8150.00267 3.00123e-18
8151.99952 3.09300e-18
8153.99636 3.12342e-18
8156.00340 3.12879e-18
8158.00025 3.11861e-18
8159.99710 3.09412e-18
8162.00413 3.01373e-18
8164.00098 2.78465e-18
8165.99783 2.62189e-18
8167.99468 2.77685e-18
8170.00171 3.16813e-18
8171.99856 3.28372e-18
8173.99541 3.24453e-18
8176.00244 3.24049e-18
8177.99929 3.24452e-18
8179.99614 3.22745e-18
8182.00318 3.17125e-18
8184.00002 3.07086e-18
8185.99687 2.93984e-18
8188.00391 2.66555e-18
8190.00076 2.61273e-18
8191.99760 2.75945e-18
8194.00464 2.92168e-18
8196.00149 3.07752e-18
8197.99834 3.22428e-18
8199.99518 3.15312e-18
8202.00222 2.79066e-18
8203.99907 2.71593e-18
8205.99592 2.83298e-18
8208.00295 2.90941e-18
8209.99980 2.93667e-18
8211.99665 2.92989e-18
8214.00368 2.85643e-18
8216.00053 2.69777e-18
8217.99738 2.68947e-18
8220.00442 2.80299e-18
8222.00126 2.91372e-18
8223.99811 3.04200e-18
8225.99496 3.15842e-18
8228.00200 3.23784e-18
8229.99884 3.31133e-18
8231.99569 3.27434e-18
8234.00273 3.13323e-18
8235.99958 3.02877e-18
8237.99642 2.90560e-18
8240.00346 2.82428e-18
8242.00031 2.83670e-18
8243.99716 2.92011e-18
8246.00419 2.92288e-18
8248.00104 2.90042e-18
8249.99789 2.93148e-18
8252.00492 2.97091e-18
8254.00177 3.01971e-18
8255.99862 3.14781e-18
8257.99547 3.25524e-18
8260.00250 3.18637e-18
8261.99935 3.04959e-18
8263.99620 2.93703e-18
8266.00324 2.84079e-18
8268.00008 2.78982e-18
8269.99693 2.79335e-18
8272.00397 2.83920e-18
8274.00082 2.91461e-18
8275.99766 3.05283e-18
8278.00470 3.12682e-18
8280.00155 3.21483e-18
8281.99840 3.20265e-18
8283.99524 3.03429e-18
8286.00228 2.83211e-18
8287.99913 2.74087e-18
8289.99598 2.69596e-18
8292.00301 2.71311e-18
8293.99986 2.84125e-18
8295.99671 2.91414e-18
8298.00374 2.92186e-18
8300.00059 2.93815e-18
8301.99744 3.02850e-18
8304.00448 3.16909e-18
8306.00132 3.21446e-18
8307.99817 3.19065e-18
8309.99502 3.17241e-18
8312.00206 3.12792e-18
8313.99890 3.09730e-18
8315.99575 3.12546e-18
8318.00279 3.17847e-18
8319.99964 3.10121e-18
8321.99648 2.82676e-18
8324.00352 2.76490e-18
8326.00037 2.85231e-18
8327.99722 2.95121e-18
8330.00425 3.04286e-18
8332.00110 3.13302e-18
8333.99795 3.16182e-18
8335.99480 3.16682e-18
8338.00183 3.08932e-18
8339.99868 2.83137e-18
8341.99553 2.72518e-18
8344.00256 2.82149e-18
8345.99941 3.02557e-18
8347.99626 3.28235e-18
8350.00330 3.71187e-18
8352.00014 3.77013e-18
8353.99699 3.48612e-18
8356.00403 3.29312e-18
8358.00088 3.17564e-18
8359.99772 3.07515e-18
8362.00476 2.96232e-18
8364.00161 2.84123e-18
8365.99846 2.81168e-18
8367.99530 2.84707e-18
8370.00234 2.92675e-18
8371.99919 3.10351e-18
8373.99604 3.25833e-18
8376.00307 3.32468e-18
8377.99992 3.33799e-18
8379.99677 3.26398e-18
8382.00380 3.02160e-18
8384.00065 2.91722e-18
8385.99750 2.87158e-18
8388.00454 2.88952e-18
8390.00138 2.98696e-18
8391.99823 3.14576e-18
8393.99508 3.30461e-18
8396.00212 3.55780e-18
8397.99896 3.64673e-18
8399.99581 3.64991e-18
8402.00285 3.56421e-18
8403.99970 3.33195e-18
8405.99654 3.05260e-18
8408.00358 2.93611e-18
8410.00043 2.92538e-18
8411.99728 2.89328e-18
8414.00431 2.88343e-18
8416.00116 2.88391e-18
8417.99801 2.86585e-18
8419.99486 2.89042e-18
8422.00189 3.05117e-18
8423.99874 3.34425e-18
8425.99559 3.48559e-18
8428.00262 3.62134e-18
8429.99947 3.58502e-18
8431.99632 3.28123e-18
8434.00336 2.99025e-18
8436.00020 2.92547e-18
8437.99705 2.98526e-18
8440.00409 3.04086e-18
8442.00094 3.21820e-18
8443.99778 3.25186e-18
8446.00482 3.11849e-18
8448.00167 3.02962e-18
8449.99852 3.11495e-18
8451.99536 3.27807e-18
8454.00240 3.26528e-18
8455.99925 3.06364e-18
8457.99610 3.02578e-18
8460.00313 3.06650e-18
8461.99998 3.13966e-18
8463.99683 3.28755e-18
8466.00386 3.43789e-18
8468.00071 3.36478e-18
8469.99756 3.04208e-18
8472.00460 2.94507e-18
8474.00144 2.96612e-18
8475.99829 2.99546e-18
8477.99514 3.05116e-18
8480.00218 3.10181e-18
8481.99902 3.07016e-18
8483.99587 2.96196e-18
8486.00291 2.93891e-18
8487.99976 2.96483e-18
8489.99660 2.99254e-18
8492.00364 3.00922e-18
8494.00049 3.05535e-18
8495.99734 3.18639e-18
8498.00437 3.39416e-18
8500.00122 3.44916e-18
8501.99807 3.38946e-18
8504.00510 3.33834e-18
8506.00195 3.25047e-18
8507.99880 3.17838e-18
8509.99565 3.17236e-18
8512.00268 3.20147e-18
8513.99953 3.13474e-18
8515.99638 2.91877e-18
8518.00342 2.88381e-18
8520.00026 3.01605e-18
8521.99711 3.12018e-18
8524.00415 3.13418e-18
8526.00100 3.10746e-18
8527.99784 3.07263e-18
8529.99469 3.03093e-18
8532.00173 2.93165e-18
8533.99858 2.67268e-18
8535.99542 2.58630e-18
8538.00246 2.79408e-18
8539.99931 3.09366e-18
8541.99616 3.18854e-18
8544.00319 3.16272e-18
8546.00004 3.19915e-18
8547.99689 3.25390e-18
8550.00392 3.28672e-18
8552.00077 3.30337e-18
8553.99762 3.29808e-18
8556.00466 3.25716e-18
8558.00150 3.18276e-18
8559.99835 3.10920e-18
8561.99520 2.94777e-18
8564.00224 2.94061e-18
8565.99908 3.14752e-18
8567.99593 3.33297e-18
8570.00297 3.34337e-18
8571.99982 3.25685e-18
8573.99666 3.10931e-18
8576.00370 2.75560e-18
8578.00055 2.62880e-18
8579.99740 2.66862e-18
8582.00443 2.76590e-18
8584.00128 2.90798e-18
8585.99813 3.09080e-18
8587.99498 3.17642e-18
8590.00201 3.18089e-18
8591.99886 3.22207e-18
8593.99571 3.29352e-18
8596.00274 3.31657e-18
8597.99959 3.26345e-18
8599.99644 3.17025e-18
8602.00348 3.08901e-18
8604.00032 2.98522e-18
8605.99717 2.92128e-18
8608.00421 2.88264e-18
8610.00106 2.85557e-18
8611.99790 2.83672e-18
8613.99475 2.83377e-18
8616.00179 2.86210e-18
8617.99864 2.93157e-18
8619.99548 2.93322e-18
8622.00252 2.86118e-18
8623.99937 2.84107e-18
8625.99622 2.86536e-18
8628.00325 2.91448e-18
8630.00010 2.97436e-18
8631.99695 3.04855e-18
8634.00398 3.18983e-18
8636.00083 3.48211e-18
8637.99768 3.59928e-18
8640.00472 3.61483e-18
8642.00156 3.51435e-18
8643.99841 3.21454e-18
8645.99526 2.78256e-18
8648.00230 2.66999e-18
8649.99914 2.78061e-18
8651.99599 2.89846e-18
8654.00303 3.19184e-18
8655.99988 3.36757e-18
8657.99672 3.32725e-18
8660.00376 3.16327e-18
8662.00061 2.97065e-18
8663.99746 2.57235e-18
8665.99430 2.52231e-18
8668.00134 2.78201e-18
8669.99819 2.98119e-18
8671.99504 3.11026e-18
8674.00207 3.18160e-18
8675.99892 3.12033e-18
8677.99577 2.92288e-18
8680.00280 2.77616e-18
8681.99965 2.55901e-18
8683.99650 2.45821e-18
8686.00354 2.46607e-18
8688.00038 2.56209e-18
8689.99723 2.77569e-18
8692.00427 3.13199e-18
8694.00112 3.24599e-18
8695.99796 3.18318e-18
8698.00500 3.13853e-18
8700.00185 3.06851e-18
8701.99870 2.99510e-18
8703.99554 2.94270e-18
8706.00258 2.89846e-18
8707.99943 2.82688e-18
8709.99628 2.67392e-18
8712.00331 2.65765e-18
8714.00016 2.76201e-18
8715.99701 2.88722e-18
8718.00404 3.03263e-18
8720.00089 3.18085e-18
8721.99774 3.16374e-18
8724.00478 2.96953e-18
8726.00162 2.86153e-18
8727.99847 2.71565e-18
8729.99532 2.65899e-18
8732.00236 2.75219e-18
8733.99920 2.90336e-18
8735.99605 2.96051e-18
8738.00309 2.99581e-18
8739.99994 2.95421e-18
8741.99678 2.78367e-18
8744.00382 2.68809e-18
8746.00067 2.64320e-18
8747.99752 2.67678e-18
8750.00455 2.87964e-18
8752.00140 3.26689e-18
8753.99825 3.43774e-18
8755.99510 3.48862e-18
8758.00213 3.52366e-18
8759.99898 3.49735e-18
8761.99583 3.48055e-18
8764.00286 3.57128e-18
8765.99971 3.73642e-18
8767.99656 3.63011e-18
8770.00360 3.22965e-18
8772.00044 2.98882e-18
8773.99729 2.79157e-18
8776.00433 2.67880e-18
8778.00118 2.69018e-18
8779.99802 2.79637e-18
8782.00506 2.90691e-18
8784.00191 3.16441e-18
8785.99876 3.19883e-18
8787.99560 3.00450e-18
8790.00264 2.88463e-18
8791.99949 2.94474e-18
8793.99634 3.06893e-18
8796.00337 3.09390e-18
8798.00022 3.09730e-18
8799.99707 3.01805e-18
8802.00410 2.80826e-18
8804.00095 2.65996e-18
8805.99780 2.56805e-18
8807.99465 2.53845e-18
8810.00168 2.63596e-18
8811.99853 2.88660e-18
8813.99538 2.97833e-18
8816.00242 2.92455e-18
8817.99926 2.98630e-18
8819.99611 3.17753e-18
8822.00315 3.40517e-18
8824.00000 3.63557e-18
8825.99684 3.91443e-18
8828.00388 3.88494e-18
8830.00073 3.52605e-18
8831.99758 3.28244e-18
8834.00461 3.03115e-18
8836.00146 2.86644e-18
8837.99831 2.87487e-18
8840.00534 3.00645e-18
8842.00219 3.10307e-18
8843.99904 3.34031e-18
8845.99589 3.32121e-18
8848.00292 3.02823e-18
8849.99977 2.78109e-18
8851.99662 2.69249e-18
8854.00366 2.67147e-18
8856.00050 2.62936e-18
8857.99735 2.52434e-18
8860.00439 2.63426e-18
8862.00124 3.02189e-18
8863.99808 3.27471e-18
8865.99493 3.29870e-18
8868.00197 3.23587e-18
8869.99882 3.23865e-18
8871.99566 3.22951e-18
8874.00270 3.28866e-18
8875.99955 3.45896e-18
8877.99640 3.53821e-18
8880.00343 3.54384e-18
8882.00028 3.46865e-18
8883.99713 3.24882e-18
8886.00416 2.86199e-18
8888.00101 2.72596e-18
8889.99786 2.68335e-18
8892.00490 2.79865e-18
8894.00174 3.23629e-18
8895.99859 3.58444e-18
8897.99544 3.51646e-18
8900.00248 3.18887e-18
8901.99932 2.95583e-18
8903.99617 2.60958e-18
8906.00321 2.43014e-18
8908.00006 2.34307e-18
8909.99690 2.37245e-18
8912.00394 2.59270e-18
8914.00079 2.92883e-18
8915.99764 3.03129e-18
8918.00467 3.03059e-18
8920.00152 2.91552e-18
8921.99837 2.53314e-18
8923.99522 2.31351e-18
8926.00225 2.38955e-18
8927.99910 2.60260e-18
8929.99595 2.75250e-18
8932.00298 2.96975e-18
8933.99983 3.02711e-18
8935.99668 2.90267e-18
8938.00372 2.86391e-18
8940.00056 2.96513e-18
8941.99741 3.08393e-18
8944.00445 3.08486e-18
8946.00130 3.00795e-18
8947.99814 2.96517e-18
8949.99499 2.95151e-18
8952.00203 2.87229e-18
8953.99888 2.71084e-18
8955.99572 2.53113e-18
8958.00276 2.35503e-18
8959.99961 2.15417e-18
8961.99646 2.19430e-18
8964.00349 2.56006e-18
8966.00034 2.69476e-18
8967.99719 2.64688e-18
8970.00422 2.57694e-18
8972.00107 2.54916e-18
8973.99792 2.52850e-18
8976.00496 2.55297e-18
8978.00180 2.60494e-18
8979.99865 2.69812e-18
8981.99550 2.85742e-18
8984.00254 3.00618e-18
8985.99938 3.14701e-18
8987.99623 3.26292e-18
8990.00327 3.24541e-18
8992.00012 3.09357e-18
8993.99696 2.96963e-18
8996.00400 2.73832e-18
8998.00085 2.64517e-18
8999.99770 2.75581e-18
9001.99454 2.95641e-18
9004.00158 3.11226e-18
9005.99843 3.30098e-18
9007.99528 3.40291e-18
9010.00231 3.41158e-18
9011.99916 3.45952e-18
9013.99601 3.59571e-18
9016.00304 3.69039e-18
9017.99989 3.59184e-18
9019.99674 3.33385e-18
9022.00378 3.24617e-18
9024.00062 3.28185e-18
9025.99747 3.24673e-18
9028.00451 3.16790e-18
9030.00136 3.06029e-18
9031.99820 2.89148e-18
9033.99505 2.67606e-18
9036.00209 2.68645e-18
9037.99894 3.00396e-18
9039.99578 3.05255e-18
9042.00282 2.91001e-18
9043.99967 2.74016e-18
9045.99652 2.56435e-18
9048.00355 2.38580e-18
9050.00040 2.37820e-18
9051.99725 2.55622e-18
9054.00428 2.64375e-18
9056.00113 2.69157e-18
9057.99798 2.78711e-18
9059.99483 2.99158e-18
9062.00186 3.21108e-18
9063.99871 3.26399e-18
9065.99556 3.19567e-18
9068.00260 3.12656e-18
9069.99944 2.93400e-18
9071.99629 2.86883e-18
9074.00333 3.01036e-18
9076.00018 3.17419e-18
9077.99702 3.14592e-18
9080.00406 2.99539e-18
9082.00091 2.88388e-18
9083.99776 2.70447e-18
9085.99460 2.62600e-18
9088.00164 2.69308e-18
9089.99849 2.74942e-18
9091.99534 2.64300e-18
9094.00237 2.43063e-18
9095.99922 2.46279e-18
9097.99607 2.71267e-18
9100.00310 2.88331e-18
9101.99995 3.11174e-18
9103.99680 3.21374e-18
9106.00384 3.04564e-18
9108.00068 2.71057e-18
9109.99753 2.54378e-18
9112.00457 2.38350e-18
9114.00142 2.36915e-18
9115.99826 2.54056e-18
9117.99511 2.68324e-18
9120.00215 2.73593e-18
9121.99900 2.75677e-18
9123.99584 2.79667e-18
9126.00288 2.84519e-18
9127.99973 2.86576e-18
9129.99658 2.84175e-18
9132.00361 2.85308e-18
9134.00046 2.95224e-18
9135.99731 3.03909e-18
9138.00434 2.95513e-18
9140.00119 2.71916e-18
9141.99804 2.59962e-18
9143.99489 2.44998e-18
9146.00192 2.45550e-18
9147.99877 2.68817e-18
9149.99562 2.94830e-18
9152.00266 3.05862e-18
9153.99950 3.10195e-18
9155.99635 3.06945e-18
9158.00339 2.90291e-18
9160.00024 2.79588e-18
9161.99708 2.70810e-18
9164.00412 2.65041e-18
9166.00097 2.63276e-18
9167.99782 2.64988e-18
9170.00485 2.71408e-18
9172.00170 2.85345e-18
9173.99855 2.96105e-18
9175.99540 3.10789e-18
9178.00243 3.17887e-18
9179.99928 3.11001e-18
9181.99613 2.96179e-18
9184.00316 2.86731e-18
9186.00001 2.74070e-18
9187.99686 2.71474e-18
9190.00390 2.83086e-18
9192.00074 2.86085e-18
9193.99759 2.72584e-18
9196.00463 2.54738e-18
9198.00148 2.50446e-18
9199.99832 2.54963e-18
9201.99517 2.56539e-18
9204.00221 2.57609e-18
9205.99906 2.61830e-18
9207.99590 2.69902e-18
9210.00294 2.79885e-18
9211.99979 2.91845e-18
9213.99664 3.09074e-18
9216.00367 3.05407e-18
9218.00052 2.70821e-18
9219.99737 2.62998e-18
9222.00440 2.86109e-18
9224.00125 3.09768e-18
9225.99810 3.11816e-18
9227.99495 3.02574e-18
9230.00198 3.06768e-18
9231.99883 3.21365e-18
9233.99568 3.28735e-18
9236.00272 3.34816e-18
9237.99956 3.34700e-18
9239.99641 3.22424e-18
9242.00345 3.03254e-18
9244.00030 2.98722e-18
9245.99714 3.09828e-18
9248.00418 3.06850e-18
9250.00103 2.95658e-18
9251.99788 2.83977e-18
9254.00491 2.71491e-18
9256.00176 2.59744e-18
9257.99861 2.56913e-18
9259.99546 2.65489e-18
9262.00249 2.61434e-18
9263.99934 2.45452e-18
9265.99619 2.36913e-18
9268.00322 2.38754e-18
9270.00007 2.44395e-18
9271.99692 2.48161e-18
9274.00396 2.53871e-18
9276.00080 2.52694e-18
9277.99765 2.39585e-18
9279.99450 2.38558e-18
9282.00154 2.52086e-18
9283.99838 2.68298e-18
9285.99523 2.77588e-18
9288.00227 2.83946e-18
9289.99912 2.94905e-18
9291.99596 3.19784e-18
9294.00300 3.20802e-18
9295.99985 2.81406e-18
9297.99670 2.61088e-18
9300.00373 3.02735e-18
9302.00058 3.79951e-18
9303.99743 4.08820e-18
9306.00446 4.43443e-18
9308.00131 4.02684e-18
9309.99816 2.43096e-18
9312.00520 1.38435e-18
9314.00204 1.61576e-18
9315.99889 2.42794e-18
9317.99574 2.66381e-18
9320.00278 2.62462e-18
9321.99962 2.82136e-18
9323.99647 3.13895e-18
9326.00351 3.46627e-18
9328.00036 3.89371e-18
9329.99720 4.25311e-18
9332.00424 4.17771e-18
9334.00109 3.69024e-18
9335.99794 3.44399e-18
9337.99478 3.17792e-18
9340.00182 3.05831e-18
9341.99867 3.19741e-18
9343.99552 3.32757e-18
9346.00255 3.12909e-18
9347.99940 2.68342e-18
9349.99625 2.54761e-18
9352.00328 2.59409e-18
9354.00013 2.64862e-18
9355.99698 2.73325e-18
9358.00402 2.86464e-18
9360.00086 3.07137e-18
9361.99771 3.34153e-18
9364.00475 3.48420e-18
9366.00160 3.55401e-18
9367.99844 3.58803e-18
9369.99529 3.48923e-18
9372.00233 3.48613e-18
9373.99918 3.75195e-18
9375.99602 4.13016e-18
9378.00306 4.14201e-18
9379.99991 3.91496e-18
9381.99676 3.61521e-18
9384.00379 2.94558e-18
9386.00064 2.59281e-18
9387.99749 2.84277e-18
9390.00452 3.29923e-18
9392.00137 3.29746e-18
9393.99822 2.99911e-18
9395.99507 2.84968e-18
9398.00210 2.65391e-18
9399.99895 2.58051e-18
9401.99580 2.72281e-18
9404.00284 2.87970e-18
9405.99968 2.78561e-18
9407.99653 2.50681e-18
9410.00357 2.36834e-18
9412.00042 2.26176e-18
9413.99726 2.19809e-18
9416.00430 2.15703e-18
9418.00115 2.18160e-18
9419.99800 2.33622e-18
9421.99484 2.60509e-18
9424.00188 2.71610e-18
9425.99873 2.70219e-18
9427.99558 2.75332e-18
9430.00261 2.78418e-18
9431.99946 2.90827e-18
9433.99631 3.17434e-18
9436.00334 3.55668e-18
9438.00019 4.11028e-18
9439.99704 5.32638e-18
9442.00408 5.49583e-18
9444.00092 4.77514e-18
9445.99777 4.02373e-18
9448.00481 3.35176e-18
9450.00166 2.73648e-18
9451.99850 2.63077e-18
9453.99535 3.16103e-18
9456.00239 3.13827e-18
9457.99924 2.80691e-18
9459.99608 2.50199e-18
9462.00312 2.21817e-18
9463.99997 1.96727e-18
9465.99682 1.83081e-18
9468.00385 1.72616e-18
9470.00070 1.92529e-18
9471.99755 2.54917e-18
9474.00458 2.97299e-18
9476.00143 3.28201e-18
9477.99828 3.42124e-18
9479.99513 3.21922e-18
9482.00216 2.68776e-18
9483.99901 2.52408e-18
9485.99586 2.61807e-18
9488.00290 2.58761e-18
9489.99974 2.44792e-18
9491.99659 2.32902e-18
9494.00363 2.27743e-18
9496.00048 2.26876e-18
9497.99732 2.44984e-18
9500.00436 2.87553e-18
9502.00121 3.19659e-18
9503.99806 3.61523e-18
9505.99490 3.83131e-18
9508.00194 3.69662e-18
9509.99879 3.33883e-18
9511.99564 2.99103e-18
9514.00267 2.39839e-18
9515.99952 2.16742e-18
9517.99637 2.17566e-18
9520.00340 2.25838e-18
9522.00025 2.41506e-18
9523.99710 2.63307e-18
9526.00414 2.85052e-18
9528.00098 3.20115e-18
9529.99783 3.16791e-18
9532.00487 2.67806e-18
9534.00172 2.42249e-18
9535.99856 2.52742e-18
9537.99541 2.65121e-18
9540.00245 2.37714e-18
9541.99930 1.72709e-18
9543.99614 1.91295e-18
9546.00318 2.95515e-18
9548.00003 3.56866e-18
9549.99688 3.94513e-18
9552.00391 4.07878e-18
9554.00076 3.86116e-18
9555.99761 3.33168e-18
9557.99446 2.85873e-18
9560.00149 1.93010e-18
9561.99834 1.79643e-18
9563.99519 2.50034e-18
9566.00222 3.22172e-18
9567.99907 3.68596e-18
9569.99592 4.03495e-18
9572.00296 3.90358e-18
9573.99980 3.13469e-18
9575.99665 2.70165e-18
9578.00369 2.31691e-18
9580.00054 1.99893e-18
9581.99738 1.70016e-18
9584.00442 1.49738e-18
9586.00127 1.62457e-18
9587.99812 2.15960e-18
9590.00515 2.40119e-18
9592.00200 2.53592e-18
9593.99885 2.64485e-18
9595.99570 2.72068e-18
9598.00273 2.77512e-18
9599.99958 2.84174e-18
9601.99643 2.90690e-18
9604.00346 2.96778e-18
9606.00031 3.10300e-18
9607.99716 3.07617e-18
9610.00420 2.88539e-18
9612.00104 2.59367e-18
9613.99789 2.15161e-18
9615.99474 1.50770e-18
9618.00178 1.59895e-18
9619.99862 2.66395e-18
9621.99547 2.94737e-18
9624.00251 2.55205e-18
9625.99936 2.06091e-18
9627.99620 1.67629e-18
9630.00324 1.29750e-18
9632.00009 1.42848e-18
9633.99694 2.22044e-18
9636.00397 2.58371e-18
9638.00082 2.83437e-18
9639.99767 2.89367e-18
9642.00470 2.61705e-18
9644.00155 2.18224e-18
9645.99840 2.15807e-18
9647.99525 2.47610e-18
9650.00228 2.59393e-18
9651.99913 2.72346e-18
9653.99598 2.72717e-18
9656.00302 2.54413e-18
9657.99986 2.27626e-18
9659.99671 2.06344e-18
9662.00375 1.77866e-18
9664.00060 1.77726e-18
9665.99744 2.10056e-18
9668.00448 2.29301e-18
9670.00133 2.35737e-18
9671.99818 2.35897e-18
9673.99502 2.31461e-18
9676.00206 2.20728e-18
9677.99891 2.11838e-18
9679.99576 1.90966e-18
9682.00279 1.92967e-18
9683.99964 2.30668e-18
9685.99649 2.60351e-18
9688.00352 2.47780e-18
9690.00037 2.09422e-18
9691.99722 1.93504e-18
9694.00426 1.84051e-18
9696.00110 1.78977e-18
9697.99795 1.80659e-18
9699.99480 1.84232e-18
9702.00184 1.86669e-18
9703.99868 1.90433e-18
9705.99553 2.01802e-18
9708.00257 2.25223e-18
9709.99942 2.37641e-18
9711.99626 2.45094e-18
9714.00330 2.49754e-18
9716.00015 2.49643e-18
9717.99700 2.48235e-18
9720.00403 2.55637e-18
9722.00088 2.74275e-18
9723.99773 2.76167e-18
9726.00476 2.71739e-18
9728.00161 2.55736e-18
9729.99846 2.18364e-18
9731.99531 1.79466e-18
9734.00234 1.65538e-18
9735.99919 1.64778e-18
9737.99604 1.80422e-18
9740.00308 2.24061e-18
9741.99992 2.56963e-18
9743.99677 2.87716e-18
9746.00381 3.07995e-18
9748.00066 3.06384e-18
9749.99750 2.87131e-18
9751.99435 2.69874e-18
9754.00139 2.39739e-18
9755.99824 2.23158e-18
9757.99508 2.11736e-18
9760.00212 2.12812e-18
9761.99897 2.39279e-18
9763.99582 2.81434e-18
9766.00285 2.82544e-18
9767.99970 2.47989e-18
9769.99655 2.27191e-18
9772.00358 1.92829e-18
9774.00043 1.81968e-18
9775.99728 2.19214e-18
9778.00432 2.75606e-18
9780.00116 2.82410e-18
9781.99801 2.47802e-18
9784.00505 2.41788e-18
9786.00190 2.56881e-18
9787.99874 2.53865e-18
9789.99559 2.20030e-18
9792.00263 1.78213e-18
9793.99948 1.56609e-18
9795.99632 1.36506e-18
9798.00336 1.56485e-18
9800.00021 2.44691e-18
9801.99706 2.79825e-18
9804.00409 2.51059e-18
9806.00094 2.05466e-18
9807.99779 1.76724e-18
9809.99464 1.45303e-18
9812.00167 1.52496e-18
9813.99852 2.18173e-18
9815.99537 2.36818e-18
9818.00240 2.13806e-18
9819.99925 1.80734e-18
9821.99610 1.46139e-18
9824.00314 1.05306e-18
9825.99998 1.16031e-18
9827.99683 1.94601e-18
9830.00387 2.21575e-18
9832.00072 2.17718e-18
9833.99756 2.05960e-18
9836.00460 1.87187e-18
9838.00145 1.64207e-18
9839.99830 1.69608e-18
9841.99514 2.05297e-18
9844.00218 2.21824e-18
9845.99903 2.32967e-18
9847.99588 2.41413e-18
9850.00291 2.49184e-18
9851.99976 2.53099e-18
9853.99661 2.46090e-18
9856.00364 2.24093e-18
9858.00049 2.18959e-18
9859.99734 2.26281e-18
9862.00438 2.29913e-18
9864.00122 2.33131e-18
9865.99807 2.30911e-18
9868.00511 2.12642e-18
9870.00196 1.78971e-18
9871.99880 1.58668e-18
9873.99565 1.32592e-18
9876.00269 1.31070e-18
9877.99954 1.66096e-18
9879.99638 1.99971e-18
9882.00342 2.02510e-18
9884.00027 1.87437e-18
9885.99712 1.79897e-18
9888.00415 1.62416e-18
9890.00100 1.63783e-18
9891.99785 1.98324e-18
9893.99470 2.13784e-18
9896.00173 1.73364e-18
9897.99858 1.04058e-18
9899.99543 9.00333e-19
9902.00246 1.16157e-18
9903.99931 1.31582e-18
9905.99616 1.58189e-18
9908.00320 1.75830e-18
9910.00004 1.76087e-18
9911.99689 1.68652e-18
9914.00393 1.69604e-18
9916.00078 1.69112e-18
9917.99762 1.82147e-18
9920.00466 2.21129e-18
9922.00151 2.37062e-18
9923.99836 2.19253e-18
9925.99520 1.88968e-18
9928.00224 1.66717e-18
9929.99909 1.34539e-18
9931.99594 1.47290e-18
9934.00297 2.12433e-18
9935.99982 2.54377e-18
9937.99667 2.83428e-18
9940.00370 2.94532e-18
9942.00055 2.66517e-18
9943.99740 1.99614e-18
9946.00444 2.06090e-18
9948.00128 2.93604e-18
9949.99813 3.19172e-18
9951.99498 2.89429e-18
9954.00202 2.54160e-18
9955.99886 2.38816e-18
9957.99571 2.29408e-18
9960.00275 2.18069e-18
9961.99960 1.87597e-18
9963.99644 2.03981e-18
9966.00348 3.04694e-18
9968.00033 3.45425e-18
9969.99718 2.47297e-18
9972.00421 8.73049e-19
9974.00106 3.77086e-19
9975.99791 5.68229e-19
9978.00494 6.12213e-19
9980.00179 8.00778e-19
9981.99864 1.01765e-18
9983.99549 1.26311e-18
9986.00252 1.52939e-18
9987.99937 1.77100e-18
9989.99622 2.02883e-18
9992.00326 2.19164e-18
9994.00010 2.29947e-18
9995.99695 2.33676e-18
9998.00399 2.25671e-18
10000.00084 2.15960e-18
