# wavelength flux
3720.00230 8.59394e-18
3721.49568 8.04357e-18
3722.99921 1.03134e-17
3724.50274 1.25643e-17
3725.99611 1.19075e-17
3727.49964 8.01283e-18
3729.00318 1.05368e-17
3730.49655 1.21857e-17
3732.00008 1.03750e-17
3733.50361 1.02299e-17
3734.99699 1.05897e-17
3736.50052 1.01365e-17
3738.00405 1.06007e-17
3739.49742 1.19348e-17
3741.00095 1.25667e-17
3742.50449 1.16281e-17
3743.99786 8.24004e-18
3745.50139 1.01030e-17
3746.99476 1.26582e-17
3748.49830 9.22332e-18
3750.00183 7.39162e-18
3751.49520 9.59199e-18
3752.99873 1.03225e-17
3754.50227 7.47301e-18
3755.99564 7.35902e-18
3757.49917 8.16753e-18
3759.00270 9.53266e-18
3760.49608 1.19256e-17
3761.99961 1.30718e-17
3763.50314 1.23042e-17
3764.99651 1.14160e-17
3766.50005 9.79199e-18
3768.00358 9.63009e-18
3769.49695 9.46821e-18
3771.00048 9.46349e-18
3772.50401 9.45877e-18
3773.99739 9.45406e-18
3775.50092 9.44934e-18
3777.00445 9.44463e-18
3778.49782 9.43992e-18
3780.00136 9.43520e-18
3781.50489 9.43049e-18
3782.99826 9.42579e-18
3784.50179 9.42108e-18
3785.99517 9.41637e-18
3787.49870 9.41166e-18
3789.00223 9.40695e-18
3790.49560 9.40225e-18
3791.99914 9.39754e-18
3793.50267 9.39284e-18
3794.99604 9.38814e-18
3796.49957 9.38344e-18
3798.00310 9.37873e-18
3799.49648 9.37403e-18
3801.00001 9.36933e-18
3802.50354 9.36464e-18
3803.99691 9.35994e-18
3805.50045 9.35524e-18
3807.00398 9.35055e-18
3808.49735 9.05498e-18
3810.00088 8.75943e-18
3811.50441 8.46390e-18
3812.99779 8.16838e-18
3814.50132 7.87289e-18
3816.00485 7.57740e-18
3817.49823 7.57719e-18
3819.00176 7.30039e-18
3820.49513 8.64373e-18
3821.99866 7.34851e-18
3823.50219 6.94435e-18
3824.99557 6.91952e-18
3826.49910 7.76608e-18
3828.00263 9.23667e-18
3829.49600 6.44502e-18
3830.99954 6.34737e-18
3832.50307 8.64034e-18
3833.99644 7.00456e-18
3835.49997 9.79158e-18
3837.00351 1.05467e-17
3838.49688 9.17225e-18
3840.00041 9.40886e-18
3841.50394 7.97194e-18
3842.99732 1.21457e-17
3844.50085 1.08046e-17
3846.00438 9.35484e-18
3847.49775 1.01718e-17
3849.00128 1.16123e-17
3850.50482 1.21523e-17
3851.99819 1.07509e-17
3853.50172 1.12367e-17
3854.99509 9.23512e-18
3856.49863 9.10578e-18
3858.00216 1.07323e-17
3859.49553 1.10231e-17
3860.99906 1.10435e-17
3862.50260 1.13718e-17
3863.99597 9.00893e-18
3865.49950 8.22954e-18
3867.00303 9.27066e-18
3868.49640 8.44289e-18
3869.99994 9.82768e-18
3871.50347 1.09354e-17
3872.99684 8.53884e-18
3874.50037 9.47973e-18
3876.00391 8.53816e-18
3877.49728 5.90385e-18
3879.00081 7.82792e-18
3880.50434 1.17140e-17
3881.99772 1.10979e-17
3883.50125 9.20443e-18
3885.00478 9.72799e-18
3886.49815 9.69616e-18
3888.00169 1.11102e-17
3889.49506 1.12204e-17
3890.99859 1.07836e-17
3892.50212 1.13736e-17
3893.99550 1.11903e-17
3895.49903 1.05798e-17
3897.00256 1.18528e-17
3898.49593 1.25377e-17
3899.99946 1.09676e-17
3901.50300 9.48919e-18
3902.99637 9.34052e-18
3904.49990 1.10037e-17
3906.00343 1.08611e-17
3907.49681 1.11628e-17
3909.00034 1.24049e-17
3910.50387 1.16278e-17
3911.99724 1.18610e-17
3913.50077 1.18598e-17
3915.00431 1.03337e-17
3916.49768 1.02461e-17
3918.00121 1.18296e-17
3919.50474 1.20038e-17
3920.99812 1.16036e-17
3922.50165 1.11505e-17
3923.99502 1.23912e-17
3925.49855 1.32396e-17
3927.00209 1.25599e-17
3928.49546 1.19650e-17
3929.99899 9.59837e-18
3931.50252 9.98039e-18
3932.99590 1.17502e-17
3934.49943 1.06447e-17
3936.00296 1.01227e-17
3937.49633 1.31134e-17
3938.99987 1.28598e-17
3940.50340 1.07583e-17
3941.99677 1.15273e-17
3943.50030 1.16301e-17
3945.00383 1.34751e-17
3946.49721 1.39438e-17
3948.00074 1.25333e-17
3949.50427 1.13890e-17
3950.99764 1.07409e-17
3952.50118 1.19783e-17
3954.00471 1.21628e-17
3955.49808 1.13777e-17
3957.00161 1.13234e-17
3958.49499 1.13084e-17
3959.99852 1.17292e-17
3961.50205 1.25734e-17
3962.99542 1.24017e-17
3964.49896 1.20414e-17
3966.00249 8.79237e-18
3967.49586 9.91911e-18
3968.99939 1.21722e-17
3970.50292 1.13429e-17
3971.99630 1.00617e-17
3973.49983 1.22876e-17
3975.00336 1.43086e-17
3976.49673 1.44304e-17
3978.00027 1.31623e-17
3979.50380 1.35222e-17
3980.99717 1.30962e-17
3982.50070 1.13979e-17
3984.00424 1.25235e-17
3985.49761 1.25985e-17
3987.00114 1.27040e-17
3988.50467 1.26567e-17
3989.99805 1.17855e-17
3991.50158 1.34790e-17
3992.99495 1.43592e-17
3994.49848 1.23250e-17
3996.00201 1.02017e-17
3997.49539 9.69824e-18
3998.99892 1.11727e-17
4000.50245 1.26868e-17
4001.99582 1.31300e-17
4003.49936 1.14307e-17
4005.00289 1.07656e-17
4006.49626 1.16733e-17
4007.99979 1.18511e-17
4009.50333 1.14860e-17
4010.99670 1.16618e-17
4012.50023 1.22761e-17
4014.00376 1.21809e-17
4015.49714 1.09878e-17
4017.00067 1.05979e-17
4018.50420 1.25556e-17
4019.99757 1.34643e-17
4021.50110 1.30907e-17
4023.00464 1.24889e-17
4024.49801 1.21431e-17
4026.00154 1.24371e-17
4027.49491 1.41933e-17
4028.99845 1.29702e-17
4030.50198 1.06368e-17
4031.99535 1.15058e-17
4033.49888 1.19073e-17
4035.00241 1.18945e-17
4036.49579 1.24519e-17
4037.99932 1.23350e-17
4039.50285 1.17725e-17
4040.99623 1.10436e-17
4042.49976 1.25344e-17
4044.00329 1.40649e-17
4045.49666 1.33382e-17
4047.00019 1.09430e-17
4048.50373 1.14727e-17
4049.99710 1.16598e-17
4051.50063 1.21075e-17
4053.00416 1.23229e-17
4054.49754 1.20136e-17
4056.00107 1.39334e-17
4057.50460 1.30291e-17
4058.99797 1.27432e-17
4060.50150 1.31861e-17
4062.00504 1.26442e-17
4063.49841 1.26439e-17
4065.00194 1.19814e-17
4066.49532 1.06523e-17
4067.99885 1.22413e-17
4069.50238 1.22899e-17
4070.99575 1.15408e-17
4072.49928 1.18413e-17
4074.00282 1.48257e-17
4075.49619 1.35179e-17
4076.99972 1.14657e-17
4078.50325 1.29904e-17
4079.99663 1.46422e-17
4081.50016 1.35318e-17
4083.00369 1.19961e-17
4084.49706 1.15218e-17
4086.00060 1.15094e-17
4087.50413 1.37201e-17
4088.99750 1.37736e-17
4090.50103 1.16724e-17
4092.00456 1.16568e-17
4093.49794 1.32075e-17
4095.00147 1.39151e-17
4096.50500 1.38882e-17
4097.99837 1.49170e-17
4099.50191 1.45173e-17
4100.99528 1.30078e-17
4102.49881 1.32362e-17
4104.00234 1.29445e-17
4105.49572 1.33460e-17
4106.99925 1.48420e-17
4108.50278 1.42375e-17
4109.99615 1.31855e-17
4111.49968 1.35756e-17
4113.00322 1.49278e-17
4114.49659 1.46262e-17
4116.00012 1.36189e-17
4117.50365 1.31455e-17
4118.99703 1.19702e-17
4120.50056 1.10610e-17
4122.00409 1.17535e-17
4123.49746 1.24372e-17
4125.00100 1.26609e-17
4126.50453 1.08355e-17
4127.99790 1.15966e-17
4129.50143 1.43039e-17
4130.99481 1.33148e-17
4132.49834 1.32638e-17
4134.00187 1.26480e-17
4135.49524 1.23529e-17
4136.99878 1.26255e-17
4138.50231 1.25001e-17
4139.99568 1.19682e-17
4141.49921 1.22389e-17
4143.00274 1.29413e-17
4144.49612 1.33704e-17
4145.99965 1.22126e-17
4147.50318 1.25928e-17
4148.99655 1.23925e-17
4150.50009 1.21249e-17
4152.00362 1.30549e-17
4153.49699 1.11229e-17
4155.00052 1.14539e-17
4156.50406 1.28222e-17
4157.99743 1.17203e-17
4159.50096 1.12290e-17
4161.00449 1.20737e-17
4162.49787 1.18391e-17
4164.00140 1.13351e-17
4165.50493 1.04863e-17
4166.99830 1.10635e-17
4168.50183 9.43186e-18
4169.99521 9.48889e-18
4171.49874 1.22077e-17
4173.00227 1.22548e-17
4174.49564 1.09800e-17
4175.99918 1.11334e-17
4177.50271 1.10114e-17
4178.99608 1.11811e-17
4180.49961 1.33299e-17
4182.00315 1.39927e-17
4183.49652 1.22966e-17
4185.00005 1.14582e-17
4186.50358 1.26972e-17
4187.99695 1.29902e-17
4189.50049 1.28958e-17
4191.00402 1.14119e-17
4192.49739 1.04949e-17
4194.00092 1.33047e-17
4195.50446 1.30199e-17
4196.99783 1.20860e-17
4198.50136 1.19161e-17
4200.00489 1.30218e-17
4201.49827 1.20372e-17
4203.00180 1.10843e-17
4204.49517 1.29157e-17
4205.99870 1.25098e-17
4207.50223 1.15843e-17
4208.99561 1.28232e-17
4210.49914 1.32099e-17
4212.00267 1.20335e-17
4213.49604 1.18855e-17
4214.99958 1.15080e-17
4216.50311 1.12616e-17
4217.99648 1.17711e-17
4219.50001 1.21374e-17
4221.00355 1.25710e-17
4222.49692 1.27115e-17
4224.00045 1.23921e-17
4225.50398 1.16492e-17
4226.99736 1.12179e-17
4228.50089 1.16247e-17
4230.00442 1.18202e-17
4231.49779 1.20534e-17
4233.00133 1.28725e-17
4234.50486 1.27906e-17
4235.99823 1.15280e-17
4237.50176 1.18897e-17
4238.99514 1.18038e-17
4240.49867 1.23219e-17
4242.00220 1.23564e-17
4243.49557 1.16978e-17
4244.99910 1.17419e-17
4246.50264 1.28999e-17
4247.99601 1.31382e-17
4249.49954 1.21020e-17
4251.00307 1.16261e-17
4252.49645 1.15276e-17
4253.99998 1.17768e-17
4255.50351 1.02467e-17
4256.99688 1.06568e-17
4258.50042 1.12647e-17
4260.00395 1.06939e-17
4261.49732 1.03619e-17
4263.00085 1.14668e-17
4264.50438 1.18913e-17
4265.99776 1.09656e-17
4267.50129 1.23203e-17
4269.00482 1.14365e-17
4270.49819 1.20735e-17
4272.00173 1.14218e-17
4273.49510 1.19529e-17
4274.99863 1.06839e-17
4276.50216 1.10224e-17
4277.99554 1.16925e-17
4279.49907 1.15965e-17
4281.00260 9.89644e-18
4282.49597 1.02491e-17
4283.99950 1.00499e-17
4285.50304 1.05932e-17
4286.99641 1.15054e-17
4288.49994 1.10946e-17
4290.00347 1.14239e-17
4291.49685 1.11221e-17
4293.00038 1.03977e-17
4294.50391 1.11372e-17
4295.99728 1.06151e-17
4297.50082 9.69545e-18
4299.00435 9.96805e-18
4300.49772 1.07984e-17
4302.00125 1.15687e-17
4303.50479 1.15435e-17
4304.99816 1.12931e-17
4306.50169 1.15597e-17
4307.99506 1.05256e-17
4309.49860 8.72019e-18
4311.00213 8.73129e-18
4312.49550 9.51509e-18
4313.99903 1.02749e-17
4315.50256 9.96529e-18
4316.99594 9.87486e-18
4318.49947 1.04054e-17
4320.00300 1.08776e-17
4321.49637 1.03257e-17
4322.99991 1.06448e-17
4324.50344 1.00678e-17
4325.99681 1.00901e-17
4327.50034 1.05314e-17
4329.00388 1.02631e-17
4330.49725 9.17754e-18
4332.00078 9.49035e-18
4333.50431 9.40878e-18
4334.99768 8.83107e-18
4336.50122 9.81141e-18
4338.00475 9.70388e-18
4339.49812 9.76535e-18
4341.00165 9.81242e-18
4342.49503 9.94082e-18
4343.99856 1.01430e-17
4345.50209 1.01841e-17
4346.99546 9.78242e-18
4348.49900 9.44794e-18
4350.00253 9.25285e-18
4351.49590 9.58398e-18
4352.99943 1.05831e-17
4354.50297 1.04594e-17
4355.99634 9.62936e-18
4357.49987 9.67446e-18
4359.00340 9.44793e-18
4360.49678 9.67539e-18
4362.00031 1.01343e-17
4363.50384 1.01788e-17
4364.99721 9.16173e-18
4366.50074 9.23963e-18
4368.00428 9.85197e-18
4369.49765 9.56395e-18
4371.00118 9.55615e-18
4372.50471 1.01192e-17
4373.99809 1.02665e-17
4375.50162 1.03935e-17
4376.99499 1.02807e-17
4378.49852 1.01239e-17
4380.00205 9.93608e-18
4381.49543 1.02107e-17
4382.99896 1.02603e-17
4384.50249 9.99673e-18
4385.99587 1.06193e-17
4387.49940 1.05146e-17
4389.00293 9.25269e-18
4390.49630 9.60887e-18
4391.99983 1.09337e-17
4393.50337 1.04373e-17
4394.99674 1.04113e-17
4396.50027 1.04397e-17
4398.00380 1.03555e-17
4399.49718 1.14056e-17
4401.00071 1.16966e-17
4402.50424 1.14969e-17
4403.99761 1.09902e-17
4405.50115 1.07839e-17
4407.00468 1.08345e-17
4408.49805 9.99005e-18
4410.00158 1.09857e-17
4411.50511 1.11730e-17
4412.99849 1.03988e-17
4414.50202 1.04572e-17
4415.99539 1.05155e-17
4417.49892 1.05739e-17
4419.00246 1.06323e-17
4420.49583 1.06907e-17
4421.99936 1.07491e-17
4423.50289 1.08075e-17
4424.99627 1.08659e-17
4426.49980 1.09242e-17
4428.00333 1.09826e-17
4429.49670 1.10410e-17
4431.00023 1.10993e-17
4432.50377 1.11577e-17
4433.99714 1.12160e-17
4435.50067 1.12744e-17
4437.00420 1.13327e-17
4438.49758 1.13911e-17
4440.00111 1.14494e-17
4441.50464 1.15078e-17
4442.99801 1.15661e-17
4444.50155 1.16244e-17
4446.00508 1.16828e-17
4447.49845 1.17411e-17
4449.00198 1.17994e-17
4450.49536 1.18577e-17
4451.99889 1.19160e-17
4453.50242 1.14278e-17
4454.99579 1.19150e-17
4456.49932 1.11406e-17
4458.00286 1.07576e-17
4459.49623 1.13371e-17
4460.99976 1.13932e-17
4462.50329 1.21211e-17
4463.99667 1.16029e-17
4465.50020 1.18850e-17
4467.00373 1.18257e-17
4468.49710 1.18071e-17
4470.00064 1.28106e-17
4471.50417 1.22122e-17
4472.99754 1.34092e-17
4474.50107 1.26412e-17
4476.00461 1.15325e-17
4477.49798 1.20629e-17
4479.00151 1.25597e-17
4480.50504 1.30562e-17
4481.99842 1.34958e-17
4483.50195 1.33519e-17
4484.99532 1.27403e-17
4486.49885 1.22673e-17
4488.00238 1.22969e-17
4489.49576 1.30258e-17
4490.99929 1.36707e-17
4492.50282 1.40688e-17
4493.99619 1.37783e-17
4495.49973 1.26479e-17
4497.00326 1.27797e-17
4498.49663 1.33114e-17
4500.00016 1.27774e-17
4501.50370 1.25496e-17
4502.99707 1.21169e-17
4504.50060 1.30801e-17
4506.00413 1.38284e-17
4507.49751 1.43713e-17
4509.00104 1.39539e-17
4510.50457 1.38148e-17
4511.99794 1.37974e-17
4513.50147 1.36125e-17
4514.99485 1.37583e-17
4516.49838 1.29310e-17
4518.00191 1.24797e-17
4519.49528 1.31404e-17
4520.99882 1.42550e-17
4522.50235 1.39745e-17
4523.99572 1.39398e-17
4525.49925 1.42364e-17
4527.00278 1.41361e-17
4528.49616 1.46313e-17
4529.99969 1.43476e-17
4531.50322 1.26944e-17
4532.99660 1.34653e-17
4534.50013 1.42285e-17
4536.00366 1.46236e-17
4537.49703 1.50071e-17
4539.00056 1.47805e-17
4540.50410 1.40351e-17
4541.99747 1.35348e-17
4543.50100 1.41876e-17
4545.00453 1.48557e-17
4546.49791 1.44065e-17
4548.00144 1.34980e-17
4549.49481 1.44241e-17
4550.99834 1.50893e-17
4552.50187 1.40329e-17
4553.99525 1.54381e-17
4555.49878 1.61759e-17
4557.00231 1.51226e-17
4558.49568 1.42477e-17
4559.99922 1.50166e-17
4561.50275 1.47450e-17
4562.99612 1.39528e-17
4564.49965 1.41006e-17
4566.00319 1.42359e-17
4567.49656 1.41772e-17
4569.00009 1.42327e-17
4570.50362 1.43241e-17
4571.99700 1.42163e-17
4573.50053 1.43435e-17
4575.00406 1.53461e-17
4576.49743 1.49122e-17
4578.00097 1.44210e-17
4579.50450 1.53928e-17
4580.99787 1.48729e-17
4582.50140 1.45922e-17
4583.99478 1.42250e-17
4585.49831 1.43691e-17
4587.00184 1.45133e-17
4588.49521 1.46574e-17
4589.99874 1.48015e-17
4591.50228 1.49456e-17
4592.99565 1.50897e-17
4594.49918 1.50892e-17
4596.00271 1.47070e-17
4597.49609 1.45721e-17
4598.99962 1.48283e-17
4600.50315 1.52252e-17
4601.99652 1.46046e-17
4603.50005 1.42971e-17
4605.00359 1.39461e-17
4606.49696 1.41539e-17
4608.00049 1.44659e-17
4609.50402 1.53590e-17
4610.99740 1.47763e-17
4612.50093 1.38542e-17
4614.00446 1.40770e-17
4615.49783 1.43412e-17
4617.00137 1.34251e-17
4618.50490 1.38264e-17
4619.99827 1.36276e-17
4621.50180 1.28297e-17
4622.99518 1.39989e-17
4624.49871 1.50813e-17
4626.00224 1.52459e-17
4627.49561 1.38503e-17
4628.99915 1.48388e-17
4630.50268 1.41660e-17
4631.99605 1.39004e-17
4633.49958 1.39591e-17
4635.00311 1.43785e-17
4636.49649 1.46116e-17
4638.00002 1.58131e-17
4639.50355 1.40653e-17
4640.99692 1.51164e-17
4642.50046 1.47522e-17
4644.00399 1.46548e-17
4645.49736 1.37055e-17
4647.00089 1.37347e-17
4648.50443 1.34910e-17
4649.99780 1.29410e-17
4651.50133 1.38317e-17
4653.00486 1.42685e-17
4654.49824 1.41916e-17
4656.00177 1.37508e-17
4657.49514 1.41175e-17
4658.99867 1.43816e-17
4660.50220 1.40233e-17
4661.99558 1.43292e-17
4663.49911 1.37779e-17
4665.00264 1.34245e-17
4666.49601 1.39337e-17
4667.99955 1.37369e-17
4669.50308 1.39202e-17
4670.99645 1.39593e-17
4672.49998 1.39394e-17
4674.00352 1.38652e-17
4675.49689 1.31072e-17
4677.00042 1.25037e-17
4678.50395 1.25970e-17
4679.99733 1.28556e-17
4681.50086 1.30315e-17
4683.00439 1.28604e-17
4684.49776 1.36244e-17
4686.00129 1.33376e-17
4687.50483 1.28241e-17
4688.99820 1.25811e-17
4690.50173 1.32867e-17
4691.99510 1.22285e-17
4693.49864 1.14685e-17
4695.00217 1.19456e-17
4696.49554 1.21500e-17
4697.99907 1.22805e-17
4699.50260 1.20937e-17
4700.99598 1.21101e-17
4702.49951 1.29889e-17
4704.00304 1.21871e-17
4705.49642 1.19845e-17
4706.99995 1.23738e-17
4708.50348 1.15020e-17
4709.99685 1.34332e-17
4711.50038 1.28454e-17
4713.00392 1.19448e-17
4714.49729 1.22798e-17
4716.00082 1.25770e-17
4717.50435 1.18092e-17
4718.99773 1.21086e-17
4720.50126 1.22700e-17
4722.00479 1.18064e-17
4723.49816 1.16053e-17
4725.00169 1.17111e-17
4726.49507 1.15305e-17
4727.99860 1.17870e-17
4729.50213 1.23336e-17
4730.99550 1.29683e-17
4732.49904 1.29482e-17
4734.00257 1.20799e-17
4735.49594 1.21455e-17
4736.99947 1.21123e-17
4738.50301 1.19250e-17
4739.99638 1.15274e-17
4741.49991 1.12624e-17
4743.00344 1.15783e-17
4744.49682 1.18869e-17
4746.00035 1.19582e-17
4747.50388 1.22250e-17
4748.99725 1.14910e-17
4750.50079 1.16539e-17
4752.00432 1.11576e-17
4753.49769 1.18164e-17
4755.00122 1.17168e-17
4756.50475 1.18637e-17
4757.99813 1.13030e-17
4759.50166 1.14829e-17
4760.99503 1.22815e-17
4762.49856 1.23985e-17
4764.00210 1.20550e-17
4765.49547 1.23574e-17
4766.99900 1.18870e-17
4768.50253 1.09382e-17
4769.99591 1.19482e-17
4771.49944 1.15720e-17
4773.00297 1.20052e-17
4774.49634 1.09772e-17
4775.99988 1.11683e-17
4777.50341 1.17475e-17
4778.99678 1.17624e-17
4780.50031 1.12313e-17
4782.00384 1.07878e-17
4783.49722 1.14463e-17
4785.00075 1.15096e-17
4786.50428 1.08285e-17
4787.99765 1.07484e-17
4789.50119 1.06886e-17
4791.00472 1.17327e-17
4792.49809 1.11075e-17
4794.00162 1.02547e-17
4795.49500 1.14482e-17
4796.99853 1.08653e-17
4798.50206 1.01873e-17
4799.99543 1.10012e-17
4801.49897 1.11160e-17
4803.00250 1.08440e-17
4804.49587 1.06367e-17
4805.99940 1.03442e-17
4807.50293 1.03064e-17
4808.99631 1.08677e-17
4810.49984 1.08206e-17
4812.00337 1.11616e-17
4813.49674 1.15568e-17
4815.00028 1.05912e-17
4816.50381 1.06110e-17
4817.99718 1.05269e-17
4819.50071 1.06427e-17
4821.00425 1.09433e-17
4822.49762 1.12273e-17
4824.00115 1.14409e-17
4825.50468 1.09982e-17
4826.99806 9.98965e-18
4828.50159 1.06328e-17
4829.99496 1.09515e-17
4831.49849 1.12617e-17
4833.00202 1.14671e-17
4834.49540 1.08863e-17
4835.99893 1.05234e-17
4837.50246 1.05810e-17
4838.99583 1.12103e-17
4840.49937 1.21599e-17
4842.00290 1.07204e-17
4843.49627 9.40251e-18
4844.99980 9.69807e-18
4846.50333 1.09906e-17
4847.99671 1.14324e-17
4849.50024 1.10957e-17
4851.00377 1.13990e-17
4852.49715 1.07565e-17
4854.00068 1.13600e-17
4855.50421 1.11493e-17
4856.99758 1.11126e-17
4858.50111 1.10277e-17
4860.00465 1.11158e-17
4861.49802 1.08960e-17
4863.00155 1.10230e-17
4864.49492 1.07435e-17
4865.99846 1.05842e-17
4867.50199 1.11140e-17
4868.99536 1.13884e-17
4870.49889 1.15495e-17
4872.00242 1.07338e-17
4873.49580 1.05827e-17
4874.99933 1.14965e-17
4876.50286 1.14392e-17
4877.99623 1.09805e-17
4879.49977 1.10599e-17
4881.00330 1.12162e-17
4882.49667 1.05788e-17
4884.00020 1.02056e-17
4885.50374 1.06690e-17
4886.99711 1.10377e-17
4888.50064 1.12036e-17
4890.00417 1.12528e-17
4891.49755 1.11170e-17
4893.00108 1.05770e-17
4894.50461 1.07959e-17
4895.99798 1.00537e-17
4897.50152 1.00501e-17
4899.00505 1.08915e-17
4900.49842 1.12691e-17
4902.00195 1.04689e-17
4903.49532 1.10869e-17
4904.99886 1.12323e-17
4906.50239 1.14461e-17
4907.99576 1.00922e-17
4909.49929 9.69123e-18
4911.00283 1.05211e-17
4912.49620 1.02378e-17
4913.99973 9.39711e-18
4915.50326 9.93477e-18
4916.99664 1.02641e-17
4918.50017 1.14352e-17
4920.00370 1.07583e-17
4921.49707 1.07248e-17
4923.00061 1.06913e-17
4924.50414 1.06577e-17
4925.99751 1.06242e-17
4927.50104 1.05907e-17
4929.00457 1.05571e-17
4930.49795 1.05236e-17
4932.00148 1.04901e-17
4933.50501 1.04565e-17
4934.99838 1.04230e-17
4936.50192 1.03895e-17
4937.99529 1.03560e-17
4939.49882 1.03225e-17
4941.00235 1.02890e-17
4942.49573 1.02554e-17
4943.99926 1.02219e-17
4945.50279 1.01884e-17
4946.99616 1.01549e-17
4948.49970 1.01214e-17
4950.00323 1.00879e-17
4951.49660 1.00544e-17
4953.00013 1.00209e-17
4954.50366 9.98741e-18
4955.99704 9.95393e-18
4957.50057 9.92043e-18
4959.00410 1.01782e-17
4960.49747 1.05407e-17
4962.00101 1.14155e-17
4963.50454 1.11672e-17
4964.99791 1.08369e-17
4966.50144 1.11008e-17
4968.00497 1.10107e-17
4969.49835 1.03165e-17
4971.00188 1.04204e-17
4972.49525 1.05874e-17
4973.99878 9.97369e-18
4975.50232 9.29809e-18
4976.99569 1.09386e-17
4978.49922 1.12214e-17
4980.00275 1.02904e-17
4981.49613 1.05517e-17
4982.99966 1.18700e-17
4984.50319 1.04764e-17
4985.99656 1.06824e-17
4987.50010 1.19652e-17
4989.00363 1.13098e-17
4990.49700 1.12499e-17
4992.00053 1.08813e-17
4993.50407 1.05615e-17
4994.99744 1.06950e-17
4996.50097 9.70967e-18
4998.00450 1.01470e-17
4999.49788 1.08059e-17
5001.00141 1.03717e-17
5002.50494 1.10901e-17
5003.99831 1.05696e-17
5005.50184 1.01935e-17
5006.99522 1.05384e-17
5008.49875 1.04038e-17
5010.00228 1.05645e-17
5011.49565 1.05815e-17
5012.99919 1.08138e-17
5014.50272 1.11118e-17
5015.99609 1.09374e-17
5017.49962 1.08557e-17
5019.00316 1.10886e-17
5020.49653 1.10800e-17
5022.00006 1.10715e-17
5023.50359 1.10629e-17
5024.99697 1.10544e-17
5026.50050 1.10458e-17
5028.00403 1.10373e-17
5029.49740 1.10287e-17
5031.00093 1.10202e-17
5032.50447 1.10116e-17
5033.99784 1.10031e-17
5035.50137 1.09946e-17
5037.00490 1.09860e-17
5038.49828 1.09775e-17
5040.00181 1.09689e-17
5041.49518 1.09604e-17
5042.99871 1.09519e-17
5044.50225 1.09433e-17
5045.99562 1.09348e-17
5047.49915 1.09262e-17
5049.00268 1.09177e-17
5050.49605 1.09092e-17
5051.99959 1.09006e-17
5053.50312 1.08921e-17
5054.99649 1.08836e-17
5056.50002 1.08750e-17
5058.00356 1.15833e-17
5059.49693 1.16160e-17
5061.00046 1.08053e-17
5062.50399 1.06902e-17
5063.99737 1.20443e-17
5065.50090 1.14177e-17
5067.00443 1.21042e-17
5068.49780 1.21195e-17
5070.00133 1.21349e-17
5071.49471 1.21502e-17
5072.99824 1.21655e-17
5074.50177 1.21808e-17
5075.99514 1.21962e-17
5077.49868 1.22115e-17
5079.00221 1.22268e-17
5080.49558 1.22421e-17
5081.99911 1.22574e-17
5083.50265 1.22728e-17
5084.99602 1.22881e-17
5086.49955 1.23034e-17
5088.00308 1.23187e-17
5089.49646 1.23340e-17
5090.99999 1.23493e-17
5092.50352 1.23647e-17
5093.99689 1.23800e-17
5095.50043 1.23953e-17
5097.00396 1.24106e-17
5098.49733 1.24259e-17
5100.00086 1.24412e-17
5101.50439 1.24566e-17
5102.99777 1.24719e-17
5104.50130 1.24872e-17
5105.99467 1.25025e-17
5107.49820 1.27552e-17
5109.00174 1.26628e-17
5110.49511 1.23885e-17
5111.99864 1.28843e-17
5113.50217 1.25179e-17
5114.99555 1.31735e-17
5116.49908 1.25237e-17
5118.00261 1.34714e-17
5119.49598 1.32576e-17
5120.99952 1.30678e-17
5122.50305 1.35952e-17
5123.99642 1.25190e-17
5125.49995 1.27191e-17
5127.00348 1.41344e-17
5128.49686 1.36845e-17
5130.00039 1.33865e-17
5131.50392 1.31742e-17
5132.99729 1.34171e-17
5134.50083 1.28660e-17
5136.00436 1.36452e-17
5137.49773 1.26099e-17
5139.00126 1.32749e-17
5140.50480 1.42218e-17
5141.99817 1.30712e-17
5143.50170 1.24484e-17
5144.99507 1.31699e-17
5146.49860 1.38434e-17
5148.00214 1.32665e-17
5149.49551 1.26590e-17
5150.99904 1.21441e-17
5152.50257 1.25065e-17
5153.99595 1.30568e-17
5155.49948 1.28839e-17
5157.00301 1.39261e-17
5158.49638 1.39507e-17
5159.99992 1.37540e-17
5161.50345 1.36888e-17
5162.99682 1.38910e-17
5164.50035 1.37589e-17
5166.00389 1.31023e-17
5167.49726 1.25574e-17
5169.00079 1.27242e-17
5170.50432 1.30944e-17
5171.99770 1.33310e-17
5173.50123 1.20066e-17
5175.00476 1.20756e-17
5176.49813 1.31615e-17
5178.00166 1.32473e-17
5179.49504 1.35172e-17
5180.99857 1.35137e-17
5182.50210 1.31747e-17
5183.99547 1.35657e-17
5185.49901 1.28875e-17
5187.00254 1.28555e-17
5188.49591 1.37743e-17
5189.99944 1.29452e-17
5191.50298 1.22768e-17
5192.99635 1.25000e-17
5194.49988 1.24436e-17
5196.00341 1.29113e-17
5197.49678 1.28350e-17
5199.00032 1.24070e-17
5200.50385 1.38339e-17
5201.99722 1.27257e-17
5203.50075 1.35328e-17
5205.00429 1.34759e-17
5206.49766 1.34433e-17
5208.00119 1.36036e-17
5209.50472 1.40371e-17
5210.99810 1.39854e-17
5212.50163 1.35503e-17
5214.00516 1.36118e-17
5215.49853 1.34493e-17
5217.00207 1.30777e-17
5218.49544 1.30786e-17
5219.99897 1.33446e-17
5221.50250 1.29022e-17
5222.99588 1.39513e-17
5224.49941 1.47700e-17
5226.00294 1.37357e-17
5227.49631 1.27677e-17
5228.99984 1.33262e-17
5230.50338 1.33469e-17
5231.99675 1.26872e-17
5233.50028 1.31678e-17
5235.00381 1.32475e-17
5236.49719 1.31721e-17
5238.00072 1.30456e-17
5239.50425 1.34295e-17
5240.99762 1.39618e-17
5242.50115 1.32314e-17
5244.00469 1.32656e-17
5245.49806 1.39129e-17
5247.00159 1.34325e-17
5248.49497 1.37764e-17
5249.99850 1.43358e-17
5251.50203 1.38992e-17
5252.99540 1.40214e-17
5254.49893 1.33391e-17
5256.00247 1.30711e-17
5257.49584 1.36306e-17
5258.99937 1.33225e-17
5260.50290 1.34951e-17
5261.99628 1.30307e-17
5263.49981 1.29817e-17
5265.00334 1.30160e-17
5266.49671 1.28263e-17
5268.00025 1.46016e-17
5269.50378 1.33700e-17
5270.99715 1.32468e-17
5272.50068 1.24201e-17
5274.00421 1.22178e-17
5275.49759 1.34760e-17
5277.00112 1.30843e-17
5278.50465 1.27381e-17
5279.99802 1.28212e-17
5281.50156 1.33457e-17
5282.99493 1.28682e-17
5284.49846 1.33792e-17
5286.00199 1.30581e-17
5287.49537 1.26959e-17
5288.99890 1.29243e-17
5290.50243 1.31126e-17
5291.99580 1.30266e-17
5293.49933 1.25056e-17
5295.00287 1.19502e-17
5296.49624 1.22903e-17
5297.99977 1.32745e-17
5299.50330 1.22664e-17
5300.99668 1.19269e-17
5302.50021 1.28966e-17
5304.00374 1.26332e-17
5305.49711 1.15941e-17
5307.00065 1.19438e-17
5308.50418 1.25642e-17
5309.99755 1.28513e-17
5311.50108 1.30441e-17
5313.00462 1.24560e-17
5314.49799 1.18070e-17
5316.00152 1.18562e-17
5317.49489 1.18470e-17
5318.99842 1.20486e-17
5320.50196 1.29287e-17
5321.99533 1.23745e-17
5323.49886 1.24190e-17
5325.00239 1.26757e-17
5326.49577 1.19571e-17
5327.99930 1.25077e-17
5329.50283 1.25711e-17
5330.99620 1.19459e-17
5332.49974 1.19294e-17
5334.00327 1.21238e-17
5335.49664 1.20645e-17
5337.00017 1.20419e-17
5338.50371 1.18177e-17
5339.99708 1.21907e-17
5341.50061 1.22805e-17
5343.00414 1.24085e-17
5344.49752 1.15471e-17
5346.00105 1.15478e-17
5347.50458 1.21191e-17
5348.99795 1.15351e-17
5350.50148 1.17109e-17
5351.99486 1.17324e-17
5353.49839 1.23667e-17
5355.00192 1.24711e-17
5356.49529 1.25193e-17
5357.99883 1.25362e-17
5359.50236 1.22093e-17
5360.99573 1.33134e-17
5362.49926 1.24555e-17
5364.00280 1.20849e-17
5365.49617 1.27594e-17
5366.99970 1.18025e-17
5368.50323 1.19118e-17
5369.99661 1.24532e-17
5371.50014 1.20696e-17
5373.00367 1.25931e-17
5374.49704 1.27675e-17
5376.00057 1.26347e-17
5377.50411 1.27133e-17
5378.99748 1.24997e-17
5380.50101 1.28318e-17
5382.00454 1.27421e-17
5383.49792 1.28773e-17
5385.00145 1.27682e-17
5386.49482 1.22651e-17
5387.99835 1.19833e-17
5389.50188 1.22093e-17
5390.99526 1.31843e-17
5392.49879 1.34777e-17
5394.00232 1.32799e-17
5395.49570 1.29347e-17
5396.99923 1.24172e-17
5398.50276 1.16984e-17
5399.99613 1.18758e-17
5401.49966 1.27117e-17
5403.00320 1.28420e-17
5404.49657 1.31134e-17
5406.00010 1.26426e-17
5407.50363 1.21526e-17
5408.99701 1.20116e-17
5410.50054 1.29863e-17
5412.00407 1.33390e-17
5413.49744 1.22192e-17
5415.00097 1.27679e-17
5416.50451 1.22979e-17
5417.99788 1.18144e-17
5419.50141 1.25945e-17
5421.00494 1.28178e-17
5422.49832 1.24760e-17
5424.00185 1.21237e-17
5425.49522 1.23262e-17
5426.99875 1.17998e-17
5428.50229 1.17138e-17
5429.99566 1.20657e-17
5431.49919 1.11747e-17
5433.00272 1.20932e-17
5434.49610 1.26986e-17
5435.99963 1.24414e-17
5437.50316 1.25925e-17
5438.99653 1.22392e-17
5440.50007 1.30026e-17
5442.00360 1.28209e-17
5443.49697 1.15484e-17
5445.00050 1.18661e-17
5446.50403 1.24337e-17
5447.99741 1.26304e-17
5449.50094 1.23190e-17
5451.00447 1.19310e-17
5452.49784 1.23517e-17
5454.00138 1.24194e-17
5455.50491 1.22395e-17
5456.99828 1.18095e-17
5458.50181 1.23298e-17
5459.99519 1.29878e-17
5461.49872 1.24627e-17
5463.00225 1.21960e-17
5464.49562 1.21567e-17
5465.99915 1.18535e-17
5467.50269 1.22117e-17
5468.99606 1.22718e-17
5470.49959 1.21434e-17
5472.00312 1.16718e-17
5473.49650 1.12319e-17
5475.00003 1.19921e-17
5476.50356 1.19172e-17
5477.99693 1.12445e-17
5479.50047 1.20601e-17
5481.00400 1.26663e-17
5482.49737 1.26334e-17
5484.00090 1.15591e-17
5485.50443 1.14625e-17
5486.99781 1.22567e-17
5488.50134 1.20583e-17
5490.00487 1.27195e-17
5491.49825 1.21487e-17
5493.00178 1.11365e-17
5494.49515 1.23691e-17
5495.99868 1.17625e-17
5497.50221 1.14758e-17
5498.99559 1.23687e-17
5500.49912 1.19101e-17
5502.00265 1.12682e-17
5503.49602 1.16130e-17
5504.99956 1.14528e-17
5506.50309 1.13144e-17
5507.99646 1.17558e-17
5509.49999 1.19432e-17
5511.00353 1.24779e-17
5512.49690 1.19442e-17
5514.00043 1.08188e-17
5515.50396 1.12156e-17
5516.99734 1.19619e-17
5518.50087 1.11940e-17
5520.00440 1.10620e-17
5521.49777 1.16046e-17
5523.00130 1.15496e-17
5524.50484 1.15175e-17
5525.99821 1.16574e-17
5527.50174 1.17993e-17
5528.99511 1.13474e-17
5530.49865 1.18433e-17
5532.00218 1.16396e-17
5533.49555 1.17888e-17
5534.99908 1.17714e-17
5536.50262 1.12866e-17
5537.99599 1.18519e-17
5539.49952 1.16452e-17
5541.00305 1.18415e-17
5542.49643 1.17857e-17
5543.99996 1.13206e-17
5545.50349 1.13481e-17
5546.99686 1.16997e-17
5548.50039 1.21297e-17
5550.00393 1.19568e-17
5551.49730 1.23692e-17
5553.00083 1.13947e-17
5554.50436 1.20605e-17
5555.99774 1.17991e-17
5557.50127 1.18440e-17
5559.00480 1.22656e-17
5560.49817 1.21526e-17
5562.00170 1.13453e-17
5563.49508 1.20871e-17
5564.99861 1.15326e-17
5566.50214 1.16413e-17
5567.99552 1.13828e-17
5569.49905 1.13877e-17
5571.00258 1.26544e-17
5572.49595 1.14403e-17
5573.99948 1.15877e-17
5575.50302 1.12545e-17
5576.99639 1.04458e-17
5578.49992 1.13218e-17
5580.00345 1.07064e-17
5581.49683 1.16723e-17
5583.00036 1.17649e-17
5584.50389 1.15353e-17
5585.99726 1.22641e-17
5587.50079 1.21667e-17
5589.00433 1.14783e-17
5590.49770 1.14231e-17
5592.00123 1.12431e-17
5593.50476 1.17333e-17
5594.99814 1.20224e-17
5596.50167 1.11674e-17
5597.99504 1.12452e-17
5599.49857 1.16850e-17
5601.00211 1.18099e-17
5602.49548 1.18865e-17
5603.99901 1.14836e-17
5605.50254 1.16478e-17
5606.99592 1.13211e-17
5608.49945 1.15275e-17
5610.00298 1.19018e-17
5611.49635 1.11554e-17
5612.99989 1.09569e-17
5614.50342 1.13251e-17
5615.99679 1.17951e-17
5617.50032 1.17385e-17
5619.00385 1.09466e-17
5620.49723 1.11300e-17
5622.00076 1.18145e-17
5623.50429 1.23679e-17
5624.99766 1.14403e-17
5626.50120 1.15017e-17
5628.00473 1.14988e-17
5629.49810 1.10277e-17
5631.00163 1.19868e-17
5632.49501 1.15200e-17
5633.99854 1.16605e-17
5635.50207 1.18008e-17
5636.99544 1.11984e-17
5638.49898 1.14891e-17
5640.00251 1.18233e-17
5641.49588 1.14150e-17
5642.99941 1.15270e-17
5644.50294 1.17790e-17
5645.99632 1.15856e-17
5647.49985 1.12233e-17
5649.00338 1.10336e-17
5650.49675 1.20171e-17
5652.00029 1.13778e-17
5653.50382 1.11891e-17
5654.99719 1.14769e-17
5656.50072 1.21387e-17
5658.00425 1.22201e-17
5659.49763 1.16293e-17
5661.00116 1.15688e-17
5662.50469 1.15131e-17
5663.99807 1.06825e-17
5665.50160 1.01390e-17
5666.99497 1.03690e-17
5668.49850 1.11542e-17
5670.00203 1.13892e-17
5671.49541 1.09529e-17
5672.99894 1.16039e-17
5674.50247 1.18361e-17
5675.99584 1.11209e-17
5677.49938 1.11972e-17
5679.00291 1.12645e-17
5680.49628 1.06662e-17
5681.99981 1.12092e-17
5683.50335 1.15470e-17
5684.99672 1.17390e-17
5686.50025 1.12775e-17
5688.00378 1.08738e-17
5689.49716 1.11021e-17
5691.00069 1.05149e-17
5692.50422 1.07553e-17
5693.99759 1.04310e-17
5695.50112 1.03041e-17
5697.00466 1.11780e-17
5698.49803 1.17714e-17
5700.00156 1.18667e-17
5701.50509 1.05570e-17
5702.99847 1.09620e-17
5704.50200 1.18377e-17
5705.99537 1.11409e-17
5707.49890 1.09524e-17
5709.00243 1.08315e-17
5710.49581 1.12442e-17
5711.99934 1.17608e-17
5713.50287 1.11726e-17
5714.99625 1.11121e-17
5716.49978 1.18498e-17
5718.00331 1.19762e-17
5719.49668 1.18180e-17
5721.00021 1.17635e-17
5722.50375 1.16745e-17
5723.99712 1.09075e-17
5725.50065 1.10115e-17
5727.00418 1.14547e-17
5728.49756 1.12420e-17
5730.00109 1.14489e-17
5731.50462 1.10514e-17
5732.99799 1.03640e-17
5734.50153 1.03151e-17
5736.00506 1.11518e-17
5737.49843 1.18765e-17
5739.00196 1.16858e-17
5740.49533 1.13783e-17
5741.99887 1.11659e-17
5743.50240 1.11845e-17
5744.99577 1.13730e-17
5746.49930 1.20509e-17
5748.00284 1.22807e-17
5749.49621 1.16073e-17
5750.99974 1.15197e-17
5752.50327 1.17089e-17
5753.99665 1.19110e-17
5755.50018 1.18498e-17
5757.00371 1.16415e-17
5758.49708 1.14947e-17
5760.00062 1.18903e-17
5761.50415 1.19455e-17
5762.99752 1.14886e-17
5764.50105 1.14867e-17
5766.00458 1.15514e-17
5767.49796 1.15255e-17
5769.00149 1.14510e-17
5770.50502 1.17229e-17
5771.99839 1.16697e-17
5773.50193 1.15776e-17
5774.99530 1.09120e-17
5776.49883 1.13582e-17
5778.00236 1.03683e-17
5779.49574 1.13844e-17
5780.99927 1.19681e-17
5782.50280 1.23923e-17
5783.99617 1.22291e-17
5785.49971 1.20420e-17
5787.00324 1.19873e-17
5788.49661 1.23238e-17
5790.00014 1.20633e-17
5791.50367 1.11529e-17
5792.99705 1.19665e-17
5794.50058 1.19614e-17
5796.00411 1.17559e-17
5797.49748 1.13365e-17
5799.00102 1.13559e-17
5800.50455 1.20723e-17
5801.99792 1.20369e-17
5803.50145 1.12731e-17
5805.00498 1.12393e-17
5806.49836 1.15231e-17
5808.00189 1.09152e-17
5809.49526 1.14872e-17
5810.99880 1.27851e-17
5812.50233 1.21309e-17
5813.99570 1.16492e-17
5815.49923 1.19132e-17
5817.00276 1.12597e-17
5818.49614 1.13085e-17
5819.99967 1.16427e-17
5821.50320 1.19207e-17
5822.99657 1.22291e-17
5824.50011 1.23173e-17
5826.00364 1.22205e-17
5827.49701 1.16862e-17
5829.00054 1.14665e-17
5830.50407 1.15032e-17
5831.99745 1.20385e-17
5833.50098 1.14214e-17
5835.00451 1.12426e-17
5836.49788 1.16521e-17
5838.00142 1.10115e-17
5839.49479 1.15109e-17
5840.99832 1.15639e-17
5842.50185 1.14266e-17
5843.99523 1.16206e-17
5845.49876 1.13801e-17
5847.00229 1.20662e-17
5848.49566 1.16939e-17
5849.99920 1.23645e-17
5851.50273 1.24362e-17
5852.99610 1.18923e-17
5854.49963 1.09534e-17
5856.00317 1.18283e-17
5857.49654 1.13745e-17
5859.00007 1.13496e-17
5860.50360 1.18576e-17
5861.99698 1.15390e-17
5863.50051 1.13374e-17
5865.00404 1.12369e-17
5866.49741 1.07517e-17
5868.00094 1.13870e-17
5869.50448 1.19877e-17
5870.99785 1.05280e-17
5872.50138 1.00949e-17
5873.99475 1.09442e-17
5875.49829 1.13947e-17
5877.00182 1.14360e-17
5878.49519 1.08043e-17
5879.99872 1.13033e-17
5881.50226 1.15403e-17
5882.99563 1.06659e-17
5884.49916 1.09296e-17
5886.00269 1.13261e-17
5887.49607 1.12944e-17
5888.99960 1.12759e-17
5890.50313 1.08327e-17
5891.99650 1.16897e-17
5893.50003 1.17035e-17
5895.00357 1.10430e-17
5896.49694 1.17844e-17
5898.00047 1.13387e-17
5899.50400 1.08207e-17
5900.99738 1.13438e-17
5902.50091 1.17020e-17
5904.00444 1.06252e-17
5905.49781 1.09975e-17
5907.00135 1.10638e-17
5908.49472 1.06863e-17
5909.99825 1.07390e-17
5911.50178 1.08438e-17
5912.99515 1.05319e-17
5914.49869 1.05530e-17
5916.00222 1.10183e-17
5917.49559 1.09187e-17
5918.99912 1.05811e-17
5920.50266 1.05607e-17
5921.99603 1.10305e-17
5923.49956 1.18421e-17
5925.00309 1.11288e-17
5926.49647 1.09960e-17
5928.00000 1.09422e-17
5929.50353 1.09087e-17
5930.99690 1.18916e-17
5932.50043 1.08535e-17
5934.00397 1.03521e-17
5935.49734 1.06102e-17
5937.00087 1.06557e-17
5938.50440 1.15467e-17
5939.99778 1.14289e-17
5941.50131 1.13334e-17
5943.00484 1.12229e-17
5944.49821 1.12852e-17
5946.00175 1.12334e-17
5947.49512 1.09590e-17
5948.99865 1.12523e-17
5950.50218 1.16206e-17
5951.99556 1.08830e-17
5953.49909 9.88329e-18
5955.00262 1.04687e-17
5956.49599 1.09234e-17
5957.99953 1.10039e-17
5959.50306 1.11676e-17
5960.99643 1.07600e-17
5962.49996 1.05421e-17
5964.00349 1.03863e-17
5965.49687 1.05560e-17
5967.00040 1.11178e-17
5968.50393 1.08986e-17
5969.99730 1.03721e-17
5971.50084 1.07724e-17
5973.00437 1.14578e-17
5974.49774 1.13039e-17
5976.00127 1.04658e-17
5977.50480 1.12633e-17
5978.99818 1.11716e-17
5980.50171 1.06148e-17
5981.99508 1.05479e-17
5983.49862 1.05815e-17
5985.00215 1.06150e-17
5986.49552 1.06486e-17
5987.99905 1.06821e-17
5989.50258 1.07157e-17
5990.99596 1.07493e-17
5992.49949 1.07828e-17
5994.00302 1.08164e-17
5995.49639 1.08162e-17
5996.99993 1.07042e-17
5998.50346 1.07577e-17
5999.99683 1.10879e-17
6001.50036 1.05581e-17
6003.00390 1.01937e-17
6004.49727 1.07830e-17
6006.00080 1.12004e-17
6007.50433 1.04121e-17
6008.99770 1.06300e-17
6010.50124 1.05365e-17
6012.00477 1.02403e-17
6013.49814 1.08483e-17
6015.00167 1.10731e-17
6016.49505 1.10755e-17
6017.99858 1.12659e-17
6019.50211 1.10955e-17
6020.99548 1.08199e-17
6022.49902 1.04686e-17
6024.00255 9.79673e-18
6025.49592 1.01718e-17
6026.99945 1.10157e-17
6028.50299 1.07726e-17
6029.99636 1.03719e-17
6031.49989 1.03557e-17
6033.00342 1.01597e-17
6034.49680 9.96617e-18
6036.00033 1.08404e-17
6037.50386 1.12088e-17
6038.99723 1.06756e-17
6040.50076 1.01077e-17
6042.00430 1.05963e-17
6043.49767 1.04473e-17
6045.00120 1.01416e-17
6046.50473 9.95325e-18
6047.99811 1.07950e-17
6049.50164 1.06264e-17
6050.99501 1.06233e-17
6052.49854 1.03567e-17
6054.00208 9.65015e-18
6055.49545 1.01972e-17
6056.99898 9.97000e-18
6058.50251 9.92539e-18
6059.99588 1.01335e-17
6061.49942 1.06094e-17
6063.00295 9.76395e-18
6064.49632 9.26086e-18
6065.99985 9.95369e-18
6067.50339 1.04982e-17
6068.99676 1.00841e-17
6070.50029 9.17447e-18
6072.00382 9.43125e-18
6073.49720 9.68802e-18
6075.00073 9.68788e-18
6076.50426 9.94611e-18
6077.99763 9.86771e-18
6079.50117 9.68695e-18
6081.00470 9.19397e-18
6082.49807 9.20326e-18
6084.00160 1.02735e-17
6085.49498 1.04442e-17
6086.99851 1.08734e-17
6088.50204 1.08967e-17
6089.99541 1.08132e-17
6091.49894 1.03524e-17
6093.00248 9.89998e-18
6094.49585 9.18326e-18
6095.99938 9.02896e-18
6097.50291 8.85433e-18
6098.99629 9.04226e-18
6100.49982 1.01011e-17
6102.00335 1.03177e-17
6103.49672 9.80269e-18
6105.00025 9.01596e-18
6106.50379 8.65933e-18
6107.99716 9.80382e-18
6109.50069 9.62089e-18
6111.00422 8.91583e-18
6112.49760 1.01190e-17
6114.00113 9.85694e-18
6115.50466 8.93567e-18
6116.99803 9.52268e-18
6118.50157 9.67615e-18
6119.99494 9.34770e-18
6121.49847 9.53879e-18
6123.00200 9.67991e-18
6124.49538 9.18001e-18
6125.99891 8.92566e-18
6127.50244 9.59281e-18
6128.99581 1.00814e-17
6130.49935 9.42638e-18
6132.00288 9.47120e-18
6133.49625 9.37524e-18
6134.99978 9.35403e-18
6136.50331 9.33283e-18
6137.99669 9.31162e-18
6139.50022 9.29042e-18
6141.00375 9.26922e-18
6142.49712 9.24801e-18
6144.00066 9.24788e-18
6145.50419 8.95644e-18
6146.99756 8.71953e-18
6148.50109 9.19682e-18
6150.00463 9.28468e-18
6151.49800 9.24914e-18
6153.00153 9.11951e-18
6154.49490 8.65375e-18
6155.99843 8.49362e-18
6157.50197 8.59462e-18
6158.99534 8.65041e-18
6160.49887 9.08050e-18
6162.00240 8.91206e-18
6163.49578 9.03978e-18
6164.99931 9.77014e-18
6166.50284 9.09038e-18
6167.99621 8.69771e-18
6169.49975 9.25635e-18
6171.00328 9.03934e-18
6172.49665 8.77002e-18
6174.00018 8.55831e-18
6175.50372 8.69297e-18
6176.99709 8.69698e-18
6178.50062 8.09788e-18
6180.00415 8.47136e-18
6181.49752 9.08267e-18
6183.00106 9.24880e-18
6184.50459 9.38433e-18
6185.99796 9.39300e-18
6187.50149 9.24834e-18
6188.99487 8.68373e-18
6190.49840 9.05207e-18
6192.00193 9.28824e-18
6193.49530 8.51198e-18
6194.99884 8.95938e-18
6196.50237 8.55128e-18
6197.99574 8.23811e-18
6199.49927 8.93452e-18
6201.00281 9.18259e-18
6202.49618 8.88658e-18
6203.99971 9.06413e-18
6205.50324 9.36935e-18
6206.99662 9.67597e-18
6208.50015 9.51421e-18
6210.00368 9.97797e-18
6211.49705 9.25563e-18
6213.00058 8.42136e-18
6214.50412 8.87428e-18
6215.99749 8.58429e-18
6217.50102 8.57243e-18
6219.00455 8.91807e-18
6220.49793 9.19395e-18
6222.00146 9.29154e-18
6223.50499 9.42531e-18
6224.99836 8.84566e-18
6226.50190 8.84357e-18
6227.99527 9.16414e-18
6229.49880 9.31837e-18
6231.00233 9.47401e-18
6232.49571 9.69068e-18
6233.99924 1.01705e-17
6235.50277 9.87562e-18
6236.99614 9.54067e-18
6238.49967 8.91818e-18
6240.00321 9.57458e-18
6241.49658 1.03498e-17
6243.00011 9.13233e-18
6244.50364 8.58500e-18
6245.99702 9.53804e-18
6247.50055 1.02915e-17
6249.00408 9.58860e-18
6250.49745 9.94782e-18
6252.00098 9.84689e-18
6253.50452 9.35120e-18
6254.99789 1.01234e-17
6256.50142 9.90240e-18
6258.00495 9.80922e-18
6259.49833 9.59389e-18
6261.00186 9.76206e-18
6262.49523 9.78805e-18
6263.99876 1.00603e-17
6265.50230 9.73026e-18
6266.99567 8.81516e-18
6268.49920 9.90619e-18
6270.00273 1.07698e-17
6271.49611 9.63977e-18
6272.99964 9.53716e-18
6274.50317 1.02299e-17
6275.99654 1.03389e-17
6277.50007 9.85975e-18
6279.00361 1.07699e-17
6280.49698 1.01281e-17
6282.00051 9.30802e-18
6283.50404 1.06059e-17
6284.99742 1.06717e-17
6286.50095 1.06716e-17
6288.00448 9.96981e-18
6289.49785 1.02220e-17
6291.00139 1.02351e-17
6292.50492 9.92783e-18
6293.99829 9.75125e-18
6295.50182 9.95946e-18
6296.99520 1.04082e-17
6298.49873 1.08393e-17
6300.00226 9.69617e-18
6301.49563 9.28237e-18
6302.99917 9.45366e-18
6304.50270 1.03285e-17
6305.99607 1.09761e-17
6307.49960 1.06960e-17
6309.00313 1.00734e-17
6310.49651 1.01739e-17
6312.00004 1.02093e-17
6313.50357 1.04642e-17
6314.99694 1.09173e-17
6316.50048 1.05324e-17
6318.00401 1.01737e-17
6319.49738 1.06194e-17
6321.00091 1.10163e-17
6322.50445 1.00640e-17
6323.99782 9.46140e-18
6325.50135 1.00249e-17
6327.00488 1.00619e-17
6328.49826 1.03139e-17
6330.00179 1.02714e-17
6331.49516 1.02923e-17
6332.99869 1.07611e-17
6334.50222 1.02696e-17
6335.99560 9.52948e-18
6337.49913 9.59348e-18
6339.00266 1.01714e-17
6340.49603 1.06060e-17
6341.99957 1.02743e-17
6343.50310 1.03638e-17
6344.99647 1.03164e-17
6346.50000 1.01857e-17
6348.00353 9.99417e-18
6349.49691 9.35407e-18
6351.00044 9.11557e-18
6352.50397 1.01726e-17
6353.99735 9.94071e-18
6355.50088 1.05753e-17
6357.00441 1.07123e-17
6358.49778 9.05099e-18
6360.00131 9.66808e-18
6361.50485 9.68191e-18
6362.99822 9.69575e-18
6364.50175 9.70958e-18
6365.99512 9.70946e-18
6367.49866 9.64996e-18
6369.00219 9.43527e-18
6370.49556 9.34086e-18
6371.99909 9.77105e-18
6373.50263 9.42875e-18
6374.99600 9.18046e-18
6376.49953 9.71166e-18
6378.00306 9.52023e-18
6379.49644 9.18135e-18
6380.99997 9.38984e-18
6382.50350 9.23053e-18
6383.99687 8.88809e-18
6385.50040 8.94765e-18
6387.00394 9.32379e-18
6388.49731 9.32774e-18
6390.00084 9.33880e-18
6391.50437 9.65588e-18
6392.99775 9.46386e-18
6394.50128 9.19307e-18
6396.00481 9.65266e-18
6397.49818 9.65420e-18
6399.00172 8.89088e-18
6400.49509 9.12341e-18
6401.99862 9.81912e-18
6403.50215 9.81599e-18
6404.99553 9.49412e-18
6406.49906 9.53883e-18
6408.00259 1.00761e-17
6409.49596 9.78031e-18
6410.99949 9.16812e-18
6412.50303 9.67351e-18
6413.99640 9.12626e-18
6415.49993 9.47248e-18
6417.00346 1.01435e-17
6418.49684 1.00338e-17
6420.00037 9.66163e-18
6421.50390 1.01938e-17
6422.99727 9.99700e-18
6424.50080 9.35051e-18
6426.00434 9.85146e-18
6427.49771 9.92210e-18
6429.00124 9.96355e-18
6430.49462 1.02494e-17
6431.99815 9.85387e-18
6433.50168 9.80263e-18
6434.99505 9.39906e-18
6436.49858 9.76950e-18
6438.00212 1.02363e-17
6439.49549 9.70629e-18
6440.99902 9.82287e-18
6442.50255 1.03429e-17
6443.99593 1.04451e-17
6445.49946 1.02276e-17
6447.00299 1.02406e-17
6448.49636 1.00920e-17
6449.99989 9.30346e-18
6451.50343 9.61160e-18
6452.99680 1.01239e-17
6454.50033 1.04311e-17
6456.00386 1.02370e-17
6457.49724 9.31214e-18
6459.00077 9.70904e-18
6460.50430 9.96158e-18
6461.99767 9.57743e-18
6463.50121 1.03597e-17
6465.00474 1.06993e-17
6466.49811 1.04123e-17
6468.00164 1.05115e-17
6469.49502 1.06308e-17
6470.99855 1.01364e-17
6472.50208 9.69645e-18
6473.99545 9.78853e-18
6475.49899 9.49903e-18
6477.00252 9.82083e-18
6478.49589 1.01504e-17
6479.99942 1.00474e-17
6481.50295 9.77148e-18
6482.99633 9.82876e-18
6484.49986 1.00765e-17
6486.00339 9.83894e-18
6487.49676 9.74534e-18
6489.00030 9.62497e-18
6490.50383 9.95056e-18
6491.99720 1.04514e-17
6493.50073 9.80277e-18
6495.00427 1.03685e-17
6496.49764 1.03367e-17
6498.00117 1.03366e-17
6499.50470 9.80423e-18
6500.99808 1.00010e-17
6502.50161 1.03995e-17
6504.00514 9.76619e-18
6505.49851 9.82443e-18
6507.00204 1.05391e-17
6508.49542 1.01688e-17
6509.99895 1.04096e-17
6511.50248 1.03719e-17
6512.99585 1.03968e-17
6514.49939 9.80778e-18
6516.00292 9.56387e-18
6517.49629 9.89022e-18
6518.99982 1.00899e-17
6520.50335 1.04272e-17
6521.99673 1.06093e-17
6523.50026 1.03498e-17
6525.00379 9.58271e-18
6526.49717 9.48208e-18
6528.00070 1.05081e-17
6529.50423 1.06878e-17
6530.99760 1.00885e-17
6532.50113 9.95805e-18
6534.00467 9.82388e-18
6535.49804 9.67139e-18
6537.00157 9.55731e-18
6538.50510 9.79335e-18
6539.99848 1.02562e-17
6541.50201 1.03984e-17
6542.99538 1.02421e-17
6544.49891 9.78439e-18
6546.00245 1.01486e-17
6547.49582 1.05022e-17
6548.99935 1.05925e-17
6550.50288 1.08351e-17
6551.99626 1.04522e-17
6553.49979 1.00189e-17
6555.00332 9.45051e-18
6556.49669 9.06403e-18
6558.00022 1.01584e-17
6559.50376 1.05107e-17
6560.99713 1.04154e-17
6562.50066 1.06284e-17
6564.00419 9.74735e-18
6565.49757 9.74255e-18
6567.00110 1.03180e-17
6568.50463 1.01360e-17
6569.99800 9.95395e-18
6571.50153 9.95383e-18
6572.99491 9.60673e-18
6574.49844 1.00999e-17
6576.00197 9.49157e-18
6577.49535 1.00776e-17
6578.99888 1.00727e-17
6580.50241 9.96774e-18
6581.99578 1.04364e-17
6583.49931 1.02745e-17
6585.00285 9.32094e-18
6586.49622 1.02414e-17
6587.99975 1.08046e-17
6589.50328 1.07079e-17
6590.99666 1.07558e-17
6592.50019 1.08192e-17
6594.00372 1.03220e-17
6595.49709 9.70343e-18
6597.00063 9.65389e-18
6598.50416 9.67263e-18
6599.99753 9.92138e-18
6601.50106 1.01930e-17
6603.00459 1.00124e-17
6604.49797 9.84464e-18
6606.00150 9.86410e-18
6607.49487 9.43477e-18
6608.99840 9.98864e-18
6610.50194 9.89395e-18
6611.99531 9.15771e-18
6613.49884 9.08106e-18
6615.00237 9.62771e-18
6616.49575 9.89710e-18
6617.99928 9.75213e-18
6619.50281 9.26208e-18
6620.99618 9.15290e-18
6622.49972 9.53963e-18
6624.00325 9.62927e-18
6625.49662 9.76370e-18
6627.00015 9.90338e-18
6628.50368 9.91070e-18
6629.99706 9.04399e-18
6631.50059 8.89335e-18
6633.00412 9.52276e-18
6634.49749 9.39087e-18
6636.00103 9.20596e-18
6637.50456 9.20043e-18
6638.99793 9.19490e-18
6640.50146 9.18936e-18
6641.99484 9.18383e-18
6643.49837 9.17830e-18
6645.00190 9.17277e-18
6646.49527 9.16723e-18
6647.99881 9.16170e-18
6649.50234 9.15617e-18
6650.99571 9.15064e-18
6652.49924 9.14511e-18
6654.00277 9.13958e-18
6655.49615 9.13405e-18
6656.99968 9.12851e-18
6658.50321 9.12298e-18
6659.99658 9.11745e-18
6661.50012 9.11192e-18
6663.00365 9.10639e-18
6664.49702 9.10086e-18
6666.00055 9.09533e-18
6667.50408 9.08980e-18
6668.99746 9.08427e-18
6670.50099 9.07874e-18
6672.00452 9.07321e-18
6673.49790 9.06768e-18
6675.00143 9.06215e-18
6676.49480 9.05662e-18
6677.99833 9.05109e-18
6679.50186 9.04557e-18
6680.99524 9.04004e-18
6682.49877 9.03451e-18
6684.00230 9.02898e-18
6685.49567 9.02345e-18
6686.99921 9.01792e-18
6688.50274 9.01239e-18
6689.99611 9.00687e-18
6691.49964 9.00134e-18
6693.00317 8.99581e-18
6694.49655 8.99029e-18
6696.00008 8.98476e-18
6697.50361 8.97923e-18
6698.99698 8.97370e-18
6700.50052 9.99554e-18
6702.00405 9.66480e-18
6703.49742 1.00771e-17
6705.00095 1.00675e-17
6706.50449 9.43479e-18
6707.99786 9.02201e-18
6709.50139 9.17597e-18
6710.99476 9.18938e-18
6712.49830 9.99037e-18
6714.00183 1.01134e-17
6715.49520 9.35302e-18
6716.99873 8.95381e-18
6718.50227 9.33091e-18
6719.99564 9.16232e-18
6721.49917 9.55539e-18
6723.00270 9.54420e-18
6724.49608 9.01752e-18
6725.99961 9.25048e-18
6727.50314 1.01574e-17
6728.99651 1.07459e-17
6730.50004 1.00687e-17
6732.00358 9.40688e-18
6733.49695 9.04999e-18
6735.00048 8.77179e-18
6736.50401 8.98832e-18
6737.99739 9.44735e-18
6739.50092 9.67193e-18
6741.00445 9.30570e-18
6742.49782 9.17159e-18
6744.00136 9.01981e-18
6745.50489 9.04685e-18
6746.99826 9.47439e-18
6748.50179 9.76363e-18
6749.99517 9.64699e-18
6751.49870 9.11786e-18
6753.00223 9.08581e-18
6754.49560 9.42611e-18
6755.99913 8.79605e-18
6757.50267 8.57844e-18
6758.99604 8.82145e-18
6760.49957 8.96111e-18
6762.00310 9.18217e-18
6763.49648 8.95135e-18
6765.00001 9.61224e-18
6766.50354 1.01984e-17
6767.99691 9.68484e-18
6769.50045 9.03611e-18
6771.00398 8.72229e-18
6772.49735 9.26223e-18
6774.00088 9.19602e-18
6775.50441 8.86694e-18
6776.99779 8.96350e-18
6778.50132 8.98683e-18
6780.00485 8.37432e-18
6781.49822 8.04896e-18
6783.00176 9.13316e-18
6784.49513 9.22744e-18
6785.99866 8.96567e-18
6787.50219 9.32512e-18
6788.99557 9.15171e-18
6790.49910 9.15214e-18
6792.00263 9.33150e-18
6793.49600 9.45542e-18
6794.99953 8.80885e-18
6796.50307 8.41408e-18
6797.99644 9.12226e-18
6799.49997 9.18865e-18
6801.00350 8.64241e-18
6802.49688 8.20487e-18
6804.00041 8.89999e-18
6805.50394 9.17293e-18
6806.99731 8.40249e-18
6808.50085 8.19393e-18
6810.00438 9.36611e-18
6811.49775 9.61086e-18
6813.00128 8.70931e-18
6814.50482 8.06557e-18
6815.99819 8.50385e-18
6817.50172 9.03472e-18
6818.99509 8.55761e-18
6820.49863 8.43641e-18
6822.00216 9.42032e-18
6823.49553 9.64585e-18
6824.99906 8.92785e-18
6826.50259 8.54474e-18
6827.99597 8.86066e-18
6829.49950 9.11272e-18
6831.00303 9.11988e-18
6832.49640 8.81541e-18
6833.99994 8.52653e-18
6835.50347 8.24496e-18
6836.99684 8.54391e-18
6838.50037 9.22994e-18
6840.00390 8.98303e-18
6841.49728 8.43892e-18
6843.00081 8.50005e-18
6844.50434 8.19240e-18
6845.99772 8.25078e-18
6847.50125 8.19140e-18
6849.00478 9.16267e-18
6850.49815 9.20514e-18
6852.00168 8.78389e-18
6853.49506 8.31959e-18
6854.99859 9.01803e-18
6856.50212 8.61894e-18
6857.99549 8.78443e-18
6859.49903 8.72882e-18
6861.00256 8.31453e-18
6862.49593 9.23323e-18
6863.99946 9.54686e-18
6865.50300 9.35587e-18
6866.99637 8.29700e-18
6868.49990 7.91673e-18
6870.00343 8.63689e-18
6871.49680 8.96786e-18
6873.00034 9.89334e-18
6874.50387 8.44518e-18
6875.99724 9.07863e-18
6877.50077 8.51664e-18
6879.00431 8.62821e-18
6880.49768 8.77693e-18
6882.00121 8.84572e-18
6883.50474 8.85159e-18
6884.99812 8.74963e-18
6886.50165 8.70415e-18
6887.99502 8.66314e-18
6889.49855 8.53209e-18
6891.00209 8.74940e-18
6892.49546 9.12185e-18
6893.99899 8.78978e-18
6895.50252 8.76147e-18
6896.99590 9.22132e-18
6898.49943 8.76627e-18
6900.00296 7.87125e-18
6901.49633 7.42332e-18
6902.99986 7.87380e-18
6904.50340 8.63113e-18
6905.99677 8.60939e-18
6907.50030 8.59769e-18
6909.00383 8.57389e-18
6910.49721 8.45758e-18
6912.00074 8.23024e-18
6913.50427 8.25124e-18
6914.99764 8.35659e-18
6916.50118 7.59469e-18
6918.00471 9.28575e-18
6919.49808 9.23502e-18
6921.00161 9.26690e-18
6922.49498 9.78473e-18
6923.99852 9.54706e-18
6925.50205 8.69316e-18
6926.99542 7.22390e-18
6928.49895 7.53234e-18
6930.00249 8.59614e-18
6931.49586 8.48864e-18
6932.99939 8.31216e-18
6934.50292 9.00228e-18
6935.99630 7.81367e-18
6937.49983 7.58018e-18
6939.00336 7.99949e-18
6940.49673 8.34368e-18
6942.00027 8.67815e-18
6943.50380 8.09532e-18
6944.99717 8.03337e-18
6946.50070 8.25279e-18
6948.00423 8.02803e-18
6949.49761 8.09465e-18
6951.00114 8.28553e-18
6952.50467 8.13470e-18
6953.99804 7.51948e-18
6955.50158 7.69000e-18
6956.99495 8.30271e-18
6958.49848 8.67707e-18
6960.00201 7.97755e-18
6961.49539 8.27616e-18
6962.99892 8.60671e-18
6964.50245 8.40180e-18
6965.99582 8.32850e-18
6967.49935 8.08758e-18
6969.00289 8.11547e-18
6970.49626 8.31685e-18
6971.99979 8.08587e-18
6973.50332 7.35695e-18
6974.99670 8.05237e-18
6976.50023 8.91126e-18
6978.00376 8.47679e-18
6979.49713 8.53845e-18
6981.00067 8.55803e-18
6982.50420 8.68590e-18
6983.99757 9.26632e-18
6985.50110 8.68105e-18
6987.00464 8.05318e-18
6988.49801 8.81299e-18
6990.00154 8.05852e-18
6991.49491 7.55478e-18
6992.99845 8.33107e-18
6994.50198 8.34439e-18
6995.99535 8.23125e-18
6997.49888 8.74571e-18
6999.00241 8.63043e-18
7000.49579 8.32341e-18
7001.99932 8.13107e-18
7003.50285 8.77316e-18
7004.99622 8.52772e-18
7006.49976 7.79321e-18
7008.00329 8.06613e-18
7009.49666 7.75097e-18
7011.00019 7.86803e-18
7012.50373 7.82117e-18
7013.99710 7.32858e-18
7015.50063 7.56843e-18
7017.00416 7.69722e-18
7018.49753 7.43045e-18
7020.00107 7.30172e-18
7021.50460 7.28072e-18
7022.99797 7.35402e-18
7024.50150 7.83572e-18
7026.00504 8.31438e-18
7027.49841 8.54000e-18
7029.00194 8.34019e-18
7030.49531 7.92572e-18
7031.99885 8.23156e-18
7033.50238 8.15053e-18
7034.99575 7.56362e-18
7036.49928 7.28363e-18
7038.00282 7.26762e-18
7039.49619 7.72464e-18
7040.99972 7.81405e-18
7042.50325 7.93975e-18
7043.99662 8.16270e-18
7045.50016 8.16999e-18
7047.00369 8.06608e-18
7048.49706 7.88340e-18
7050.00059 7.80601e-18
7051.50413 8.17005e-18
7052.99750 8.55585e-18
7054.50103 8.10187e-18
7056.00456 8.29698e-18
7057.49794 8.30110e-18
7059.00147 7.94153e-18
7060.50500 8.27964e-18
7061.99837 8.32468e-18
7063.50191 7.77468e-18
7064.99528 7.62961e-18
7066.49881 7.90879e-18
7068.00234 8.26879e-18
7069.49572 7.86266e-18
7070.99925 8.28310e-18
7072.50278 7.69269e-18
7073.99615 8.00374e-18
7075.49968 8.72776e-18
7077.00322 7.98168e-18
7078.49659 8.10943e-18
7080.00012 8.49682e-18
7081.50365 8.07187e-18
7082.99703 8.15650e-18
7084.50056 7.87857e-18
7086.00409 7.11504e-18
7087.49746 7.36614e-18
7089.00100 8.44755e-18
7090.50453 8.44499e-18
7091.99790 8.53249e-18
7093.50143 8.57184e-18
7095.00496 8.22987e-18
7096.49834 7.74130e-18
7098.00187 7.57318e-18
7099.49524 8.24821e-18
7100.99877 8.79859e-18
7102.50231 8.74139e-18
7103.99568 8.53520e-18
7105.49921 8.06186e-18
7107.00274 8.05276e-18
7108.49612 8.10199e-18
7109.99965 7.97999e-18
7111.50318 8.31719e-18
7112.99655 8.14906e-18
7114.50008 8.04425e-18
7116.00362 8.07326e-18
7117.49699 7.78914e-18
7119.00052 8.03236e-18
7120.50405 7.70623e-18
7121.99743 7.73131e-18
7123.50096 8.42669e-18
7125.00449 8.78405e-18
7126.49786 8.63677e-18
7128.00140 8.84193e-18
7129.50493 8.02205e-18
7130.99830 8.29523e-18
7132.50183 8.66075e-18
7133.99521 8.61588e-18
7135.49874 8.11312e-18
7137.00227 8.64331e-18
7138.49564 7.89952e-18
7139.99917 8.01195e-18
7141.50271 8.12437e-18
7142.99608 8.23680e-18
7144.49961 8.23670e-18
7146.00314 8.70202e-18
7147.49652 8.36940e-18
7149.00005 8.27629e-18
7150.50358 7.78811e-18
7151.99695 7.80681e-18
7153.50049 8.20641e-18
7155.00402 8.23414e-18
7156.49739 8.22219e-18
7158.00092 8.63858e-18
7159.50446 8.37581e-18
7160.99783 8.48218e-18
7162.50136 8.31523e-18
7164.00489 9.27336e-18
7165.49827 9.22190e-18
7167.00180 8.64075e-18
7168.49517 8.39075e-18
7169.99870 8.36451e-18
7171.50223 8.45914e-18
7172.99561 8.32805e-18
7174.49914 8.23359e-18
7176.00267 8.24892e-18
7177.49604 8.66904e-18
7178.99958 8.86261e-18
7180.50311 8.60737e-18
7181.99648 8.24821e-18
7183.50001 7.91886e-18
7185.00355 8.34178e-18
7186.49692 8.55885e-18
7188.00045 8.05949e-18
7189.50398 8.31220e-18
7190.99736 8.95049e-18
7192.50089 8.66156e-18
7194.00442 8.33279e-18
7195.49779 8.77081e-18
7197.00132 8.76332e-18
7198.49470 8.45976e-18
7199.99823 8.21697e-18
7201.50176 7.97417e-18
7202.99513 7.97407e-18
7204.49867 8.10075e-18
7206.00220 7.91658e-18
7207.49557 8.91307e-18
7208.99910 8.81350e-18
7210.50263 9.12133e-18
7211.99601 8.06075e-18
7213.49954 8.18006e-18
7215.00307 8.85593e-18
7216.49645 8.35853e-18
7217.99998 8.52988e-18
7219.50351 8.26324e-18
7220.99688 7.88902e-18
7222.50041 8.19978e-18
7224.00395 8.31644e-18
7225.49732 8.13523e-18
7227.00085 8.20447e-18
7228.50438 8.73091e-18
7229.99776 8.90769e-18
7231.50129 8.95080e-18
7232.99466 8.16204e-18
7234.49819 8.10832e-18
7236.00173 7.81734e-18
7237.49510 8.33050e-18
7238.99863 8.77532e-18
7240.50216 8.40611e-18
7241.99554 7.93027e-18
7243.49907 7.81753e-18
7245.00260 8.22206e-18
7246.49597 8.64586e-18
7247.99950 8.49443e-18
7249.50304 8.04165e-18
7250.99641 7.72092e-18
7252.49994 8.56971e-18
7254.00347 8.68557e-18
7255.49685 8.61464e-18
7257.00038 8.54372e-18
7258.50391 8.47280e-18
7259.99728 8.40187e-18
7261.50082 8.33096e-18
7263.00435 8.26004e-18
7264.49772 8.18912e-18
7266.00125 8.18902e-18
7267.50478 7.97378e-18
7268.99816 8.39388e-18
7270.50169 7.71991e-18
7271.99506 7.89905e-18
7273.49859 7.94692e-18
7275.00213 7.49723e-18
7276.49550 7.69358e-18
7277.99903 8.22005e-18
7279.50256 8.20872e-18
7280.99594 8.20078e-18
7282.49947 8.09188e-18
7284.00300 7.79429e-18
7285.49637 8.40139e-18
7286.99990 8.87532e-18
7288.50344 8.19010e-18
7289.99681 7.62277e-18
7291.50034 8.30644e-18
7293.00387 8.08370e-18
7294.49725 7.77154e-18
7296.00078 7.86866e-18
7297.50431 8.11337e-18
7298.99768 8.48183e-18
7300.50122 7.92149e-18
7302.00475 7.72078e-18
7303.49812 7.99711e-18
7305.00165 8.18998e-18
7306.50518 8.24372e-18
7307.99856 7.23372e-18
7309.50209 7.30492e-18
7310.99546 7.98937e-18
7312.49899 8.43475e-18
7314.00253 8.51577e-18
7315.49590 7.65425e-18
7316.99943 7.47572e-18
7318.50296 7.38062e-18
7319.99634 7.71633e-18
7321.49987 7.62697e-18
7323.00340 7.33802e-18
7324.49677 7.52383e-18
7326.00031 7.65557e-18
7327.50384 8.04968e-18
7328.99721 7.86996e-18
7330.50074 7.23617e-18
7332.00428 6.72653e-18
7333.49765 6.90968e-18
7335.00118 7.45222e-18
7336.50471 7.36510e-18
7337.99809 7.30587e-18
7339.50162 7.43613e-18
7340.99499 7.87329e-18
7342.49852 8.60222e-18
7344.00205 7.74798e-18
7345.49543 6.96259e-18
7346.99896 7.24006e-18
7348.50249 7.63731e-18
7349.99586 8.36925e-18
7351.49940 8.00527e-18
7353.00293 7.47240e-18
7354.49630 7.03652e-18
7355.99983 6.85364e-18
7357.50337 7.02062e-18
7358.99674 7.51303e-18
7360.50027 8.06406e-18
7362.00380 7.83238e-18
7363.49718 7.90993e-18
7365.00071 7.99247e-18
7366.50424 8.17890e-18
7367.99761 7.18604e-18
7369.50114 7.09794e-18
7371.00468 7.42599e-18
7372.49805 7.63559e-18
7374.00158 7.36874e-18
7375.49495 7.53191e-18
7376.99849 7.20116e-18
7378.50202 6.85407e-18
7379.99539 6.94489e-18
7381.49892 7.30432e-18
7383.00245 7.19690e-18
7384.49583 6.98276e-18
7385.99936 7.37647e-18
7387.50289 7.58739e-18
7388.99627 7.45009e-18
7390.49980 7.02815e-18
7392.00333 6.89310e-18
7393.49670 7.06438e-18
7395.00023 6.89872e-18
7396.50377 7.03790e-18
7397.99714 7.27375e-18
7399.50067 6.71537e-18
7401.00420 6.11172e-18
7402.49758 6.44339e-18
7404.00111 7.12565e-18
7405.50464 6.76909e-18
7406.99801 6.59544e-18
7408.50155 7.19224e-18
7409.99492 7.30057e-18
7411.49845 7.44447e-18
7413.00198 7.69790e-18
7414.49536 7.06407e-18
7415.99889 6.82475e-18
7417.50242 6.84751e-18
7418.99579 6.43672e-18
7420.49932 6.93477e-18
7422.00286 7.44217e-18
7423.49623 8.04409e-18
7424.99976 7.33703e-18
7426.50329 6.81778e-18
7427.99667 6.89259e-18
7429.50020 6.55691e-18
7431.00373 6.48870e-18
7432.49710 7.60560e-18
7434.00063 7.93378e-18
7435.50417 6.95802e-18
7436.99754 7.26113e-18
7438.50107 6.05637e-18
7440.00460 5.80570e-18
7441.49798 6.79771e-18
7443.00151 6.44898e-18
7444.49488 6.37023e-18
7445.99841 6.17342e-18
7447.50195 6.67030e-18
7448.99532 6.88973e-18
7450.49885 6.09494e-18
7452.00238 5.86988e-18
7453.49576 5.90678e-18
7454.99929 6.26459e-18
7456.50282 6.53016e-18
7457.99619 6.24254e-18
7459.49973 5.90884e-18
7461.00326 6.25145e-18
7462.49663 5.97438e-18
7464.00016 6.16434e-18
7465.50369 6.47684e-18
7466.99707 6.19559e-18
7468.50060 6.23857e-18
7470.00413 6.40530e-18
7471.49750 6.41332e-18
7473.00104 6.26495e-18
7474.50457 6.55220e-18
7475.99794 6.16776e-18
7477.50147 5.38424e-18
7478.99485 5.08961e-18
7480.49838 6.12272e-18
7482.00191 6.32345e-18
7483.49528 6.08064e-18
7484.99882 5.63548e-18
7486.50235 5.31704e-18
7487.99572 5.27943e-18
7489.49925 5.38656e-18
7491.00278 5.42059e-18
7492.49616 5.05678e-18
7493.99969 5.54743e-18
7495.50322 6.58164e-18
7496.99659 5.61918e-18
7498.50013 5.85811e-18
7500.00366 5.66622e-18
7501.49703 5.01670e-18
7503.00056 5.28033e-18
7504.50410 5.99978e-18
7505.99747 5.78431e-18
7507.50100 5.11002e-18
7509.00453 4.74284e-18
7510.49791 4.98809e-18
7512.00144 5.06188e-18
7513.49481 4.58180e-18
7514.99834 4.80926e-18
7516.50187 5.09326e-18
7517.99525 4.91614e-18
7519.49878 4.81542e-18
7521.00231 5.40125e-18
7522.49568 5.95551e-18
7523.99922 5.11806e-18
7525.50275 5.22795e-18
7526.99612 5.12077e-18
7528.49965 4.71513e-18
7530.00318 4.61404e-18
7531.49656 4.86889e-18
7533.00009 5.48854e-18
7534.50362 5.40504e-18
7535.99700 4.99591e-18
7537.50053 5.02286e-18
7539.00406 4.78590e-18
7540.49743 4.88398e-18
7542.00320 4.88398e-18
7544.00005 4.89542e-18
7545.99690 4.94802e-18
7548.00394 4.89851e-18
7550.00078 4.71899e-18
7551.99763 4.60808e-18
7554.00467 4.55284e-18
7556.00152 4.56256e-18
7557.99836 4.68980e-18
7559.99521 5.00422e-18
7562.00225 5.03052e-18
7563.99910 4.78168e-18
7565.99594 4.64612e-18
7568.00298 4.64493e-18
7569.99983 4.66472e-18
7571.99668 4.57427e-18
7574.00371 4.41741e-18
7576.00056 4.42590e-18
7577.99741 4.67653e-18
7580.00444 4.70277e-18
7582.00129 4.45283e-18
7583.99814 4.24341e-18
7585.99499 4.26767e-18
7588.00202 4.44651e-18
7589.99887 4.54244e-18
7591.99572 4.62524e-18
7594.00276 4.69691e-18
7595.99960 4.68634e-18
7597.99645 4.73757e-18
7600.00349 4.97824e-18
7602.00034 5.28723e-18
7603.99718 5.25040e-18
7606.00422 4.84854e-18
7608.00107 4.69532e-18
7609.99792 4.63509e-18
7612.00495 4.63646e-18
7614.00180 4.71477e-18
7615.99865 4.82274e-18
7617.99550 4.88570e-18
7620.00253 4.80667e-18
7621.99938 5.03096e-18
7623.99623 5.76899e-18
7626.00326 6.02946e-18
7628.00011 5.64239e-18
7629.99696 5.08053e-18
7632.00400 4.81749e-18
7634.00084 4.65517e-18
7635.99769 4.50237e-18
7638.00473 4.32770e-18
7640.00158 4.32600e-18
7641.99842 4.57722e-18
7643.99527 4.83588e-18
7646.00231 4.87157e-18
7647.99916 4.79689e-18
7649.99600 4.73330e-18
7652.00304 4.53232e-18
7653.99989 4.47292e-18
7655.99674 4.53490e-18
7658.00377 4.63246e-18
7660.00062 4.75262e-18
7661.99747 4.90570e-18
7664.00450 4.91934e-18
7666.00135 4.82940e-18
7667.99820 4.71739e-18
7669.99505 4.54416e-18
7672.00208 4.38192e-18
7673.99893 4.23225e-18
7675.99578 4.11547e-18
7678.00282 4.09612e-18
7679.99966 4.18456e-18
7681.99651 4.33947e-18
7684.00355 4.62457e-18
7686.00040 4.84875e-18
7687.99724 5.02027e-18
7690.00428 5.13612e-18
7692.00113 5.12419e-18
7693.99798 4.96462e-18
7695.99482 4.91265e-18
7698.00186 4.92165e-18
7699.99871 4.91033e-18
7701.99556 4.90704e-18
7704.00259 4.87154e-18
7705.99944 4.72979e-18
7707.99629 4.48255e-18
7710.00332 4.55003e-18
7712.00017 5.01884e-18
7713.99702 5.14206e-18
7716.00406 4.93989e-18
7718.00090 4.73699e-18
7719.99775 4.65308e-18
7722.00479 4.60510e-18
7724.00164 4.67637e-18
7725.99848 4.96162e-18
7727.99533 5.03504e-18
7730.00237 4.95185e-18
7731.99922 4.86396e-18
7733.99606 4.75493e-18
7736.00310 4.66975e-18
7737.99995 4.72992e-18
7739.99680 4.95800e-18
7742.00383 5.11343e-18
7744.00068 5.36707e-18
7745.99753 5.42253e-18
7748.00456 5.17924e-18
7750.00141 4.81644e-18
7751.99826 4.62579e-18
7753.99511 4.45589e-18
7756.00214 4.51809e-18
7757.99899 4.96453e-18
7759.99584 5.19043e-18
7762.00288 5.20319e-18
7763.99972 5.09092e-18
7765.99657 4.81701e-18
7768.00361 4.31369e-18
7770.00046 4.21065e-18
7771.99730 4.40055e-18
7774.00434 4.55065e-18
7776.00119 4.77407e-18
7777.99804 4.93591e-18
7780.00507 4.95737e-18
7782.00192 4.86465e-18
7783.99877 4.79464e-18
7785.99562 4.63235e-18
7788.00265 4.57786e-18
7789.99950 4.62139e-18
7791.99635 4.70638e-18
7794.00338 4.85815e-18
7796.00023 5.05021e-18
7797.99708 5.05473e-18
7800.00412 4.77786e-18
7802.00096 4.75282e-18
7803.99781 4.90899e-18
7806.00485 5.00356e-18
7808.00170 4.99390e-18
7809.99854 4.90599e-18
7811.99539 4.85266e-18
7814.00243 4.72888e-18
7815.99928 4.85101e-18
7817.99612 5.28922e-18
7820.00316 5.53113e-18
7822.00001 5.55957e-18
7823.99686 5.46276e-18
7826.00389 5.19739e-18
7828.00074 4.67769e-18
7829.99759 4.50781e-18
7832.00462 4.54401e-18
7834.00147 4.65520e-18
7835.99832 4.97103e-18
7837.99517 5.22807e-18
7840.00220 5.15366e-18
7841.99905 4.84306e-18
7843.99590 4.63685e-18
7846.00294 4.34038e-18
7847.99978 4.22990e-18
7849.99663 4.21746e-18
7852.00367 4.36162e-18
7854.00052 4.74712e-18
7855.99736 5.25426e-18
7858.00440 5.42838e-18
7860.00125 5.41756e-18
7861.99810 5.27185e-18
7863.99494 4.85937e-18
7866.00198 4.51950e-18
7867.99883 4.35478e-18
7869.99568 4.28686e-18
7872.00271 4.27189e-18
7873.99956 4.41035e-18
7875.99641 4.44488e-18
7878.00344 4.42345e-18
7880.00029 4.44559e-18
7881.99714 4.50647e-18
7884.00418 4.56211e-18
7886.00102 4.60945e-18
7887.99787 4.60863e-18
7889.99472 4.66319e-18
7892.00176 4.80685e-18
7893.99860 4.87686e-18
7895.99545 4.93516e-18
7898.00249 4.93514e-18
7899.99934 4.77601e-18
7901.99618 4.45480e-18
7904.00322 4.29134e-18
7906.00007 4.18738e-18
7907.99692 4.21646e-18
7910.00395 4.41602e-18
7912.00080 4.61792e-18
7913.99765 4.75477e-18
7916.00468 4.86441e-18
7918.00153 4.81311e-18
7919.99838 4.52869e-18
7921.99523 4.45167e-18
7924.00226 4.44826e-18
7925.99911 4.57385e-18
7927.99596 4.92255e-18
7930.00300 5.37879e-18
7931.99984 5.42055e-18
7933.99669 5.07355e-18
7936.00373 4.87491e-18
7938.00058 4.54186e-18
7939.99742 4.39007e-18
7942.00446 4.55100e-18
7944.00131 4.83317e-18
7945.99816 4.91554e-18
7947.99500 4.92910e-18
7950.00204 4.90083e-18
7951.99889 4.75521e-18
7953.99574 4.71832e-18
7956.00277 4.91291e-18
7957.99962 5.08522e-18
7959.99647 4.92388e-18
7962.00350 4.49835e-18
7964.00035 4.40577e-18
7965.99720 4.51975e-18
7968.00424 4.57170e-18
7970.00108 4.60112e-18
7971.99793 4.64428e-18
7973.99478 4.68160e-18
7976.00182 4.72408e-18
7977.99866 4.69482e-18
7979.99551 4.54579e-18
7982.00255 4.48245e-18
7983.99940 4.43603e-18
7985.99624 4.47069e-18
7988.00328 4.71708e-18
7990.00013 5.08299e-18
7991.99698 5.08281e-18
7994.00401 4.76095e-18
7996.00086 4.55883e-18
7997.99771 4.25846e-18
8000.00474 4.10335e-18
8002.00159 4.23522e-18
8003.99844 4.49011e-18
8005.99529 4.64276e-18
8008.00232 4.86163e-18
8009.99917 4.91129e-18
8011.99602 4.82799e-18
8014.00306 4.68265e-18
8015.99990 4.46920e-18
8017.99675 4.22216e-18
8020.00379 4.02069e-18
8022.00064 3.74049e-18
8023.99748 3.83075e-18
8026.00452 4.44078e-18
8028.00137 4.71648e-18
8029.99822 4.52823e-18
8031.99506 4.29568e-18
8034.00210 4.38079e-18
8035.99895 4.63031e-18
8037.99580 4.66059e-18
8040.00283 4.50852e-18
8041.99968 4.45501e-18
8043.99653 4.49148e-18
8046.00356 4.54527e-18
8048.00041 4.56643e-18
8049.99726 4.58754e-18
8052.00430 4.66071e-18
8054.00114 4.87624e-18
8055.99799 4.90172e-18
8057.99484 4.73848e-18
8060.00188 4.60575e-18
8061.99872 4.56154e-18
8063.99557 4.54573e-18
8066.00261 4.53876e-18
8067.99946 4.58785e-18
8069.99630 4.60665e-18
8072.00334 4.58238e-18
8074.00019 4.61755e-18
8075.99704 4.83576e-18
8078.00407 5.06742e-18
8080.00092 4.94466e-18
8081.99777 4.47777e-18
8084.00480 4.33784e-18
8086.00165 4.40656e-18
8087.99850 4.43413e-18
8089.99535 4.42235e-18
8092.00238 4.40259e-18
8093.99923 4.33009e-18
8095.99608 4.20056e-18
8098.00312 4.19286e-18
8099.99996 4.28654e-18
8101.99681 4.37205e-18
8104.00385 4.48327e-18
8106.00070 4.58847e-18
8107.99754 4.64224e-18
8110.00458 4.66914e-18
8112.00143 4.72733e-18
8113.99828 4.89544e-18
8115.99512 4.87914e-18
8118.00216 4.65307e-18
8119.99901 4.44793e-18
8121.99586 4.40544e-18
8124.00289 4.41883e-18
8125.99974 4.26826e-18
8127.99659 3.85499e-18
8130.00362 3.80743e-18
8132.00047 4.05819e-18
8133.99732 4.27495e-18
8136.00436 4.39052e-18
8138.00120 4.48210e-18
8139.99805 4.60118e-18
8141.99490 4.74229e-18
8144.00194 4.76616e-18
8145.99878 4.63664e-18
8147.99563 4.59978e-18
8150.00267 4.70297e-18
8151.99952 4.84676e-18
8153.99636 4.89444e-18
8156.00340 4.90285e-18
8158.00025 4.88690e-18
8159.99710 4.84853e-18
8162.00413 4.72256e-18
8164.00098 4.36358e-18
8165.99783 4.10853e-18
8167.99468 4.35136e-18
8170.00171 4.96450e-18
8171.99856 5.14564e-18
8173.99541 5.08422e-18
8176.00244 5.07789e-18
8177.99929 5.08420e-18
8179.99614 5.05746e-18
8182.00318 4.96938e-18
8184.00002 4.81208e-18
8185.99687 4.60677e-18
8188.00391 4.17696e-18
8190.00076 4.09418e-18
8191.99760 4.32410e-18
8194.00464 4.57831e-18
8196.00149 4.82251e-18
8197.99834 5.05249e-18
8199.99518 4.94099e-18
8202.00222 4.37300e-18
8203.99907 4.25590e-18
8205.99592 4.43932e-18
8208.00295 4.55908e-18
8209.99980 4.60180e-18
8211.99665 4.59118e-18
8214.00368 4.47607e-18
8216.00053 4.22744e-18
8217.99738 4.21444e-18
8220.00442 4.39232e-18
8222.00126 4.56584e-18
8223.99811 4.76686e-18
8225.99496 4.94928e-18
8228.00200 5.07373e-18
8229.99884 5.18890e-18
8231.99569 5.13093e-18
8234.00273 4.90981e-18
8235.99958 4.74612e-18
8237.99642 4.55311e-18
8240.00346 4.42568e-18
8242.00031 4.44514e-18
8243.99716 4.57586e-18
8246.00419 4.58020e-18
8248.00104 4.54500e-18
8249.99789 4.59367e-18
8252.00492 4.65546e-18
8254.00177 4.73192e-18
8255.99862 4.93266e-18
8257.99547 5.10101e-18
8260.00250 4.99308e-18
8261.99935 4.77874e-18
8263.99620 4.60236e-18
8266.00324 4.45155e-18
8268.00008 4.37169e-18
8269.99693 4.37722e-18
8272.00397 4.44907e-18
8274.00082 4.56724e-18
8275.99766 4.78383e-18
8278.00470 4.89977e-18
8280.00155 5.03767e-18
8281.99840 5.01859e-18
8283.99524 4.75477e-18
8286.00228 4.43796e-18
8287.99913 4.29499e-18
8289.99598 4.22460e-18
8292.00301 4.25149e-18
8293.99986 4.45227e-18
8295.99671 4.56649e-18
8298.00374 4.57859e-18
8300.00059 4.60411e-18
8301.99744 4.74570e-18
8304.00448 4.96600e-18
8306.00132 5.03710e-18
8307.99817 4.99979e-18
8309.99502 4.97120e-18
8312.00206 4.90150e-18
8313.99890 4.85351e-18
8315.99575 4.89764e-18
8318.00279 4.98070e-18
8319.99964 4.85964e-18
8321.99648 4.42958e-18
8324.00352 4.33264e-18
8326.00037 4.46961e-18
8327.99722 4.62458e-18
8330.00425 4.76820e-18
8332.00110 4.90948e-18
8333.99795 4.95462e-18
8335.99480 4.96244e-18
8338.00183 4.84100e-18
8339.99868 4.43680e-18
8341.99553 4.27040e-18
8344.00256 4.42131e-18
8345.99941 4.74111e-18
8347.99626 5.14349e-18
8350.00330 5.81654e-18
8352.00014 5.90784e-18
8353.99699 5.46280e-18
8356.00403 5.16037e-18
8358.00088 4.97627e-18
8359.99772 4.81879e-18
8362.00476 4.64199e-18
8364.00161 4.45224e-18
8365.99846 4.40593e-18
8367.99530 4.46139e-18
8370.00234 4.58626e-18
8371.99919 4.86324e-18
8373.99604 5.10585e-18
8376.00307 5.20981e-18
8377.99992 5.23068e-18
8379.99677 5.11470e-18
8382.00380 4.73488e-18
8384.00065 4.57131e-18
8385.99750 4.49981e-18
8388.00454 4.52791e-18
8390.00138 4.68061e-18
8391.99823 4.92944e-18
8393.99508 5.17837e-18
8396.00212 5.57512e-18
8397.99896 5.71447e-18
8399.99581 5.71946e-18
8402.00285 5.58516e-18
8403.99970 5.22121e-18
8405.99654 4.78347e-18
8408.00358 4.60092e-18
8410.00043 4.58411e-18
8411.99728 4.53380e-18
8414.00431 4.51837e-18
8416.00116 4.51912e-18
8417.99801 4.49083e-18
8419.99486 4.52933e-18
8422.00189 4.78122e-18
8423.99874 5.24048e-18
8425.99559 5.46196e-18
8428.00262 5.67469e-18
8429.99947 5.61777e-18
8431.99632 5.14173e-18
8434.00336 4.68575e-18
8436.00020 4.58424e-18
8437.99705 4.67795e-18
8440.00409 4.76507e-18
8442.00094 5.04297e-18
8443.99778 5.09571e-18
8446.00482 4.88671e-18
8448.00167 4.74745e-18
8449.99852 4.88116e-18
8451.99536 5.13678e-18
8454.00240 5.11674e-18
8455.99925 4.80077e-18
8457.99610 4.74144e-18
8460.00313 4.80525e-18
8461.99998 4.91988e-18
8463.99683 5.15163e-18
8466.00386 5.38722e-18
8468.00071 5.27265e-18
8469.99756 4.76697e-18
8472.00460 4.61497e-18
8474.00144 4.64795e-18
8475.99829 4.69393e-18
8477.99514 4.78121e-18
8480.00218 4.86058e-18
8481.99902 4.81097e-18
8483.99587 4.64143e-18
8486.00291 4.60530e-18
8487.99976 4.64593e-18
8489.99660 4.68935e-18
8492.00364 4.71549e-18
8494.00049 4.78778e-18
8495.99734 4.99312e-18
8498.00437 5.31870e-18
8500.00122 5.40487e-18
8501.99807 5.31133e-18
8504.00510 5.23122e-18
8506.00195 5.09353e-18
8507.99880 4.98056e-18
8509.99565 4.97113e-18
8512.00268 5.01675e-18
8513.99953 4.91217e-18
8515.99638 4.57376e-18
8518.00342 4.51896e-18
8520.00026 4.72619e-18
8521.99711 4.88936e-18
8524.00415 4.91129e-18
8526.00100 4.86943e-18
8527.99784 4.81486e-18
8529.99469 4.74951e-18
8532.00173 4.59394e-18
8533.99858 4.18813e-18
8535.99542 4.05277e-18
8538.00246 4.37836e-18
8539.99931 4.84780e-18
8541.99616 4.99648e-18
8544.00319 4.95602e-18
8546.00004 5.01311e-18
8547.99689 5.09891e-18
8550.00392 5.15033e-18
8552.00077 5.17643e-18
8553.99762 5.16813e-18
8556.00466 5.10400e-18
8558.00150 4.98743e-18
8559.99835 4.87215e-18
8561.99520 4.61920e-18
8564.00224 4.60797e-18
8565.99908 4.93221e-18
8567.99593 5.22280e-18
8570.00297 5.23910e-18
8571.99982 5.10353e-18
8573.99666 4.87233e-18
8576.00370 4.31806e-18
8578.00055 4.11936e-18
8579.99740 4.18176e-18
8582.00443 4.33419e-18
8584.00128 4.55685e-18
8585.99813 4.84332e-18
8587.99498 4.97749e-18
8590.00201 4.98449e-18
8591.99886 5.04902e-18
8593.99571 5.16099e-18
8596.00274 5.19711e-18
8597.99959 5.11386e-18
8599.99644 4.96782e-18
8602.00348 4.84052e-18
8604.00032 4.67787e-18
8605.99717 4.57768e-18
8608.00421 4.51713e-18
8610.00106 4.47472e-18
8611.99790 4.44517e-18
8613.99475 4.44056e-18
8616.00179 4.48494e-18
8617.99864 4.59381e-18
8619.99548 4.59639e-18
8622.00252 4.48350e-18
8623.99937 4.45199e-18
8625.99622 4.49005e-18
8628.00325 4.56702e-18
8630.00010 4.66085e-18
8631.99695 4.77711e-18
8634.00398 4.99851e-18
8636.00083 5.45652e-18
8637.99768 5.64011e-18
8640.00472 5.66448e-18
8642.00156 5.50703e-18
8643.99841 5.03722e-18
8645.99526 4.36031e-18
8648.00230 4.18391e-18
8649.99914 4.35726e-18
8651.99599 4.54192e-18
8654.00303 5.00166e-18
8655.99988 5.27702e-18
8657.99672 5.21384e-18
8660.00376 4.95688e-18
8662.00061 4.65505e-18
8663.99746 4.03090e-18
8665.99430 3.95249e-18
8668.00134 4.35944e-18
8669.99819 4.67157e-18
8671.99504 4.87382e-18
8674.00207 4.98561e-18
8675.99892 4.88959e-18
8677.99577 4.58020e-18
8680.00280 4.35028e-18
8681.99965 4.00999e-18
8683.99650 3.85205e-18
8686.00354 3.86436e-18
8688.00038 4.01482e-18
8689.99723 4.34955e-18
8692.00427 4.90787e-18
8694.00112 5.08651e-18
8695.99796 4.98809e-18
8698.00500 4.91811e-18
8700.00185 4.80840e-18
8701.99870 4.69337e-18
8703.99554 4.61125e-18
8706.00258 4.54193e-18
8707.99943 4.42975e-18
8709.99628 4.19007e-18
8712.00331 4.16457e-18
8714.00016 4.32811e-18
8715.99701 4.52431e-18
8718.00404 4.75217e-18
8720.00089 4.98443e-18
8721.99774 4.95761e-18
8724.00478 4.65329e-18
8726.00162 4.48405e-18
8727.99847 4.25547e-18
8729.99532 4.16667e-18
8732.00236 4.31272e-18
8733.99920 4.54960e-18
8735.99605 4.63916e-18
8738.00309 4.69447e-18
8739.99994 4.62929e-18
8741.99678 4.36205e-18
8744.00382 4.21227e-18
8746.00067 4.14193e-18
8747.99752 4.19455e-18
8750.00455 4.51244e-18
8752.00140 5.11925e-18
8753.99825 5.38699e-18
8755.99510 5.46671e-18
8758.00213 5.52161e-18
8759.99898 5.48039e-18
8761.99583 5.45407e-18
8764.00286 5.59625e-18
8765.99971 5.85501e-18
8767.99656 5.68842e-18
8770.00360 5.06090e-18
8772.00044 4.68352e-18
8773.99729 4.37442e-18
8776.00433 4.19771e-18
8778.00118 4.21555e-18
8779.99802 4.38194e-18
8782.00506 4.55516e-18
8784.00191 4.95868e-18
8785.99876 5.01261e-18
8787.99560 4.70808e-18
8790.00264 4.52026e-18
8791.99949 4.61444e-18
8793.99634 4.80905e-18
8796.00337 4.84819e-18
8798.00022 4.85351e-18
8799.99707 4.72932e-18
8802.00410 4.40059e-18
8804.00095 4.16819e-18
8805.99780 4.02417e-18
8807.99465 3.97779e-18
8810.00168 4.13058e-18
8811.99853 4.52334e-18
8813.99538 4.66709e-18
8816.00242 4.58281e-18
8817.99926 4.67957e-18
8819.99611 4.97924e-18
8822.00315 5.33594e-18
8824.00000 5.69699e-18
8825.99684 6.13397e-18
8828.00388 6.08775e-18
8830.00073 5.52537e-18
8831.99758 5.14363e-18
8834.00461 4.74985e-18
8836.00146 4.49174e-18
8837.99831 4.50496e-18
8840.00534 4.71115e-18
8842.00219 4.86256e-18
8843.99904 5.23431e-18
8845.99589 5.20438e-18
8848.00292 4.74528e-18
8849.99977 4.35801e-18
8851.99662 4.21917e-18
8854.00366 4.18623e-18
8856.00050 4.12024e-18
8857.99735 3.95567e-18
8860.00439 4.12793e-18
8862.00124 4.73534e-18
8863.99808 5.13152e-18
8865.99493 5.16910e-18
8868.00197 5.07064e-18
8869.99882 5.07500e-18
8871.99566 5.06068e-18
8874.00270 5.15337e-18
8875.99955 5.42024e-18
8877.99640 5.54442e-18
8880.00343 5.55325e-18
8882.00028 5.43541e-18
8883.99713 5.09095e-18
8886.00416 4.48477e-18
8888.00101 4.27161e-18
8889.99786 4.20485e-18
8892.00490 4.38552e-18
8894.00174 5.07132e-18
8895.99859 5.61686e-18
8897.99544 5.51034e-18
8900.00248 4.99699e-18
8901.99932 4.63183e-18
8903.99617 4.08924e-18
8906.00321 3.80806e-18
8908.00006 3.67162e-18
8909.99690 3.71766e-18
8912.00394 4.06280e-18
8914.00079 4.58951e-18
8915.99764 4.75008e-18
8918.00467 4.74897e-18
8920.00152 4.56866e-18
8921.99837 3.96946e-18
8923.99522 3.62530e-18
8926.00225 3.74446e-18
8927.99910 4.07831e-18
8929.99595 4.31321e-18
8932.00298 4.65364e-18
8933.99983 4.74352e-18
8935.99668 4.54853e-18
8938.00372 4.48778e-18
8940.00056 4.64640e-18
8941.99741 4.83256e-18
8944.00445 4.83402e-18
8946.00130 4.71350e-18
8947.99814 4.64646e-18
8949.99499 4.62506e-18
8952.00203 4.50092e-18
8953.99888 4.24792e-18
8955.99572 3.96632e-18
8958.00276 3.69037e-18
8959.99961 3.37561e-18
8961.99646 3.43849e-18
8964.00349 4.01165e-18
8966.00034 4.22272e-18
8967.99719 4.14770e-18
8970.00422 4.03809e-18
8972.00107 3.99457e-18
8973.99792 3.96220e-18
8976.00496 4.00054e-18
8978.00180 4.08197e-18
8979.99865 4.22800e-18
8981.99550 4.47762e-18
8984.00254 4.71072e-18
8985.99938 4.93141e-18
8987.99623 5.11304e-18
8990.00327 5.08560e-18
8992.00012 4.84766e-18
8993.99696 4.65345e-18
8996.00400 4.29099e-18
8998.00085 4.14501e-18
8999.99770 4.31839e-18
9001.99454 4.63274e-18
9004.00158 4.87696e-18
9005.99843 5.17268e-18
9007.99528 5.33240e-18
9010.00231 5.34599e-18
9011.99916 5.42112e-18
9013.99601 5.63452e-18
9016.00304 5.78289e-18
9017.99989 5.62846e-18
9019.99674 5.22419e-18
9022.00378 5.08679e-18
9024.00062 5.14270e-18
9025.99747 5.08766e-18
9028.00451 4.96414e-18
9030.00136 4.79552e-18
9031.99820 4.53099e-18
9033.99505 4.19342e-18
9036.00209 4.20970e-18
9037.99894 4.70725e-18
9039.99578 4.78338e-18
9042.00282 4.56003e-18
9043.99967 4.29386e-18
9045.99652 4.01838e-18
9048.00355 3.73858e-18
9050.00040 3.72667e-18
9051.99725 4.00562e-18
9054.00428 4.14280e-18
9056.00113 4.21773e-18
9057.99798 4.36743e-18
9059.99483 4.68784e-18
9062.00186 5.03180e-18
9063.99871 5.11471e-18
9065.99556 5.00766e-18
9068.00260 4.89936e-18
9069.99944 4.59761e-18
9071.99629 4.49550e-18
9074.00333 4.71728e-18
9076.00018 4.97400e-18
9077.99702 4.92970e-18
9080.00406 4.69381e-18
9082.00091 4.51908e-18
9083.99776 4.23794e-18
9085.99460 4.11498e-18
9088.00164 4.22009e-18
9089.99849 4.30838e-18
9091.99534 4.14162e-18
9094.00237 3.80884e-18
9095.99922 3.85922e-18
9097.99607 4.25079e-18
9100.00310 4.51819e-18
9101.99995 4.87614e-18
9103.99680 5.03597e-18
9106.00384 4.77255e-18
9108.00068 4.24750e-18
9109.99753 3.98613e-18
9112.00457 3.73498e-18
9114.00142 3.71250e-18
9115.99826 3.98109e-18
9117.99511 4.20468e-18
9120.00215 4.28723e-18
9121.99900 4.31990e-18
9123.99584 4.38242e-18
9126.00288 4.45845e-18
9127.99973 4.49069e-18
9129.99658 4.45306e-18
9132.00361 4.47082e-18
9134.00046 4.62619e-18
9135.99731 4.76230e-18
9138.00434 4.63073e-18
9140.00119 4.26097e-18
9141.99804 4.07363e-18
9143.99489 3.83915e-18
9146.00192 3.84780e-18
9147.99877 4.21239e-18
9149.99562 4.62002e-18
9152.00266 4.79290e-18
9153.99950 4.86080e-18
9155.99635 4.80987e-18
9158.00339 4.54890e-18
9160.00024 4.38119e-18
9161.99708 4.24362e-18
9164.00412 4.15323e-18
9166.00097 4.12557e-18
9167.99782 4.15240e-18
9170.00485 4.25299e-18
9172.00170 4.47139e-18
9173.99855 4.64001e-18
9175.99540 4.87011e-18
9178.00243 4.98132e-18
9179.99928 4.87342e-18
9181.99613 4.64117e-18
9184.00316 4.49312e-18
9186.00001 4.29471e-18
9187.99686 4.25404e-18
9190.00390 4.43599e-18
9192.00074 4.48298e-18
9193.99759 4.27142e-18
9196.00463 3.99177e-18
9198.00148 3.92452e-18
9199.99832 3.99531e-18
9201.99517 4.02000e-18
9204.00221 4.03676e-18
9205.99906 4.10291e-18
9207.99590 4.22941e-18
9210.00294 4.38584e-18
9211.99979 4.57326e-18
9213.99664 4.84323e-18
9216.00367 4.78577e-18
9218.00052 4.24380e-18
9219.99737 4.12121e-18
9222.00440 4.48337e-18
9224.00125 4.85410e-18
9225.99810 4.88620e-18
9227.99495 4.74137e-18
9230.00198 4.80709e-18
9231.99883 5.03583e-18
9233.99568 5.15131e-18
9236.00272 5.24661e-18
9237.99956 5.24480e-18
9239.99641 5.05242e-18
9242.00345 4.75203e-18
9244.00030 4.68102e-18
9245.99714 4.85504e-18
9248.00418 4.80837e-18
9250.00103 4.63299e-18
9251.99788 4.44996e-18
9254.00491 4.25431e-18
9256.00176 4.07023e-18
9257.99861 4.02586e-18
9259.99546 4.16025e-18
9262.00249 4.09671e-18
9263.99934 3.84627e-18
9265.99619 3.71245e-18
9268.00322 3.74131e-18
9270.00007 3.82970e-18
9271.99692 3.88872e-18
9274.00396 3.97820e-18
9276.00080 3.95975e-18
9277.99765 3.75433e-18
9279.99450 3.73823e-18
9282.00154 3.95023e-18
9283.99838 4.20426e-18
9285.99523 4.34983e-18
9288.00227 4.44948e-18
9289.99912 4.62119e-18
9291.99596 5.01105e-18
9294.00300 5.02701e-18
9295.99985 4.40967e-18
9297.99670 4.09128e-18
9300.00373 4.74390e-18
9302.00058 5.95387e-18
9303.99743 6.40627e-18
9306.00446 6.94881e-18
9308.00131 6.31011e-18
9309.99816 3.80934e-18
9312.00520 2.16929e-18
9314.00204 2.53191e-18
9315.99889 3.80462e-18
9317.99574 4.17422e-18
9320.00278 4.11282e-18
9321.99962 4.42111e-18
9323.99647 4.91878e-18
9326.00351 5.43170e-18
9328.00036 6.10150e-18
9329.99720 6.66468e-18
9332.00424 6.54652e-18
9334.00109 5.78265e-18
9335.99794 5.39677e-18
9337.99478 4.97984e-18
9340.00182 4.79242e-18
9341.99867 5.01039e-18
9343.99552 5.21435e-18
9346.00255 4.90332e-18
9347.99940 4.20496e-18
9349.99625 3.99214e-18
9352.00328 4.06497e-18
9354.00013 4.15043e-18
9355.99698 4.28304e-18
9358.00402 4.48892e-18
9360.00086 4.81287e-18
9361.99771 5.23623e-18
9364.00475 5.45978e-18
9366.00160 5.56918e-18
9367.99844 5.62250e-18
9369.99529 5.46767e-18
9372.00233 5.46281e-18
9373.99918 5.87935e-18
9375.99602 6.47201e-18
9378.00306 6.49058e-18
9379.99991 6.13479e-18
9381.99676 5.66509e-18
9384.00379 4.61577e-18
9386.00064 4.06297e-18
9387.99749 4.45465e-18
9390.00452 5.16994e-18
9392.00137 5.16716e-18
9393.99822 4.69965e-18
9395.99507 4.46548e-18
9398.00210 4.15872e-18
9399.99895 4.04369e-18
9401.99580 4.26667e-18
9404.00284 4.51252e-18
9405.99968 4.36509e-18
9407.99653 3.92820e-18
9410.00357 3.71122e-18
9412.00042 3.54421e-18
9413.99726 3.44443e-18
9416.00430 3.38010e-18
9418.00115 3.41859e-18
9419.99800 3.66089e-18
9421.99484 4.08221e-18
9424.00188 4.25616e-18
9425.99873 4.23436e-18
9427.99558 4.31449e-18
9430.00261 4.36285e-18
9431.99946 4.55729e-18
9433.99631 4.97423e-18
9436.00334 5.57336e-18
9438.00019 6.44086e-18
9439.99704 8.34650e-18
9442.00408 8.61203e-18
9444.00092 7.48271e-18
9445.99777 6.30524e-18
9448.00481 5.25226e-18
9450.00166 4.28810e-18
9451.99850 4.12245e-18
9453.99535 4.95338e-18
9456.00239 4.91771e-18
9457.99924 4.39847e-18
9459.99608 3.92065e-18
9462.00312 3.47590e-18
9463.99997 3.08274e-18
9465.99682 2.86891e-18
9468.00385 2.70491e-18
9470.00070 3.01696e-18
9471.99755 3.99458e-18
9474.00458 4.65872e-18
9476.00143 5.14295e-18
9477.99828 5.36113e-18
9479.99513 5.04456e-18
9482.00216 4.21175e-18
9483.99901 3.95527e-18
9485.99586 4.10255e-18
9488.00290 4.05482e-18
9489.99974 3.83592e-18
9491.99659 3.64960e-18
9494.00363 3.56876e-18
9496.00048 3.55518e-18
9497.99732 3.83893e-18
9500.00436 4.50599e-18
9502.00121 5.00910e-18
9503.99806 5.66511e-18
9505.99490 6.00371e-18
9508.00194 5.79265e-18
9509.99879 5.23199e-18
9511.99564 4.68698e-18
9514.00267 3.75831e-18
9515.99952 3.39637e-18
9517.99637 3.40929e-18
9520.00340 3.53892e-18
9522.00025 3.78442e-18
9523.99710 4.12606e-18
9526.00414 4.46680e-18
9528.00098 5.01624e-18
9529.99783 4.96416e-18
9532.00487 4.19655e-18
9534.00172 3.79607e-18
9535.99856 3.96051e-18
9537.99541 4.15449e-18
9540.00245 3.72501e-18
9541.99930 2.70637e-18
9543.99614 2.99762e-18
9546.00318 4.63076e-18
9548.00003 5.59213e-18
9549.99688 6.18207e-18
9552.00391 6.39150e-18
9554.00076 6.05049e-18
9555.99761 5.22078e-18
9557.99446 4.47966e-18
9560.00149 3.02449e-18
9561.99834 2.81502e-18
9563.99519 3.91806e-18
9566.00222 5.04848e-18
9567.99907 5.77595e-18
9569.99592 6.32282e-18
9572.00296 6.11697e-18
9573.99980 4.91211e-18
9575.99665 4.23353e-18
9578.00369 3.63062e-18
9580.00054 3.13235e-18
9581.99738 2.66417e-18
9584.00442 2.34642e-18
9586.00127 2.54571e-18
9587.99812 3.38412e-18
9590.00515 3.76269e-18
9592.00200 3.97381e-18
9593.99885 4.14452e-18
9595.99570 4.26334e-18
9598.00273 4.34865e-18
9599.99958 4.45304e-18
9601.99643 4.55516e-18
9604.00346 4.65055e-18
9606.00031 4.86245e-18
9607.99716 4.82040e-18
9610.00420 4.52145e-18
9612.00104 4.06432e-18
9613.99789 3.37160e-18
9615.99474 2.36258e-18
9618.00178 2.50558e-18
9619.99862 4.17444e-18
9621.99547 4.61857e-18
9624.00251 3.99910e-18
9625.99936 3.22947e-18
9627.99620 2.62677e-18
9630.00324 2.03320e-18
9632.00009 2.23845e-18
9633.99694 3.47946e-18
9636.00397 4.04870e-18
9638.00082 4.44149e-18
9639.99767 4.53442e-18
9642.00470 4.10095e-18
9644.00155 3.41960e-18
9645.99840 3.38173e-18
9647.99525 3.88009e-18
9650.00228 4.06473e-18
9651.99913 4.26769e-18
9653.99598 4.27350e-18
9656.00302 3.98669e-18
9657.99986 3.56693e-18
9659.99671 3.23344e-18
9662.00375 2.78719e-18
9664.00060 2.78499e-18
9665.99744 3.29160e-18
9668.00448 3.59318e-18
9670.00133 3.69403e-18
9671.99818 3.69653e-18
9673.99502 3.62703e-18
9676.00206 3.45883e-18
9677.99891 3.31953e-18
9679.99576 2.99246e-18
9682.00279 3.02382e-18
9683.99964 3.61460e-18
9685.99649 4.07973e-18
9688.00352 3.88274e-18
9690.00037 3.28168e-18
9691.99722 3.03224e-18
9694.00426 2.88410e-18
9696.00110 2.80459e-18
9697.99795 2.83095e-18
9699.99480 2.88694e-18
9702.00184 2.92513e-18
9703.99868 2.98411e-18
9705.99553 3.16227e-18
9708.00257 3.52927e-18
9709.99942 3.72386e-18
9711.99626 3.84066e-18
9714.00330 3.91368e-18
9716.00015 3.91194e-18
9717.99700 3.88987e-18
9720.00403 4.00587e-18
9722.00088 4.29792e-18
9723.99773 4.32758e-18
9726.00476 4.25818e-18
9728.00161 4.00741e-18
9729.99846 3.42180e-18
9731.99531 2.81225e-18
9734.00234 2.59401e-18
9735.99919 2.58209e-18
9737.99604 2.82724e-18
9740.00308 3.51106e-18
9741.99992 4.02664e-18
9743.99677 4.50854e-18
9746.00381 4.82632e-18
9748.00066 4.80108e-18
9749.99750 4.49939e-18
9751.99435 4.22896e-18
9754.00139 3.75675e-18
9755.99824 3.49692e-18
9757.99508 3.31793e-18
9760.00212 3.33479e-18
9761.99897 3.74953e-18
9763.99582 4.41010e-18
9766.00285 4.42750e-18
9767.99970 3.88602e-18
9769.99655 3.56012e-18
9772.00358 3.02166e-18
9774.00043 2.85147e-18
9775.99728 3.43511e-18
9778.00432 4.31878e-18
9780.00116 4.42540e-18
9781.99801 3.88308e-18
9784.00505 3.78885e-18
9786.00190 4.02535e-18
9787.99874 3.97810e-18
9789.99559 3.44790e-18
9792.00263 2.79262e-18
9793.99948 2.45409e-18
9795.99632 2.13906e-18
9798.00336 2.45214e-18
9800.00021 3.83434e-18
9801.99706 4.38489e-18
9804.00409 3.93412e-18
9806.00094 3.21967e-18
9807.99779 2.76929e-18
9809.99464 2.27691e-18
9812.00167 2.38964e-18
9813.99852 3.41879e-18
9815.99537 3.71097e-18
9818.00240 3.35036e-18
9819.99925 2.83213e-18
9821.99610 2.29001e-18
9824.00314 1.65016e-18
9825.99998 1.81822e-18
9827.99683 3.04943e-18
9830.00387 3.47211e-18
9832.00072 3.41167e-18
9833.99756 3.22742e-18
9836.00460 2.93325e-18
9838.00145 2.57314e-18
9839.99830 2.65778e-18
9841.99514 3.21704e-18
9844.00218 3.47600e-18
9845.99903 3.65062e-18
9847.99588 3.78298e-18
9850.00291 3.90475e-18
9851.99976 3.96610e-18
9853.99661 3.85626e-18
9856.00364 3.51157e-18
9858.00049 3.43112e-18
9859.99734 3.54585e-18
9862.00438 3.60276e-18
9864.00122 3.65319e-18
9865.99807 3.61840e-18
9868.00511 3.33213e-18
9870.00196 2.80451e-18
9871.99880 2.48635e-18
9873.99565 2.07774e-18
9876.00269 2.05389e-18
9877.99954 2.60275e-18
9879.99638 3.13357e-18
9882.00342 3.17337e-18
9884.00027 2.93715e-18
9885.99712 2.81901e-18
9888.00415 2.54508e-18
9890.00100 2.56649e-18
9891.99785 3.10777e-18
9893.99470 3.35002e-18
9896.00173 2.71664e-18
9897.99858 1.63061e-18
9899.99543 1.41083e-18
9902.00246 1.82020e-18
9903.99931 2.06191e-18
9905.99616 2.47884e-18
9908.00320 2.75528e-18
9910.00004 2.75930e-18
9911.99689 2.64280e-18
9914.00393 2.65772e-18
9916.00078 2.65001e-18
9917.99762 2.85426e-18
9920.00466 3.46512e-18
9922.00151 3.71479e-18
9923.99836 3.43572e-18
9925.99520 2.96115e-18
9928.00224 2.61247e-18
9929.99909 2.10824e-18
9931.99594 2.30805e-18
9934.00297 3.32885e-18
9935.99982 3.98612e-18
9937.99667 4.44136e-18
9940.00370 4.61535e-18
9942.00055 4.17635e-18
9943.99740 3.12798e-18
9946.00444 3.22946e-18
9948.00128 4.60081e-18
9949.99813 5.00146e-18
9951.99498 4.53540e-18
9954.00202 3.98273e-18
9955.99886 3.74228e-18
9957.99571 3.59486e-18
9960.00275 3.41717e-18
9961.99960 2.93967e-18
9963.99644 3.19640e-18
9966.00348 4.77460e-18
9968.00033 5.41285e-18
9969.99718 3.87518e-18
9972.00421 1.36808e-18
9974.00106 5.90899e-19
9975.99791 8.90422e-19
9978.00494 9.59346e-19
9980.00179 1.25483e-18
9981.99864 1.59468e-18
9983.99549 1.97932e-18
9986.00252 2.39658e-18
9987.99937 2.77518e-18
9989.99622 3.17920e-18
9992.00326 3.43434e-18
9994.00010 3.60331e-18
9995.99695 3.66174e-18
9998.00399 3.53630e-18
10000.00084 3.38412e-18
