# wavelength flux
3720.00230 1.11004e-17
3721.49568 6.73323e-18
3722.99921 6.96966e-18
3724.50274 7.71470e-18
3725.99611 9.55719e-18
3727.49964 8.72391e-18
3729.00318 9.62377e-18
3730.49655 9.11853e-18
3732.00008 9.19126e-18
3733.50361 9.33580e-18
3734.99699 1.07424e-17
3736.50052 8.76044e-18
3738.00405 6.64695e-18
3739.49742 8.04676e-18
3741.00095 1.06381e-17
3742.50449 1.19660e-17
3743.99786 1.01180e-17
3745.50139 7.72587e-18
3746.99476 7.91395e-18
3748.49830 7.74212e-18
3750.00183 7.23823e-18
3751.49520 6.93913e-18
3752.99873 8.46267e-18
3754.50227 6.80100e-18
3755.99564 9.60457e-18
3757.49917 8.96969e-18
3759.00270 5.05681e-18
3760.49608 4.39864e-18
3761.99961 5.69886e-18
3763.50314 6.32052e-18
3764.99651 7.29203e-18
3766.50005 7.52258e-18
3768.00358 7.40542e-18
3769.49695 7.28826e-18
3771.00048 7.30258e-18
3772.50401 7.31690e-18
3773.99739 7.33122e-18
3775.50092 7.34554e-18
3777.00445 7.35985e-18
3778.49782 7.37417e-18
3780.00136 7.38849e-18
3781.50489 7.40280e-18
3782.99826 7.41712e-18
3784.50179 7.43143e-18
3785.99517 7.44575e-18
3787.49870 7.46006e-18
3789.00223 7.47438e-18
3790.49560 7.48869e-18
3791.99914 7.50301e-18
3793.50267 7.51732e-18
3794.99604 7.53163e-18
3796.49957 7.54595e-18
3798.00310 7.56026e-18
3799.49648 7.57457e-18
3801.00001 7.58888e-18
3802.50354 7.60320e-18
3803.99691 7.61750e-18
3805.50045 7.63181e-18
3807.00398 7.64613e-18
3808.49735 6.81475e-18
3810.00088 6.70066e-18
3811.50441 6.51039e-18
3812.99779 7.29233e-18
3814.50132 7.29213e-18
3816.00485 7.09515e-18
3817.49823 7.58731e-18
3819.00176 8.19190e-18
3820.49513 6.91663e-18
3821.99866 4.84654e-18
3823.50219 4.94713e-18
3824.99557 4.94699e-18
3826.49910 6.26642e-18
3828.00263 6.99298e-18
3829.49600 7.08959e-18
3830.99954 6.82728e-18
3832.50307 8.26152e-18
3833.99644 7.70538e-18
3835.49997 5.19885e-18
3837.00351 6.04552e-18
3838.49688 7.19215e-18
3840.00041 6.16938e-18
3841.50394 5.97210e-18
3842.99732 6.75621e-18
3844.50085 5.57235e-18
3846.00438 4.64899e-18
3847.49775 6.04459e-18
3849.00128 8.55448e-18
3850.50482 7.27861e-18
3851.99819 5.99195e-18
3853.50172 5.93733e-18
3854.99509 7.03145e-18
3856.49863 7.58385e-18
3858.00216 7.33639e-18
3859.49553 8.18418e-18
3860.99906 9.63026e-18
3862.50260 8.44701e-18
3863.99597 6.94260e-18
3865.49950 6.82051e-18
3867.00303 6.11061e-18
3868.49640 6.94916e-18
3869.99994 7.83907e-18
3871.50347 8.47291e-18
3872.99684 6.48338e-18
3874.50037 5.42306e-18
3876.00391 8.13662e-18
3877.49728 9.50893e-18
3879.00081 7.43748e-18
3880.50434 8.96223e-18
3881.99772 8.31322e-18
3883.50125 8.19148e-18
3885.00478 8.20076e-18
3886.49815 6.57637e-18
3888.00169 6.87641e-18
3889.49506 8.87807e-18
3890.99859 8.15473e-18
3892.50212 7.55391e-18
3893.99550 9.26775e-18
3895.49903 9.51842e-18
3897.00256 7.41183e-18
3898.49593 6.26884e-18
3899.99946 7.27898e-18
3901.50300 8.94418e-18
3902.99637 8.19709e-18
3904.49990 7.03845e-18
3906.00343 1.03303e-17
3907.49681 1.13563e-17
3909.00034 1.13248e-17
3910.50387 1.17211e-17
3911.99724 8.93874e-18
3913.50077 6.93332e-18
3915.00431 8.72033e-18
3916.49768 9.59058e-18
3918.00121 9.19304e-18
3919.50474 1.04120e-17
3920.99812 1.02754e-17
3922.50165 9.44124e-18
3923.99502 9.79071e-18
3925.49855 1.08582e-17
3927.00209 1.12952e-17
3928.49546 1.02482e-17
3929.99899 8.13793e-18
3931.50252 8.68736e-18
3932.99590 1.03068e-17
3934.49943 8.73449e-18
3936.00296 1.05777e-17
3937.49633 1.11421e-17
3938.99987 1.03028e-17
3940.50340 1.03786e-17
3941.99677 9.26178e-18
3943.50030 9.75298e-18
3945.00383 1.15779e-17
3946.49721 1.04631e-17
3948.00074 8.75071e-18
3949.50427 8.55451e-18
3950.99764 8.65312e-18
3952.50118 1.01776e-17
3954.00471 9.03289e-18
3955.49808 8.22239e-18
3957.00161 9.80048e-18
3958.49499 1.01831e-17
3959.99852 1.08829e-17
3961.50205 8.82125e-18
3962.99542 1.02846e-17
3964.49896 1.21983e-17
3966.00249 1.10391e-17
3967.49586 1.01249e-17
3968.99939 9.37546e-18
3970.50292 9.81041e-18
3971.99630 1.09945e-17
3973.49983 1.20832e-17
3975.00336 1.19798e-17
3976.49673 1.15845e-17
3978.00027 1.20623e-17
3979.50380 1.12427e-17
3980.99717 1.00353e-17
3982.50070 1.08927e-17
3984.00424 1.11307e-17
3985.49761 1.12204e-17
3987.00114 1.11238e-17
3988.50467 1.00403e-17
3989.99805 1.03722e-17
3991.50158 9.10916e-18
3992.99495 8.38731e-18
3994.49848 9.33980e-18
3996.00201 8.90751e-18
3997.49539 9.10874e-18
3998.99892 9.12774e-18
4000.50245 1.00722e-17
4001.99582 1.19116e-17
4003.49936 1.28164e-17
4005.00289 1.11244e-17
4006.49626 1.00493e-17
4007.99979 9.58853e-18
4009.50333 8.62781e-18
4010.99670 1.06274e-17
4012.50023 1.04167e-17
4014.00376 8.03832e-18
4015.49714 9.94919e-18
4017.00067 1.10316e-17
4018.50420 1.03794e-17
4019.99757 1.01183e-17
4021.50110 8.93259e-18
4023.00464 1.00817e-17
4024.49801 1.10553e-17
4026.00154 9.33723e-18
4027.49491 9.89450e-18
4028.99845 1.08041e-17
4030.50198 9.93176e-18
4031.99535 9.61810e-18
4033.49888 9.76134e-18
4035.00241 8.38724e-18
4036.49579 8.49160e-18
4037.99932 9.87665e-18
4039.50285 1.24465e-17
4040.99623 1.02331e-17
4042.49976 9.27934e-18
4044.00329 1.15956e-17
4045.49666 1.05609e-17
4047.00019 9.91017e-18
4048.50373 1.00718e-17
4049.99710 9.42498e-18
4051.50063 9.47478e-18
4053.00416 9.78759e-18
4054.49754 9.93139e-18
4056.00107 1.00726e-17
4057.50460 9.95670e-18
4058.99797 1.10598e-17
4060.50150 1.04184e-17
4062.00504 9.34834e-18
4063.49841 9.42299e-18
4065.00194 9.50906e-18
4066.49532 8.96944e-18
4067.99885 1.00530e-17
4069.50238 1.13362e-17
4070.99575 1.01866e-17
4072.49928 1.02055e-17
4074.00282 1.13542e-17
4075.49619 1.23734e-17
4076.99972 1.14948e-17
4078.50325 1.02597e-17
4079.99663 1.01749e-17
4081.50016 1.08422e-17
4083.00369 9.52281e-18
4084.49706 9.69524e-18
4086.00060 1.13232e-17
4087.50413 9.59802e-18
4088.99750 8.43315e-18
4090.50103 9.84685e-18
4092.00456 1.02938e-17
4093.49794 1.16974e-17
4095.00147 1.11154e-17
4096.50500 1.09961e-17
4097.99837 9.41296e-18
4099.50191 9.75382e-18
4100.99528 1.06791e-17
4102.49881 9.45696e-18
4104.00234 8.55441e-18
4105.49572 9.92215e-18
4106.99925 1.07902e-17
4108.50278 9.57215e-18
4109.99615 9.11832e-18
4111.49968 8.99469e-18
4113.00322 1.02531e-17
4114.49659 1.07870e-17
4116.00012 1.17164e-17
4117.50365 1.18270e-17
4118.99703 1.10474e-17
4120.50056 1.02322e-17
4122.00409 9.80593e-18
4123.49746 9.97708e-18
4125.00100 9.59746e-18
4126.50453 1.07466e-17
4127.99790 9.99295e-18
4129.50143 9.92687e-18
4130.99481 1.16022e-17
4132.49834 1.14825e-17
4134.00187 1.11047e-17
4135.49524 1.04069e-17
4136.99878 9.58133e-18
4138.50231 9.86345e-18
4139.99568 1.01076e-17
4141.49921 9.63693e-18
4143.00274 9.44902e-18
4144.49612 9.57417e-18
4145.99965 1.06285e-17
4147.50318 1.12808e-17
4148.99655 9.93640e-18
4150.50009 1.03884e-17
4152.00362 1.04549e-17
4153.49699 1.07370e-17
4155.00052 9.29289e-18
4156.50406 1.00417e-17
4157.99743 1.07338e-17
4159.50096 9.41663e-18
4161.00449 7.78176e-18
4162.49787 9.37902e-18
4164.00140 9.42041e-18
4165.50493 9.97988e-18
4166.99830 1.00731e-17
4168.50183 8.51950e-18
4169.99521 9.12695e-18
4171.49874 9.28995e-18
4173.00227 8.45008e-18
4174.49564 9.60447e-18
4175.99918 1.02014e-17
4177.50271 1.01560e-17
4178.99608 1.09306e-17
4180.49961 1.02579e-17
4182.00315 1.04497e-17
4183.49652 9.27443e-18
4185.00005 9.11640e-18
4186.50358 9.48388e-18
4187.99695 1.00020e-17
4189.50049 9.73860e-18
4191.00402 9.30438e-18
4192.49739 1.04882e-17
4194.00092 1.09195e-17
4195.50446 1.05012e-17
4196.99783 9.96695e-18
4198.50136 9.87402e-18
4200.00489 9.02105e-18
4201.49827 9.66819e-18
4203.00180 1.06653e-17
4204.49517 9.89201e-18
4205.99870 9.45222e-18
4207.50223 1.01554e-17
4208.99561 1.07011e-17
4210.49914 1.02661e-17
4212.00267 1.02825e-17
4213.49604 1.01522e-17
4214.99958 1.01664e-17
4216.50311 1.04299e-17
4217.99648 9.77618e-18
4219.50001 9.30427e-18
4221.00355 1.00877e-17
4222.49692 1.03434e-17
4224.00045 1.01388e-17
4225.50398 1.06525e-17
4226.99736 1.00324e-17
4228.50089 1.07337e-17
4230.00442 1.03547e-17
4231.49779 1.07113e-17
4233.00133 1.10125e-17
4234.50486 1.03289e-17
4235.99823 1.03256e-17
4237.50176 9.94282e-18
4238.99514 9.58561e-18
4240.49867 9.14132e-18
4242.00220 8.87570e-18
4243.49557 8.87829e-18
4244.99910 8.26119e-18
4246.50264 9.24813e-18
4247.99601 9.47293e-18
4249.49954 9.69304e-18
4251.00307 9.48786e-18
4252.49645 9.23393e-18
4253.99998 1.03881e-17
4255.50351 1.04509e-17
4256.99688 9.42341e-18
4258.50042 1.04766e-17
4260.00395 9.67002e-18
4261.49732 9.33865e-18
4263.00085 1.05473e-17
4264.50438 1.12399e-17
4265.99776 1.06306e-17
4267.50129 1.03242e-17
4269.00482 1.00019e-17
4270.49819 1.01148e-17
4272.00173 1.08448e-17
4273.49510 1.03840e-17
4274.99863 1.05940e-17
4276.50216 9.54884e-18
4277.99554 8.62997e-18
4279.49907 8.91801e-18
4281.00260 9.32538e-18
4282.49597 9.29339e-18
4283.99950 9.26801e-18
4285.50304 9.47779e-18
4286.99641 9.83183e-18
4288.49994 9.82429e-18
4290.00347 1.01444e-17
4291.49685 1.08513e-17
4293.00038 9.96529e-18
4294.50391 1.03457e-17
4295.99728 1.10889e-17
4297.50082 1.05520e-17
4299.00435 9.74552e-18
4300.49772 9.09314e-18
4302.00125 8.94244e-18
4303.50479 8.60386e-18
4304.99816 1.00748e-17
4306.50169 1.00026e-17
4307.99506 1.04303e-17
4309.49860 9.56661e-18
4311.00213 8.02191e-18
4312.49550 1.03570e-17
4313.99903 9.24011e-18
4315.50256 8.65146e-18
4316.99594 9.78251e-18
4318.49947 1.11793e-17
4320.00300 8.20197e-18
4321.49637 8.95521e-18
4322.99991 1.00073e-17
4324.50344 9.26546e-18
4325.99681 9.24556e-18
4327.50034 7.83396e-18
4329.00388 8.15021e-18
4330.49725 7.83584e-18
4332.00078 7.86209e-18
4333.50431 9.19255e-18
4334.99768 8.85692e-18
4336.50122 9.07852e-18
4338.00475 8.71197e-18
4339.49812 8.82169e-18
4341.00165 9.05898e-18
4342.49503 8.98216e-18
4343.99856 8.58376e-18
4345.50209 7.48599e-18
4346.99546 7.62305e-18
4348.49900 8.59311e-18
4350.00253 8.93582e-18
4351.49590 8.77769e-18
4352.99943 9.08827e-18
4354.50297 8.97339e-18
4355.99634 8.36211e-18
4357.49987 7.87252e-18
4359.00340 7.92703e-18
4360.49678 8.05995e-18
4362.00031 8.16386e-18
4363.50384 8.85101e-18
4364.99721 7.89119e-18
4366.50074 6.99760e-18
4368.00428 7.18449e-18
4369.49765 7.52400e-18
4371.00118 7.56953e-18
4372.50471 8.32037e-18
4373.99809 8.75525e-18
4375.50162 7.78667e-18
4376.99499 7.79522e-18
4378.49852 8.23460e-18
4380.00205 7.10959e-18
4381.49543 6.88244e-18
4382.99896 7.91740e-18
4384.50249 7.32923e-18
4385.99587 6.99961e-18
4387.49940 7.25220e-18
4389.00293 6.77528e-18
4390.49630 6.61030e-18
4391.99983 7.43049e-18
4393.50337 7.10869e-18
4394.99674 7.15603e-18
4396.50027 8.46205e-18
4398.00380 9.23130e-18
4399.49718 7.91479e-18
4401.00071 7.67055e-18
4402.50424 8.55760e-18
4403.99761 7.86994e-18
4405.50115 7.54540e-18
4407.00468 7.47021e-18
4408.49805 7.25446e-18
4410.00158 7.67902e-18
4411.50511 7.62350e-18
4412.99849 8.46825e-18
4414.50202 8.43923e-18
4415.99539 8.41020e-18
4417.49892 8.38117e-18
4419.00246 8.35214e-18
4420.49583 8.32312e-18
4421.99936 8.29409e-18
4423.50289 8.26507e-18
4424.99627 8.23605e-18
4426.49980 8.20703e-18
4428.00333 8.17801e-18
4429.49670 8.14900e-18
4431.00023 8.11998e-18
4432.50377 8.09097e-18
4433.99714 8.06196e-18
4435.50067 8.03295e-18
4437.00420 8.00394e-18
4438.49758 7.97493e-18
4440.00111 7.94592e-18
4441.50464 7.91692e-18
4442.99801 7.88791e-18
4444.50155 7.85891e-18
4446.00508 7.82990e-18
4447.49845 7.80090e-18
4449.00198 7.77191e-18
4450.49536 7.74291e-18
4451.99889 7.71392e-18
4453.50242 6.98442e-18
4454.99579 9.25027e-18
4456.49932 9.08259e-18
4458.00286 8.96678e-18
4459.49623 8.27965e-18
4460.99976 8.73066e-18
4462.50329 8.34332e-18
4463.99667 9.05385e-18
4465.50020 1.00600e-17
4467.00373 9.58228e-18
4468.49710 9.43240e-18
4470.00064 8.68287e-18
4471.50417 9.10705e-18
4472.99754 9.92739e-18
4474.50107 1.02050e-17
4476.00461 9.45854e-18
4477.49798 9.35956e-18
4479.00151 1.00699e-17
4480.50504 1.01336e-17
4481.99842 9.25477e-18
4483.50195 8.83537e-18
4484.99532 9.63807e-18
4486.49885 9.46622e-18
4488.00238 9.29694e-18
4489.49576 1.03981e-17
4490.99929 1.07056e-17
4492.50282 9.93576e-18
4493.99619 9.71977e-18
4495.49973 9.68025e-18
4497.00326 9.75711e-18
4498.49663 1.04049e-17
4500.00016 1.08200e-17
4501.50370 1.04898e-17
4502.99707 1.02603e-17
4504.50060 1.07374e-17
4506.00413 1.14458e-17
4507.49751 1.11740e-17
4509.00104 1.05771e-17
4510.50457 1.05634e-17
4511.99794 1.11120e-17
4513.50147 1.13721e-17
4514.99485 1.21093e-17
4516.49838 1.12098e-17
4518.00191 1.12178e-17
4519.49528 1.10358e-17
4520.99882 1.16807e-17
4522.50235 1.15820e-17
4523.99572 1.12437e-17
4525.49925 1.25190e-17
4527.00278 1.33170e-17
4528.49616 1.23711e-17
4529.99969 1.29350e-17
4531.50322 1.22348e-17
4532.99660 1.37328e-17
4534.50013 1.25108e-17
4536.00366 1.15553e-17
4537.49703 1.16920e-17
4539.00056 1.25762e-17
4540.50410 1.20198e-17
4541.99747 1.10529e-17
4543.50100 1.13554e-17
4545.00453 1.14147e-17
4546.49791 1.17263e-17
4548.00144 1.20852e-17
4549.49481 1.29840e-17
4550.99834 1.37578e-17
4552.50187 1.27822e-17
4553.99525 1.30252e-17
4555.49878 1.42331e-17
4557.00231 1.40039e-17
4558.49568 1.41237e-17
4559.99922 1.40268e-17
4561.50275 1.43057e-17
4562.99612 1.46794e-17
4564.49965 1.31167e-17
4566.00319 1.32818e-17
4567.49656 1.41055e-17
4569.00009 1.50252e-17
4570.50362 1.55646e-17
4571.99700 1.49906e-17
4573.50053 1.44929e-17
4575.00406 1.46708e-17
4576.49743 1.54986e-17
4578.00097 1.51727e-17
4579.50450 1.51839e-17
4580.99787 1.48440e-17
4582.50140 1.50839e-17
4583.99478 1.55884e-17
4585.49831 1.52875e-17
4587.00184 1.42670e-17
4588.49521 1.49098e-17
4589.99874 1.54548e-17
4591.50228 1.45335e-17
4592.99565 1.48218e-17
4594.49918 1.51061e-17
4596.00271 1.45439e-17
4597.49609 1.43073e-17
4598.99962 1.40510e-17
4600.50315 1.43655e-17
4601.99652 1.44144e-17
4603.50005 1.50067e-17
4605.00359 1.45723e-17
4606.49696 1.45162e-17
4608.00049 1.42614e-17
4609.50402 1.37150e-17
4610.99740 1.44914e-17
4612.50093 1.49569e-17
4614.00446 1.41286e-17
4615.49783 1.45443e-17
4617.00137 1.47526e-17
4618.50490 1.45829e-17
4619.99827 1.46057e-17
4621.50180 1.39860e-17
4622.99518 1.44343e-17
4624.49871 1.45003e-17
4626.00224 1.40276e-17
4627.49561 1.37426e-17
4628.99915 1.40336e-17
4630.50268 1.38147e-17
4631.99605 1.36819e-17
4633.49958 1.40779e-17
4635.00311 1.38139e-17
4636.49649 1.39794e-17
4638.00002 1.43121e-17
4639.50355 1.43285e-17
4640.99692 1.36272e-17
4642.50046 1.28026e-17
4644.00399 1.33842e-17
4645.49736 1.40194e-17
4647.00089 1.45777e-17
4648.50443 1.40173e-17
4649.99780 1.41254e-17
4651.50133 1.41281e-17
4653.00486 1.40855e-17
4654.49824 1.40552e-17
4656.00177 1.34738e-17
4657.49514 1.27377e-17
4658.99867 1.31227e-17
4660.50220 1.35895e-17
4661.99558 1.37526e-17
4663.49911 1.34303e-17
4665.00264 1.29817e-17
4666.49601 1.19719e-17
4667.99955 1.20709e-17
4669.50308 1.22662e-17
4670.99645 1.27947e-17
4672.49998 1.36902e-17
4674.00352 1.20603e-17
4675.49689 1.14643e-17
4677.00042 1.16017e-17
4678.50395 1.20489e-17
4679.99733 1.23921e-17
4681.50086 1.26728e-17
4683.00439 1.28990e-17
4684.49776 1.27875e-17
4686.00129 1.19841e-17
4687.50483 1.21246e-17
4688.99820 1.24723e-17
4690.50173 1.26997e-17
4691.99510 1.30249e-17
4693.49864 1.25484e-17
4695.00217 1.22922e-17
4696.49554 1.24296e-17
4697.99907 1.14283e-17
4699.50260 1.05981e-17
4700.99598 1.12959e-17
4702.49951 1.27135e-17
4704.00304 1.22906e-17
4705.49642 1.09680e-17
4706.99995 1.16430e-17
4708.50348 1.12107e-17
4709.99685 1.11301e-17
4711.50038 1.23666e-17
4713.00392 1.18592e-17
4714.49729 1.11245e-17
4716.00082 1.12106e-17
4717.50435 1.21160e-17
4718.99773 1.17454e-17
4720.50126 1.08452e-17
4722.00479 1.07145e-17
4723.49816 1.09043e-17
4725.00169 1.11619e-17
4726.49507 1.12938e-17
4727.99860 1.06960e-17
4729.50213 1.13390e-17
4730.99550 1.20707e-17
4732.49904 1.07263e-17
4734.00257 1.09365e-17
4735.49594 1.18987e-17
4736.99947 1.15873e-17
4738.50301 1.10691e-17
4739.99638 1.05974e-17
4741.49991 1.09529e-17
4743.00344 1.06539e-17
4744.49682 1.10033e-17
4746.00035 1.10955e-17
4747.50388 1.12561e-17
4748.99725 1.06257e-17
4750.50079 1.07401e-17
4752.00432 1.12365e-17
4753.49769 1.14337e-17
4755.00122 1.18575e-17
4756.50475 1.17545e-17
4757.99813 1.12075e-17
4759.50166 1.11289e-17
4760.99503 1.11117e-17
4762.49856 1.04850e-17
4764.00210 1.07200e-17
4765.49547 1.07555e-17
4766.99900 1.13622e-17
4768.50253 1.20806e-17
4769.99591 1.15358e-17
4771.49944 9.76032e-18
4773.00297 9.69220e-18
4774.49634 1.01583e-17
4775.99988 9.60858e-18
4777.50341 1.01286e-17
4778.99678 1.06778e-17
4780.50031 1.04888e-17
4782.00384 1.02908e-17
4783.49722 1.02774e-17
4785.00075 1.05711e-17
4786.50428 9.79214e-18
4787.99765 1.05507e-17
4789.50119 1.04140e-17
4791.00472 9.90688e-18
4792.49809 9.24315e-18
4794.00162 9.68625e-18
4795.49500 1.04178e-17
4796.99853 9.92745e-18
4798.50206 1.03480e-17
4799.99543 1.07330e-17
4801.49897 1.09249e-17
4803.00250 1.02814e-17
4804.49587 1.11688e-17
4805.99940 1.05373e-17
4807.50293 1.01106e-17
4808.99631 1.00931e-17
4810.49984 1.07353e-17
4812.00337 1.09343e-17
4813.49674 1.10938e-17
4815.00028 1.05051e-17
4816.50381 1.02801e-17
4817.99718 9.81412e-18
4819.50071 1.07462e-17
4821.00425 9.83414e-18
4822.49762 1.00280e-17
4824.00115 9.41200e-18
4825.50468 1.01993e-17
4826.99806 1.11860e-17
4828.50159 1.06879e-17
4829.99496 1.08713e-17
4831.49849 1.08843e-17
4833.00202 1.02015e-17
4834.49540 1.00157e-17
4835.99893 1.04257e-17
4837.50246 1.03766e-17
4838.99583 1.07013e-17
4840.49937 1.11712e-17
4842.00290 1.12658e-17
4843.49627 1.10183e-17
4844.99980 1.09223e-17
4846.50333 1.04572e-17
4847.99671 9.69140e-18
4849.50024 9.80172e-18
4851.00377 1.03880e-17
4852.49715 1.00012e-17
4854.00068 9.51545e-18
4855.50421 9.92866e-18
4856.99758 1.09065e-17
4858.50111 1.11352e-17
4860.00465 1.04664e-17
4861.49802 1.05943e-17
4863.00155 1.11928e-17
4864.49492 1.13138e-17
4865.99846 1.12291e-17
4867.50199 1.07631e-17
4868.99536 1.08902e-17
4870.49889 1.12051e-17
4872.00242 1.08290e-17
4873.49580 1.16367e-17
4874.99933 1.15253e-17
4876.50286 1.07419e-17
4877.99623 1.06190e-17
4879.49977 1.02800e-17
4881.00330 1.00003e-17
4882.49667 9.65255e-18
4884.00020 1.08236e-17
4885.50374 9.84992e-18
4886.99711 1.03016e-17
4888.50064 1.06784e-17
4890.00417 1.10806e-17
4891.49755 1.05647e-17
4893.00108 1.15954e-17
4894.50461 1.08867e-17
4895.99798 1.04941e-17
4897.50152 1.08729e-17
4899.00505 1.14835e-17
4900.49842 1.10903e-17
4902.00195 1.07576e-17
4903.49532 1.06062e-17
4904.99886 1.03896e-17
4906.50239 1.08185e-17
4907.99576 1.03961e-17
4909.49929 1.04639e-17
4911.00283 1.02478e-17
4912.49620 1.03205e-17
4913.99973 1.07539e-17
4915.50326 1.08125e-17
4916.99664 1.08169e-17
4918.50017 9.90717e-18
4920.00370 9.62838e-18
4921.49707 9.62696e-18
4923.00061 9.62555e-18
4924.50414 9.62413e-18
4925.99751 9.62271e-18
4927.50104 9.62129e-18
4929.00457 9.61987e-18
4930.49795 9.61846e-18
4932.00148 9.61704e-18
4933.50501 9.61562e-18
4934.99838 9.61421e-18
4936.50192 9.61279e-18
4937.99529 9.61137e-18
4939.49882 9.60996e-18
4941.00235 9.60854e-18
4942.49573 9.60712e-18
4943.99926 9.60571e-18
4945.50279 9.60429e-18
4946.99616 9.60288e-18
4948.49970 9.60146e-18
4950.00323 9.60005e-18
4951.49660 9.59863e-18
4953.00013 9.59722e-18
4954.50366 9.59580e-18
4955.99704 9.59439e-18
4957.50057 9.59297e-18
4959.00410 1.01888e-17
4960.49747 1.10656e-17
4962.00101 1.02726e-17
4963.50454 9.64027e-18
4964.99791 1.12297e-17
4966.50144 1.04614e-17
4968.00497 1.04454e-17
4969.49835 1.00327e-17
4971.00188 9.90904e-18
4972.49525 1.08337e-17
4973.99878 1.01724e-17
4975.50232 9.98413e-18
4976.99569 1.02022e-17
4978.49922 9.24070e-18
4980.00275 1.01221e-17
4981.49613 1.11004e-17
4982.99966 1.10142e-17
4984.50319 1.07044e-17
4985.99656 1.09019e-17
4987.50010 1.04097e-17
4989.00363 9.23721e-18
4990.49700 1.03580e-17
4992.00053 1.09193e-17
4993.50407 1.01625e-17
4994.99744 9.47391e-18
4996.50097 9.40658e-18
4998.00450 9.90836e-18
4999.49788 9.98397e-18
5001.00141 9.72298e-18
5002.50494 9.58581e-18
5003.99831 9.91884e-18
5005.50184 1.07879e-17
5006.99522 1.00091e-17
5008.49875 9.98844e-18
5010.00228 1.01621e-17
5011.49565 1.02498e-17
5012.99919 1.04934e-17
5014.50272 1.06603e-17
5015.99609 1.03558e-17
5017.49962 1.00482e-17
5019.00316 1.10018e-17
5020.49653 1.09778e-17
5022.00006 1.09538e-17
5023.50359 1.09297e-17
5024.99697 1.09057e-17
5026.50050 1.08817e-17
5028.00403 1.08576e-17
5029.49740 1.08336e-17
5031.00093 1.08096e-17
5032.50447 1.07856e-17
5033.99784 1.07616e-17
5035.50137 1.07375e-17
5037.00490 1.07135e-17
5038.49828 1.06895e-17
5040.00181 1.06655e-17
5041.49518 1.06415e-17
5042.99871 1.06175e-17
5044.50225 1.05935e-17
5045.99562 1.05694e-17
5047.49915 1.05454e-17
5049.00268 1.05214e-17
5050.49605 1.04974e-17
5051.99959 1.04734e-17
5053.50312 1.04494e-17
5054.99649 1.04254e-17
5056.50002 1.04014e-17
5058.00356 1.01427e-17
5059.49693 9.93604e-18
5061.00046 1.06056e-17
5062.50399 1.02824e-17
5063.99737 9.86502e-18
5065.50090 9.85538e-18
5067.00443 9.53217e-18
5068.49780 9.60102e-18
5070.00133 9.66988e-18
5071.49471 9.73874e-18
5072.99824 9.80760e-18
5074.50177 9.87646e-18
5075.99514 9.94531e-18
5077.49868 1.00142e-17
5079.00221 1.00830e-17
5080.49558 1.01518e-17
5081.99911 1.02207e-17
5083.50265 1.02895e-17
5084.99602 1.03583e-17
5086.49955 1.04271e-17
5088.00308 1.04960e-17
5089.49646 1.05648e-17
5090.99999 1.06336e-17
5092.50352 1.07024e-17
5093.99689 1.07712e-17
5095.50043 1.08400e-17
5097.00396 1.09088e-17
5098.49733 1.09776e-17
5100.00086 1.10464e-17
5101.50439 1.11152e-17
5102.99777 1.11840e-17
5104.50130 1.12528e-17
5105.99467 1.13215e-17
5107.49820 1.16228e-17
5109.00174 1.12233e-17
5110.49511 1.19721e-17
5111.99864 1.25327e-17
5113.50217 1.21420e-17
5114.99555 1.10683e-17
5116.49908 1.10000e-17
5118.00261 1.23084e-17
5119.49598 1.20953e-17
5120.99952 1.18345e-17
5122.50305 1.21076e-17
5123.99642 1.19069e-17
5125.49995 1.19774e-17
5127.00348 1.17775e-17
5128.49686 1.12912e-17
5130.00039 1.11922e-17
5131.50392 1.15878e-17
5132.99729 1.20955e-17
5134.50083 1.26476e-17
5136.00436 1.25183e-17
5137.49773 1.22282e-17
5139.00126 1.17855e-17
5140.50480 1.19044e-17
5141.99817 1.22653e-17
5143.50170 1.29558e-17
5144.99507 1.31474e-17
5146.49860 1.20533e-17
5148.00214 1.13870e-17
5149.49551 1.16253e-17
5150.99904 1.24867e-17
5152.50257 1.24654e-17
5153.99595 1.32613e-17
5155.49948 1.26415e-17
5157.00301 1.31908e-17
5158.49638 1.24098e-17
5159.99992 1.18152e-17
5161.50345 1.19739e-17
5162.99682 1.22794e-17
5164.50035 1.30486e-17
5166.00389 1.19027e-17
5167.49726 1.32753e-17
5169.00079 1.34598e-17
5170.50432 1.26093e-17
5171.99770 1.27970e-17
5173.50123 1.38351e-17
5175.00476 1.37051e-17
5176.49813 1.30292e-17
5178.00166 1.30989e-17
5179.49504 1.28402e-17
5180.99857 1.33965e-17
5182.50210 1.33869e-17
5183.99547 1.28952e-17
5185.49901 1.33012e-17
5187.00254 1.32310e-17
5188.49591 1.29388e-17
5189.99944 1.30705e-17
5191.50298 1.33080e-17
5192.99635 1.29329e-17
5194.49988 1.29386e-17
5196.00341 1.34573e-17
5197.49678 1.37125e-17
5199.00032 1.42719e-17
5200.50385 1.37566e-17
5201.99722 1.36125e-17
5203.50075 1.43600e-17
5205.00429 1.45148e-17
5206.49766 1.40292e-17
5208.00119 1.34537e-17
5209.50472 1.32591e-17
5210.99810 1.37487e-17
5212.50163 1.37587e-17
5214.00516 1.36166e-17
5215.49853 1.39284e-17
5217.00207 1.39890e-17
5218.49544 1.30439e-17
5219.99897 1.30676e-17
5221.50250 1.35499e-17
5222.99588 1.26948e-17
5224.49941 1.26309e-17
5226.00294 1.38405e-17
5227.49631 1.38124e-17
5228.99984 1.38051e-17
5230.50338 1.41191e-17
5231.99675 1.33680e-17
5233.50028 1.32353e-17
5235.00381 1.34565e-17
5236.49719 1.44678e-17
5238.00072 1.43397e-17
5239.50425 1.38727e-17
5240.99762 1.34635e-17
5242.50115 1.45312e-17
5244.00469 1.45546e-17
5245.49806 1.44370e-17
5247.00159 1.39142e-17
5248.49497 1.36825e-17
5249.99850 1.42437e-17
5251.50203 1.39322e-17
5252.99540 1.40955e-17
5254.49893 1.39776e-17
5256.00247 1.38476e-17
5257.49584 1.34204e-17
5258.99937 1.43591e-17
5260.50290 1.40484e-17
5261.99628 1.37756e-17
5263.49981 1.41210e-17
5265.00334 1.41513e-17
5266.49671 1.43309e-17
5268.00025 1.53367e-17
5269.50378 1.54748e-17
5270.99715 1.44771e-17
5272.50068 1.50317e-17
5274.00421 1.53183e-17
5275.49759 1.40327e-17
5277.00112 1.45218e-17
5278.50465 1.51313e-17
5279.99802 1.39223e-17
5281.50156 1.37007e-17
5282.99493 1.49196e-17
5284.49846 1.49386e-17
5286.00199 1.46490e-17
5287.49537 1.50418e-17
5288.99890 1.51106e-17
5290.50243 1.48267e-17
5291.99580 1.43088e-17
5293.49933 1.45086e-17
5295.00287 1.43057e-17
5296.49624 1.43888e-17
5297.99977 1.48318e-17
5299.50330 1.41632e-17
5300.99668 1.47263e-17
5302.50021 1.50407e-17
5304.00374 1.47730e-17
5305.49711 1.39189e-17
5307.00065 1.40049e-17
5308.50418 1.43177e-17
5309.99755 1.39249e-17
5311.50108 1.45671e-17
5313.00462 1.47341e-17
5314.49799 1.50096e-17
5316.00152 1.48802e-17
5317.49489 1.44169e-17
5318.99842 1.40150e-17
5320.50196 1.42254e-17
5321.99533 1.38445e-17
5323.49886 1.36528e-17
5325.00239 1.47299e-17
5326.49577 1.46759e-17
5327.99930 1.41128e-17
5329.50283 1.42155e-17
5330.99620 1.36779e-17
5332.49974 1.36541e-17
5334.00327 1.40700e-17
5335.49664 1.39290e-17
5337.00017 1.38547e-17
5338.50371 1.36774e-17
5339.99708 1.36498e-17
5341.50061 1.40526e-17
5343.00414 1.45825e-17
5344.49752 1.43136e-17
5346.00105 1.44660e-17
5347.50458 1.42555e-17
5348.99795 1.36623e-17
5350.50148 1.37659e-17
5351.99486 1.35276e-17
5353.49839 1.30983e-17
5355.00192 1.29800e-17
5356.49529 1.36376e-17
5357.99883 1.41642e-17
5359.50236 1.45360e-17
5360.99573 1.45550e-17
5362.49926 1.37915e-17
5364.00280 1.32577e-17
5365.49617 1.38135e-17
5366.99970 1.43387e-17
5368.50323 1.45900e-17
5369.99661 1.43729e-17
5371.50014 1.43368e-17
5373.00367 1.43075e-17
5374.49704 1.44194e-17
5376.00057 1.37826e-17
5377.50411 1.36758e-17
5378.99748 1.38321e-17
5380.50101 1.37353e-17
5382.00454 1.44453e-17
5383.49792 1.34043e-17
5385.00145 1.31702e-17
5386.49482 1.37924e-17
5387.99835 1.29747e-17
5389.50188 1.41954e-17
5390.99526 1.44675e-17
5392.49879 1.33319e-17
5394.00232 1.35699e-17
5395.49570 1.42891e-17
5396.99923 1.50057e-17
5398.50276 1.41025e-17
5399.99613 1.35516e-17
5401.49966 1.41567e-17
5403.00320 1.45522e-17
5404.49657 1.46879e-17
5406.00010 1.42985e-17
5407.50363 1.41224e-17
5408.99701 1.42614e-17
5410.50054 1.37088e-17
5412.00407 1.38777e-17
5413.49744 1.44284e-17
5415.00097 1.36511e-17
5416.50451 1.37248e-17
5417.99788 1.42189e-17
5419.50141 1.36886e-17
5421.00494 1.35983e-17
5422.49832 1.42391e-17
5424.00185 1.47965e-17
5425.49522 1.41800e-17
5426.99875 1.31392e-17
5428.50229 1.33014e-17
5429.99566 1.42250e-17
5431.49919 1.42447e-17
5433.00272 1.37387e-17
5434.49610 1.36547e-17
5435.99963 1.39130e-17
5437.50316 1.44180e-17
5438.99653 1.40292e-17
5440.50007 1.40411e-17
5442.00360 1.38611e-17
5443.49697 1.28986e-17
5445.00050 1.31530e-17
5446.50403 1.36186e-17
5447.99741 1.33102e-17
5449.50094 1.33108e-17
5451.00447 1.33771e-17
5452.49784 1.33926e-17
5454.00138 1.34317e-17
5455.50491 1.32741e-17
5456.99828 1.37267e-17
5458.50181 1.36670e-17
5459.99519 1.36415e-17
5461.49872 1.44382e-17
5463.00225 1.42192e-17
5464.49562 1.32646e-17
5465.99915 1.27330e-17
5467.50269 1.27997e-17
5468.99606 1.34680e-17
5470.49959 1.38977e-17
5472.00312 1.37319e-17
5473.49650 1.38304e-17
5475.00003 1.36955e-17
5476.50356 1.29377e-17
5477.99693 1.28484e-17
5479.50047 1.33330e-17
5481.00400 1.33274e-17
5482.49737 1.27143e-17
5484.00090 1.31436e-17
5485.50443 1.32438e-17
5486.99781 1.31126e-17
5488.50134 1.37302e-17
5490.00487 1.38481e-17
5491.49825 1.31722e-17
5493.00178 1.26218e-17
5494.49515 1.28280e-17
5495.99868 1.36535e-17
5497.50221 1.38648e-17
5498.99559 1.34357e-17
5500.49912 1.33795e-17
5502.00265 1.31431e-17
5503.49602 1.38815e-17
5504.99956 1.33998e-17
5506.50309 1.25437e-17
5507.99646 1.24095e-17
5509.49999 1.26249e-17
5511.00353 1.31288e-17
5512.49690 1.19743e-17
5514.00043 1.14294e-17
5515.50396 1.26335e-17
5516.99734 1.34601e-17
5518.50087 1.23785e-17
5520.00440 1.24833e-17
5521.49777 1.20463e-17
5523.00130 1.23282e-17
5524.50484 1.23077e-17
5525.99821 1.19630e-17
5527.50174 1.26112e-17
5528.99511 1.28914e-17
5530.49865 1.27226e-17
5532.00218 1.19753e-17
5533.49555 1.22521e-17
5534.99908 1.24288e-17
5536.50262 1.19183e-17
5537.99599 1.19501e-17
5539.49952 1.28927e-17
5541.00305 1.28375e-17
5542.49643 1.21091e-17
5543.99996 1.20769e-17
5545.50349 1.22561e-17
5546.99686 1.23100e-17
5548.50039 1.30053e-17
5550.00393 1.25656e-17
5551.49730 1.24945e-17
5553.00083 1.34751e-17
5554.50436 1.31685e-17
5555.99774 1.18693e-17
5557.50127 1.18981e-17
5559.00480 1.31079e-17
5560.49817 1.33701e-17
5562.00170 1.27225e-17
5563.49508 1.24082e-17
5564.99861 1.28871e-17
5566.50214 1.24400e-17
5567.99552 1.25232e-17
5569.49905 1.29957e-17
5571.00258 1.24763e-17
5572.49595 1.29633e-17
5573.99948 1.29347e-17
5575.50302 1.29061e-17
5576.99639 1.28775e-17
5578.49992 1.28489e-17
5580.00345 1.28203e-17
5581.49683 1.28200e-17
5583.00036 1.29069e-17
5584.50389 1.28810e-17
5585.99726 1.25883e-17
5587.50079 1.31674e-17
5589.00433 1.25411e-17
5590.49770 1.25233e-17
5592.00123 1.26748e-17
5593.50476 1.27062e-17
5594.99814 1.31478e-17
5596.50167 1.37515e-17
5597.99504 1.27461e-17
5599.49857 1.26214e-17
5601.00211 1.24047e-17
5602.49548 1.24534e-17
5603.99901 1.27831e-17
5605.50254 1.31578e-17
5606.99592 1.31029e-17
5608.49945 1.20517e-17
5610.00298 1.30878e-17
5611.49635 1.32958e-17
5612.99989 1.24355e-17
5614.50342 1.29051e-17
5615.99679 1.24238e-17
5617.50032 1.33939e-17
5619.00385 1.39952e-17
5620.49723 1.28014e-17
5622.00076 1.23062e-17
5623.50429 1.27696e-17
5624.99766 1.26095e-17
5626.50120 1.28837e-17
5628.00473 1.34897e-17
5629.49810 1.30060e-17
5631.00163 1.29225e-17
5632.49501 1.31524e-17
5633.99854 1.26468e-17
5635.50207 1.28033e-17
5636.99544 1.30134e-17
5638.49898 1.33262e-17
5640.00251 1.36708e-17
5641.49588 1.28943e-17
5642.99941 1.25882e-17
5644.50294 1.29865e-17
5645.99632 1.30928e-17
5647.49985 1.24801e-17
5649.00338 1.18573e-17
5650.49675 1.17317e-17
5652.00029 1.21566e-17
5653.50382 1.20936e-17
5654.99719 1.26069e-17
5656.50072 1.28111e-17
5658.00425 1.20158e-17
5659.49763 1.17084e-17
5661.00116 1.18105e-17
5662.50469 1.24722e-17
5663.99807 1.21706e-17
5665.50160 1.24520e-17
5666.99497 1.25036e-17
5668.49850 1.20755e-17
5670.00203 1.16435e-17
5671.49541 1.18293e-17
5672.99894 1.22845e-17
5674.50247 1.18594e-17
5675.99584 1.11552e-17
5677.49938 1.16508e-17
5679.00291 1.22240e-17
5680.49628 1.16059e-17
5681.99981 1.18774e-17
5683.50335 1.23765e-17
5684.99672 1.27325e-17
5686.50025 1.27998e-17
5688.00378 1.25178e-17
5689.49716 1.19994e-17
5691.00069 1.19999e-17
5692.50422 1.22252e-17
5693.99759 1.27278e-17
5695.50112 1.25878e-17
5697.00466 1.11723e-17
5698.49803 1.12903e-17
5700.00156 1.18372e-17
5701.50509 1.15362e-17
5702.99847 1.16695e-17
5704.50200 1.14749e-17
5705.99537 1.12538e-17
5707.49890 1.19291e-17
5709.00243 1.25021e-17
5710.49581 1.20258e-17
5711.99934 1.14310e-17
5713.50287 1.17867e-17
5714.99625 1.26883e-17
5716.49978 1.21873e-17
5718.00331 1.19970e-17
5719.49668 1.18977e-17
5721.00021 1.12310e-17
5722.50375 1.12619e-17
5723.99712 1.14717e-17
5725.50065 1.14330e-17
5727.00418 1.19894e-17
5728.49756 1.24107e-17
5730.00109 1.21379e-17
5731.50462 1.19524e-17
5732.99799 1.20193e-17
5734.50153 1.21993e-17
5736.00506 1.25848e-17
5737.49843 1.20966e-17
5739.00196 1.14961e-17
5740.49533 1.18211e-17
5741.99887 1.24400e-17
5743.50240 1.13949e-17
5744.99577 1.16221e-17
5746.49930 1.21798e-17
5748.00284 1.19564e-17
5749.49621 1.18488e-17
5750.99974 1.21611e-17
5752.50327 1.24988e-17
5753.99665 1.19737e-17
5755.50018 1.11260e-17
5757.00371 1.20019e-17
5758.49708 1.18620e-17
5760.00062 1.19749e-17
5761.50415 1.25228e-17
5762.99752 1.31009e-17
5764.50105 1.27097e-17
5766.00458 1.25244e-17
5767.49796 1.19412e-17
5769.00149 1.18773e-17
5770.50502 1.24560e-17
5771.99839 1.24345e-17
5773.50193 1.20347e-17
5774.99530 1.20811e-17
5776.49883 1.27325e-17
5778.00236 1.24796e-17
5779.49574 1.22855e-17
5780.99927 1.25194e-17
5782.50280 1.20181e-17
5783.99617 1.23890e-17
5785.49971 1.25551e-17
5787.00324 1.23883e-17
5788.49661 1.22350e-17
5790.00014 1.22395e-17
5791.50367 1.30529e-17
5792.99705 1.28684e-17
5794.50058 1.20253e-17
5796.00411 1.23736e-17
5797.49748 1.26419e-17
5799.00102 1.19958e-17
5800.50455 1.21953e-17
5801.99792 1.34134e-17
5803.50145 1.35069e-17
5805.00498 1.21198e-17
5806.49836 1.16934e-17
5808.00189 1.22521e-17
5809.49526 1.25746e-17
5810.99880 1.24410e-17
5812.50233 1.19201e-17
5813.99570 1.28242e-17
5815.49923 1.20063e-17
5817.00276 1.19962e-17
5818.49614 1.20612e-17
5819.99967 1.29519e-17
5821.50320 1.30796e-17
5822.99657 1.30550e-17
5824.50011 1.26196e-17
5826.00364 1.20006e-17
5827.49701 1.22133e-17
5829.00054 1.30744e-17
5830.50407 1.29311e-17
5831.99745 1.21114e-17
5833.50098 1.22320e-17
5835.00451 1.28250e-17
5836.49788 1.29458e-17
5838.00142 1.25256e-17
5839.49479 1.22511e-17
5840.99832 1.20865e-17
5842.50185 1.22240e-17
5843.99523 1.23539e-17
5845.49876 1.26029e-17
5847.00229 1.26911e-17
5848.49566 1.25692e-17
5849.99920 1.20781e-17
5851.50273 1.18694e-17
5852.99610 1.23097e-17
5854.49963 1.27403e-17
5856.00317 1.29625e-17
5857.49654 1.20729e-17
5859.00007 1.25175e-17
5860.50360 1.22799e-17
5861.99698 1.16302e-17
5863.50051 1.25587e-17
5865.00404 1.30493e-17
5866.49741 1.21231e-17
5868.00094 1.19966e-17
5869.50448 1.22876e-17
5870.99785 1.23489e-17
5872.50138 1.26456e-17
5873.99475 1.18700e-17
5875.49829 1.24025e-17
5877.00182 1.24692e-17
5878.49519 1.24053e-17
5879.99872 1.19567e-17
5881.50226 1.21553e-17
5882.99563 1.25520e-17
5884.49916 1.16396e-17
5886.00269 1.13550e-17
5887.49607 1.09197e-17
5888.99960 1.08042e-17
5890.50313 1.15666e-17
5891.99650 1.21321e-17
5893.50003 1.19670e-17
5895.00357 1.18341e-17
5896.49694 1.21147e-17
5898.00047 1.21637e-17
5899.50400 1.17579e-17
5900.99738 1.13477e-17
5902.50091 1.18793e-17
5904.00444 1.23103e-17
5905.49781 1.18529e-17
5907.00135 1.20485e-17
5908.49472 1.21178e-17
5909.99825 1.14261e-17
5911.50178 1.13287e-17
5912.99515 1.17885e-17
5914.49869 1.21472e-17
5916.00222 1.27714e-17
5917.49559 1.26719e-17
5918.99912 1.20723e-17
5920.50266 1.20669e-17
5921.99603 1.22808e-17
5923.49956 1.21757e-17
5925.00309 1.17232e-17
5926.49647 1.21658e-17
5928.00000 1.26062e-17
5929.50353 1.23532e-17
5930.99690 1.18508e-17
5932.50043 1.07299e-17
5934.00397 1.11107e-17
5935.49734 1.16927e-17
5937.00087 1.16851e-17
5938.50440 1.20349e-17
5939.99778 1.13701e-17
5941.50131 1.16685e-17
5943.00484 1.19677e-17
5944.49821 1.09814e-17
5946.00175 1.09596e-17
5947.49512 1.11262e-17
5948.99865 1.10165e-17
5950.50218 1.12824e-17
5951.99556 1.18533e-17
5953.49909 1.15691e-17
5955.00262 1.03006e-17
5956.49599 1.08335e-17
5957.99953 1.13522e-17
5959.50306 1.18942e-17
5960.99643 1.14319e-17
5962.49996 1.14465e-17
5964.00349 1.19196e-17
5965.49687 1.09166e-17
5967.00040 1.11181e-17
5968.50393 1.12012e-17
5969.99730 1.08316e-17
5971.50084 1.06203e-17
5973.00437 1.13129e-17
5974.49774 1.25978e-17
5976.00127 1.22106e-17
5977.50480 1.14943e-17
5978.99818 1.09162e-17
5980.50171 1.09422e-17
5981.99508 1.03359e-17
5983.49862 9.12693e-18
5985.00215 9.48727e-18
5986.49552 1.00771e-17
5987.99905 9.24071e-18
5989.50258 9.27022e-18
5990.99596 1.03177e-17
5992.49949 1.05693e-17
5994.00302 1.05504e-17
5995.49639 1.14800e-17
5996.99993 1.14480e-17
5998.50346 1.16873e-17
5999.99683 1.19870e-17
6001.50036 1.15440e-17
6003.00390 1.15197e-17
6004.49727 1.22578e-17
6006.00080 1.19135e-17
6007.50433 1.16237e-17
6008.99770 1.14723e-17
6010.50124 1.18698e-17
6012.00477 1.19434e-17
6013.49814 1.13657e-17
6015.00167 1.16338e-17
6016.49505 1.20811e-17
6017.99858 1.20714e-17
6019.50211 1.12664e-17
6020.99548 1.18080e-17
6022.49902 1.22364e-17
6024.00255 1.19154e-17
6025.49592 1.16516e-17
6026.99945 1.20979e-17
6028.50299 1.10556e-17
6029.99636 1.13810e-17
6031.49989 1.14991e-17
6033.00342 1.09079e-17
6034.49680 1.14577e-17
6036.00033 1.14475e-17
6037.50386 1.19484e-17
6038.99723 1.20251e-17
6040.50076 1.12608e-17
6042.00430 1.10192e-17
6043.49767 1.14155e-17
6045.00120 1.18257e-17
6046.50473 1.16284e-17
6047.99811 1.17228e-17
6049.50164 1.17132e-17
6050.99501 1.17036e-17
6052.49854 1.16940e-17
6054.00208 1.16843e-17
6055.49545 1.16747e-17
6056.99898 1.16745e-17
6058.50251 1.15027e-17
6059.99588 1.09733e-17
6061.49942 1.13062e-17
6063.00295 1.11535e-17
6064.49632 1.08090e-17
6065.99985 1.15742e-17
6067.50339 1.17760e-17
6068.99676 1.08742e-17
6070.50029 1.08760e-17
6072.00382 1.10486e-17
6073.49720 1.09246e-17
6075.00073 1.16187e-17
6076.50426 1.15574e-17
6077.99763 1.15533e-17
6079.50117 1.18703e-17
6081.00470 1.12396e-17
6082.49807 1.09678e-17
6084.00160 1.11847e-17
6085.49498 1.11869e-17
6086.99851 1.07019e-17
6088.50204 1.09224e-17
6089.99541 1.14164e-17
6091.49894 1.16242e-17
6093.00248 1.14210e-17
6094.49585 1.16743e-17
6095.99938 1.11582e-17
6097.50291 1.12841e-17
6098.99629 1.15773e-17
6100.49982 1.16259e-17
6102.00335 1.12640e-17
6103.49672 1.06137e-17
6105.00025 1.09902e-17
6106.50379 1.16020e-17
6107.99716 1.16170e-17
6109.50069 1.08815e-17
6111.00422 1.13101e-17
6112.49760 1.12315e-17
6114.00113 1.12685e-17
6115.50466 1.18959e-17
6116.99803 1.13967e-17
6118.50157 1.08814e-17
6119.99494 1.06543e-17
6121.49847 1.05972e-17
6123.00200 1.10956e-17
6124.49538 1.14192e-17
6125.99891 1.08511e-17
6127.50244 1.05223e-17
6128.99581 1.09513e-17
6130.49935 1.10786e-17
6132.00288 1.08137e-17
6133.49625 1.04303e-17
6134.99978 1.05582e-17
6136.50331 1.05024e-17
6137.99669 9.70715e-18
6139.50022 9.79663e-18
6141.00375 1.02284e-17
6142.49712 1.00763e-17
6144.00066 1.01127e-17
6145.50419 9.80729e-18
6146.99756 1.05841e-17
6148.50109 1.08708e-17
6150.00463 1.01062e-17
6151.49800 1.02023e-17
6153.00153 9.98058e-18
6154.49490 1.02285e-17
6155.99843 1.01242e-17
6157.50197 1.00687e-17
6158.99534 9.77135e-18
6160.49887 9.62092e-18
6162.00240 1.06163e-17
6163.49578 1.05938e-17
6164.99931 1.05926e-17
6166.50284 1.01547e-17
6167.99621 9.18901e-18
6169.49975 9.97368e-18
6171.00328 9.86853e-18
6172.49665 9.96547e-18
6174.00018 9.55496e-18
6175.50372 9.20477e-18
6176.99709 9.50981e-18
6178.50062 9.72047e-18
6180.00415 9.51528e-18
6181.49752 1.01952e-17
6183.00106 9.99749e-18
6184.50459 9.12668e-18
6185.99796 9.22407e-18
6187.50149 9.98777e-18
6188.99487 9.54914e-18
6190.49840 8.81800e-18
6192.00193 9.44880e-18
6193.49530 9.57392e-18
6194.99884 9.22373e-18
6196.50237 9.41427e-18
6197.99574 9.48126e-18
6199.49927 9.59009e-18
6201.00281 9.60854e-18
6202.49618 9.28854e-18
6203.99971 9.30134e-18
6205.50324 9.44568e-18
6206.99662 9.82016e-18
6208.50015 1.02285e-17
6210.00368 9.31325e-18
6211.49705 9.21966e-18
6213.00058 9.92632e-18
6214.50412 9.85990e-18
6215.99749 9.53151e-18
6217.50102 9.67947e-18
6219.00455 9.29080e-18
6220.49793 9.32100e-18
6222.00146 9.86764e-18
6223.50499 9.42714e-18
6224.99836 1.01210e-17
6226.50190 9.93936e-18
6227.99527 9.43061e-18
6229.49880 9.73185e-18
6231.00233 9.04210e-18
6232.49571 1.00353e-17
6233.99924 1.08149e-17
6235.50277 9.73981e-18
6236.99614 9.85074e-18
6238.49967 1.00612e-17
6240.00321 9.68160e-18
6241.49658 9.80359e-18
6243.00011 9.87756e-18
6244.50364 9.56993e-18
6245.99702 9.67241e-18
6247.50055 1.02528e-17
6249.00408 1.01135e-17
6250.49745 1.02589e-17
6252.00098 1.03093e-17
6253.50452 1.03799e-17
6254.99789 9.91330e-18
6256.50142 9.67237e-18
6258.00495 1.00744e-17
6259.49833 9.48818e-18
6261.00186 9.76340e-18
6262.49523 1.01499e-17
6263.99876 1.07324e-17
6265.50230 1.05993e-17
6266.99567 9.99483e-18
6268.49920 1.05142e-17
6270.00273 1.04268e-17
6271.49611 9.75742e-18
6272.99964 9.90893e-18
6274.50317 1.03418e-17
6275.99654 1.00488e-17
6277.50007 1.03601e-17
6279.00361 1.04303e-17
6280.49698 1.09284e-17
6282.00051 1.09920e-17
6283.50404 1.08608e-17
6284.99742 1.12538e-17
6286.50095 1.10502e-17
6288.00448 1.14886e-17
6289.49785 1.17991e-17
6291.00139 1.13299e-17
6292.50492 1.10075e-17
6293.99829 1.08334e-17
6295.50182 1.02316e-17
6296.99520 1.06796e-17
6298.49873 1.13127e-17
6300.00226 1.08310e-17
6301.49563 1.07761e-17
6302.99917 1.12696e-17
6304.50270 1.17089e-17
6305.99607 1.14627e-17
6307.49960 1.11413e-17
6309.00313 1.13186e-17
6310.49651 1.20055e-17
6312.00004 1.13242e-17
6313.50357 1.08990e-17
6314.99694 1.15636e-17
6316.50048 1.15469e-17
6318.00401 1.12617e-17
6319.49738 1.13836e-17
6321.00091 1.11894e-17
6322.50445 1.13507e-17
6323.99782 1.17397e-17
6325.50135 1.16996e-17
6327.00488 1.19004e-17
6328.49826 1.14962e-17
6330.00179 1.10933e-17
6331.49516 1.15252e-17
6332.99869 1.19902e-17
6334.50222 1.18978e-17
6335.99560 1.14872e-17
6337.49913 1.15174e-17
6339.00266 1.19921e-17
6340.49603 1.16572e-17
6341.99957 1.18671e-17
6343.50310 1.23035e-17
6344.99647 1.16154e-17
6346.50000 1.14556e-17
6348.00353 1.23382e-17
6349.49691 1.21053e-17
6351.00044 1.17658e-17
6352.50397 1.19984e-17
6353.99735 1.13612e-17
6355.50088 1.16838e-17
6357.00441 1.16964e-17
6358.49778 1.17106e-17
6360.00131 1.20979e-17
6361.50485 1.15250e-17
6362.99822 1.09619e-17
6364.50175 1.15637e-17
6365.99512 1.17165e-17
6367.49866 1.21132e-17
6369.00219 1.20117e-17
6370.49556 1.17228e-17
6371.99909 1.13293e-17
6373.50263 1.19829e-17
6374.99600 1.13351e-17
6376.49953 1.14169e-17
6378.00306 1.20363e-17
6379.49644 1.15106e-17
6380.99997 1.08953e-17
6382.50350 1.09695e-17
6383.99687 1.11009e-17
6385.50040 1.09875e-17
6387.00394 1.07077e-17
6388.49731 1.03183e-17
6390.00084 1.07649e-17
6391.50437 1.11306e-17
6392.99775 1.20529e-17
6394.50128 1.19112e-17
6396.00481 1.09609e-17
6397.49818 1.09243e-17
6399.00172 1.08716e-17
6400.49509 1.13575e-17
6401.99862 1.17437e-17
6403.50215 1.17791e-17
6404.99553 1.13124e-17
6406.49906 1.09832e-17
6408.00259 1.08959e-17
6409.49596 1.07396e-17
6410.99949 1.06451e-17
6412.50303 1.03547e-17
6413.99640 9.85138e-18
6415.49993 9.95795e-18
6417.00346 1.07255e-17
6418.49684 1.13435e-17
6420.00037 1.10714e-17
6421.50390 1.05851e-17
6422.99727 1.11345e-17
6424.50080 1.09722e-17
6426.00434 1.13102e-17
6427.49771 1.12520e-17
6429.00124 1.05786e-17
6430.49462 1.13491e-17
6431.99815 1.15989e-17
6433.50168 1.12584e-17
6434.99505 1.17143e-17
6436.49858 1.12059e-17
6438.00212 1.08125e-17
6439.49549 1.13956e-17
6440.99902 1.14929e-17
6442.50255 1.11863e-17
6443.99593 1.09943e-17
6445.49946 1.13763e-17
6447.00299 1.09872e-17
6448.49636 1.16850e-17
6449.99989 1.14613e-17
6451.50343 1.10942e-17
6452.99680 1.13702e-17
6454.50033 1.10656e-17
6456.00386 1.15937e-17
6457.49724 1.16013e-17
6459.00077 1.13994e-17
6460.50430 1.09339e-17
6461.99767 1.14619e-17
6463.50121 1.13002e-17
6465.00474 1.14025e-17
6466.49811 1.16337e-17
6468.00164 1.10440e-17
6469.49502 1.11883e-17
6470.99855 1.21936e-17
6472.50208 1.22582e-17
6473.99545 1.13499e-17
6475.49899 1.19456e-17
6477.00252 1.20942e-17
6478.49589 1.17599e-17
6479.99942 1.18707e-17
6481.50295 1.13928e-17
6482.99633 1.16363e-17
6484.49986 1.21537e-17
6486.00339 1.11427e-17
6487.49676 1.08252e-17
6489.00030 1.14977e-17
6490.50383 1.20109e-17
6491.99720 1.24115e-17
6493.50073 1.18332e-17
6495.00427 1.16730e-17
6496.49764 1.19546e-17
6498.00117 1.17626e-17
6499.50470 1.15707e-17
6500.99808 1.16007e-17
6502.50161 1.22730e-17
6504.00514 1.19402e-17
6505.49851 1.16037e-17
6507.00204 1.18552e-17
6508.49542 1.18015e-17
6509.99895 1.20443e-17
6511.50248 1.20098e-17
6512.99585 1.14547e-17
6514.49939 1.19440e-17
6516.00292 1.20393e-17
6517.49629 1.16317e-17
6518.99982 1.09444e-17
6520.50335 1.15709e-17
6521.99673 1.13587e-17
6523.50026 1.12525e-17
6525.00379 1.14931e-17
6526.49717 1.17398e-17
6528.00070 1.20008e-17
6529.50423 1.16971e-17
6530.99760 1.18332e-17
6532.50113 1.18788e-17
6534.00467 1.16520e-17
6535.49804 1.17699e-17
6537.00157 1.10158e-17
6538.50510 1.07166e-17
6539.99848 1.15836e-17
6541.50201 1.11276e-17
6542.99538 1.11798e-17
6544.49891 1.15802e-17
6546.00245 1.12427e-17
6547.49582 1.11581e-17
6548.99935 1.14093e-17
6550.50288 1.16771e-17
6551.99626 1.16164e-17
6553.49979 1.17618e-17
6555.00332 1.14834e-17
6556.49669 1.15140e-17
6558.00022 1.19566e-17
6559.50376 1.17404e-17
6560.99713 1.15313e-17
6562.50066 1.15435e-17
6564.00419 1.13237e-17
6565.49757 1.12077e-17
6567.00110 1.16834e-17
6568.50463 1.17847e-17
6569.99800 1.15656e-17
6571.50153 1.09351e-17
6572.99491 1.14779e-17
6574.49844 1.14519e-17
6576.00197 1.11874e-17
6577.49535 1.13574e-17
6578.99888 1.10738e-17
6580.50241 1.13883e-17
6581.99578 1.17458e-17
6583.49931 1.13072e-17
6585.00285 1.16322e-17
6586.49622 1.14063e-17
6587.99975 1.04624e-17
6589.50328 1.05406e-17
6590.99666 1.08416e-17
6592.50019 1.02620e-17
6594.00372 1.07585e-17
6595.49709 1.15339e-17
6597.00063 1.12303e-17
6598.50416 1.06342e-17
6599.99753 1.17499e-17
6601.50106 1.18001e-17
6603.00459 1.15211e-17
6604.49797 1.11549e-17
6606.00150 1.14703e-17
6607.49487 1.15867e-17
6608.99840 1.13845e-17
6610.50194 1.11078e-17
6611.99531 1.09288e-17
6613.49884 1.13584e-17
6615.00237 1.18347e-17
6616.49575 1.15489e-17
6617.99928 1.11458e-17
6619.50281 1.13712e-17
6620.99618 1.13772e-17
6622.49972 1.11929e-17
6624.00325 1.07894e-17
6625.49662 1.04568e-17
6627.00015 1.07232e-17
6628.50368 1.08641e-17
6629.99706 1.05557e-17
6631.50059 1.12599e-17
6633.00412 1.14020e-17
6634.49749 1.08855e-17
6636.00103 1.09315e-17
6637.50456 1.09154e-17
6638.99793 1.08993e-17
6640.50146 1.08832e-17
6641.99484 1.08671e-17
6643.49837 1.08510e-17
6645.00190 1.08349e-17
6646.49527 1.08188e-17
6647.99881 1.08027e-17
6649.50234 1.07866e-17
6650.99571 1.07705e-17
6652.49924 1.07544e-17
6654.00277 1.07384e-17
6655.49615 1.07223e-17
6656.99968 1.07062e-17
6658.50321 1.06901e-17
6659.99658 1.06740e-17
6661.50012 1.06579e-17
6663.00365 1.06418e-17
6664.49702 1.06257e-17
6666.00055 1.06096e-17
6667.50408 1.05935e-17
6668.99746 1.05774e-17
6670.50099 1.05613e-17
6672.00452 1.05452e-17
6673.49790 1.05291e-17
6675.00143 1.05131e-17
6676.49480 1.04970e-17
6677.99833 1.04809e-17
6679.50186 1.04648e-17
6680.99524 1.04487e-17
6682.49877 1.04326e-17
6684.00230 1.04165e-17
6685.49567 1.04004e-17
6686.99921 1.03843e-17
6688.50274 1.03683e-17
6689.99611 1.03522e-17
6691.49964 1.03361e-17
6693.00317 1.03200e-17
6694.49655 1.03039e-17
6696.00008 1.02878e-17
6697.50361 1.02717e-17
6698.99698 1.02557e-17
6700.50052 1.04946e-17
6702.00405 1.06410e-17
6703.49742 1.03171e-17
6705.00095 1.03951e-17
6706.50449 1.11376e-17
6707.99786 1.08422e-17
6709.50139 1.10267e-17
6710.99476 1.06922e-17
6712.49830 1.06986e-17
6714.00183 1.14821e-17
6715.49520 1.06148e-17
6716.99873 1.00905e-17
6718.50227 1.08793e-17
6719.99564 1.07675e-17
6721.49917 1.08285e-17
6723.00270 1.08984e-17
6724.49608 1.02307e-17
6725.99961 1.05938e-17
6727.50314 1.04917e-17
6728.99651 1.13000e-17
6730.50004 1.14202e-17
6732.00358 1.09739e-17
6733.49695 1.11063e-17
6735.00048 1.05751e-17
6736.50401 1.05947e-17
6737.99739 1.04352e-17
6739.50092 1.02512e-17
6741.00445 1.10255e-17
6742.49782 1.17838e-17
6744.00136 1.13283e-17
6745.50489 1.02944e-17
6746.99826 1.02153e-17
6748.50179 1.02044e-17
6749.99517 9.97669e-18
6751.49870 1.09356e-17
6753.00223 1.15159e-17
6754.49560 1.02951e-17
6755.99913 9.89934e-18
6757.50267 1.05387e-17
6758.99604 1.04412e-17
6760.49957 1.07234e-17
6762.00310 1.06988e-17
6763.49648 1.00830e-17
6765.00001 1.04060e-17
6766.50354 1.12691e-17
6767.99691 1.06574e-17
6769.50045 1.01467e-17
6771.00398 1.07592e-17
6772.49735 1.03385e-17
6774.00088 1.00551e-17
6775.50441 1.04225e-17
6776.99779 1.02428e-17
6778.50132 1.08447e-17
6780.00485 1.15587e-17
6781.49822 1.13013e-17
6783.00176 1.04030e-17
6784.49513 1.02782e-17
6785.99866 1.08177e-17
6787.50219 1.04827e-17
6788.99557 9.54924e-18
6790.49910 1.00293e-17
6792.00263 1.02934e-17
6793.49600 1.05766e-17
6794.99953 1.09376e-17
6796.50307 1.10733e-17
6797.99644 1.09850e-17
6799.49997 1.01855e-17
6801.00350 9.99485e-18
6802.49688 1.08131e-17
6804.00041 9.84107e-18
6805.50394 9.74971e-18
6806.99731 1.02894e-17
6808.50085 9.78402e-18
6810.00438 9.47841e-18
6811.49775 9.50762e-18
6813.00128 1.05308e-17
6814.50482 9.72369e-18
6815.99819 9.67352e-18
6817.50172 9.92996e-18
6818.99509 1.00125e-17
6820.49863 1.02220e-17
6822.00216 1.02816e-17
6823.49553 9.98031e-18
6824.99906 1.04533e-17
6826.50259 1.08908e-17
6827.99597 1.02625e-17
6829.49950 9.50875e-18
6831.00303 8.99333e-18
6832.49640 9.25124e-18
6833.99994 9.34566e-18
6835.50347 9.61132e-18
6836.99684 1.00995e-17
6838.50037 9.85186e-18
6840.00390 9.54547e-18
6841.49728 1.01491e-17
6843.00081 1.05969e-17
6844.50434 1.04382e-17
6845.99772 9.95562e-18
6847.50125 9.37844e-18
6849.00478 9.43942e-18
6850.49815 9.82749e-18
6852.00168 9.82142e-18
6853.49506 9.82664e-18
6854.99859 9.95744e-18
6856.50212 9.39699e-18
6857.99549 8.98610e-18
6859.49903 9.97717e-18
6861.00256 9.47661e-18
6862.49593 9.89209e-18
6863.99946 1.00241e-17
6865.50300 9.22152e-18
6866.99637 9.66775e-18
6868.49990 8.30568e-18
6870.00343 8.56018e-18
6871.49680 9.64449e-18
6873.00034 9.12372e-18
6874.50387 8.43126e-18
6875.99724 8.80639e-18
6877.50077 9.88054e-18
6879.00431 9.38037e-18
6880.49768 9.90448e-18
6882.00121 9.11328e-18
6883.50474 8.68629e-18
6884.99812 1.01180e-17
6886.50165 9.59810e-18
6887.99502 1.01166e-17
6889.49855 9.30019e-18
6891.00209 8.93026e-18
6892.49546 8.84154e-18
6893.99899 9.04114e-18
6895.50252 9.47932e-18
6896.99590 9.58254e-18
6898.49943 9.08719e-18
6900.00296 8.71805e-18
6901.49633 8.94195e-18
6902.99986 9.28359e-18
6904.50340 9.86915e-18
6905.99677 1.01910e-17
6907.50030 1.02300e-17
6909.00383 1.01483e-17
6910.49721 9.82878e-18
6912.00074 9.34946e-18
6913.50427 9.43464e-18
6914.99764 9.51836e-18
6916.50118 9.83476e-18
6918.00471 9.74488e-18
6919.49808 9.16884e-18
6921.00161 8.95843e-18
6922.49498 9.23113e-18
6923.99852 9.45838e-18
6925.50205 8.93049e-18
6926.99542 9.57596e-18
6928.49895 9.76466e-18
6930.00249 9.40032e-18
6931.49586 9.14762e-18
6932.99939 9.19969e-18
6934.50292 1.00201e-17
6935.99630 9.30226e-18
6937.49983 8.88853e-18
6939.00336 9.58723e-18
6940.49673 1.07043e-17
6942.00027 9.85498e-18
6943.50380 8.98677e-18
6944.99717 9.47055e-18
6946.50070 9.70621e-18
6948.00423 9.66746e-18
6949.49761 9.73289e-18
6951.00114 9.47861e-18
6952.50467 8.38108e-18
6953.99804 8.82144e-18
6955.50158 9.17380e-18
6956.99495 9.14978e-18
6958.49848 8.96576e-18
6960.00201 9.03484e-18
6961.49539 9.54734e-18
6962.99892 8.90125e-18
6964.50245 8.62436e-18
6965.99582 9.44734e-18
6967.49935 9.83569e-18
6969.00289 9.35333e-18
6970.49626 9.32047e-18
6971.99979 9.25630e-18
6973.50332 8.95945e-18
6974.99670 9.29373e-18
6976.50023 9.33720e-18
6978.00376 9.40719e-18
6979.49713 9.11267e-18
6981.00067 8.88807e-18
6982.50420 9.76444e-18
6983.99757 9.88655e-18
6985.50110 9.47197e-18
6987.00464 9.37998e-18
6988.49801 9.38138e-18
6990.00154 8.84318e-18
6991.49491 8.91860e-18
6992.99845 9.48486e-18
6994.50198 9.26946e-18
6995.99535 8.93112e-18
6997.49888 8.96357e-18
6999.00241 8.90571e-18
7000.49579 9.34653e-18
7001.99932 9.99657e-18
7003.50285 9.56613e-18
7004.99622 8.96785e-18
7006.49976 9.49975e-18
7008.00329 1.00122e-17
7009.49666 9.75246e-18
7011.00019 9.53583e-18
7012.50373 9.79119e-18
7013.99710 1.03485e-17
7015.50063 9.68101e-18
7017.00416 9.42139e-18
7018.49753 8.79870e-18
7020.00107 9.48195e-18
7021.50460 9.72481e-18
7022.99797 8.60624e-18
7024.50150 8.66281e-18
7026.00504 9.36694e-18
7027.49841 9.30898e-18
7029.00194 9.55295e-18
7030.49531 9.40351e-18
7031.99885 9.12526e-18
7033.50238 9.26176e-18
7034.99575 8.97298e-18
7036.49928 9.44356e-18
7038.00282 9.57878e-18
7039.49619 8.83835e-18
7040.99972 9.46077e-18
7042.50325 9.94725e-18
7043.99662 9.53324e-18
7045.50016 9.31733e-18
7047.00369 9.72937e-18
7048.49706 9.86985e-18
7050.00059 9.40197e-18
7051.50413 9.69037e-18
7052.99750 9.49827e-18
7054.50103 9.09558e-18
7056.00456 8.80685e-18
7057.49794 8.88566e-18
7059.00147 9.20944e-18
7060.50500 9.19542e-18
7061.99837 9.43209e-18
7063.50191 9.67309e-18
7064.99528 9.08749e-18
7066.49881 9.48837e-18
7068.00234 9.41397e-18
7069.49572 8.87067e-18
7070.99925 8.90381e-18
7072.50278 9.24344e-18
7073.99615 8.57314e-18
7075.49968 9.23934e-18
7077.00322 9.65440e-18
7078.49659 8.94030e-18
7080.00012 8.73928e-18
7081.50365 8.27018e-18
7082.99703 8.86088e-18
7084.50056 8.63693e-18
7086.00409 8.57496e-18
7087.49746 8.77585e-18
7089.00100 8.92810e-18
7090.50453 8.08343e-18
7091.99790 9.36195e-18
7093.50143 8.96742e-18
7095.00496 8.66763e-18
7096.49834 8.96792e-18
7098.00187 9.29212e-18
7099.49524 9.12523e-18
7100.99877 8.89725e-18
7102.50231 9.60740e-18
7103.99568 9.67509e-18
7105.49921 9.35024e-18
7107.00274 8.94908e-18
7108.49612 9.27892e-18
7109.99965 8.90831e-18
7111.50318 8.78540e-18
7112.99655 8.09635e-18
7114.50008 8.46258e-18
7116.00362 9.51922e-18
7117.49699 9.18962e-18
7119.00052 8.42281e-18
7120.50405 8.85541e-18
7121.99743 9.06397e-18
7123.50096 8.97448e-18
7125.00449 9.52384e-18
7126.49786 9.63558e-18
7128.00140 8.97511e-18
7129.50493 8.80512e-18
7130.99830 8.85216e-18
7132.50183 9.36746e-18
7133.99521 9.70131e-18
7135.49874 9.00394e-18
7137.00227 8.86378e-18
7138.49564 9.00732e-18
7139.99917 8.96696e-18
7141.50271 9.02740e-18
7142.99608 9.10743e-18
7144.49961 9.03936e-18
7146.00314 9.36780e-18
7147.49652 9.19832e-18
7149.00005 9.06499e-18
7150.50358 9.26951e-18
7151.99695 9.35231e-18
7153.50049 8.91018e-18
7155.00402 9.20285e-18
7156.49739 9.85427e-18
7158.00092 9.42448e-18
7159.50446 9.75628e-18
7160.99783 8.80579e-18
7162.50136 8.99809e-18
7164.00489 9.72616e-18
7165.49827 9.47245e-18
7167.00180 9.38237e-18
7168.49517 9.90972e-18
7169.99870 1.00278e-17
7171.50223 9.29573e-18
7172.99561 9.76639e-18
7174.49914 9.51519e-18
7176.00267 9.55271e-18
7177.49604 8.99333e-18
7178.99958 8.94094e-18
7180.50311 8.88856e-18
7181.99648 8.83617e-18
7183.50001 8.78379e-18
7185.00355 8.78368e-18
7186.49692 9.23001e-18
7188.00045 9.17831e-18
7189.50398 9.35005e-18
7190.99736 9.40458e-18
7192.50089 9.06473e-18
7194.00442 8.94514e-18
7195.49779 9.26100e-18
7197.00132 9.14704e-18
7198.49470 9.59126e-18
7199.99823 9.38416e-18
7201.50176 8.72981e-18
7202.99513 8.86244e-18
7204.49867 9.32355e-18
7206.00220 9.28557e-18
7207.49557 9.12418e-18
7208.99910 9.54139e-18
7210.50263 9.25724e-18
7211.99601 8.42184e-18
7213.49954 8.93510e-18
7215.00307 9.87783e-18
7216.49645 9.79423e-18
7217.99998 8.88868e-18
7219.50351 9.21032e-18
7220.99688 9.66065e-18
7222.50041 9.73043e-18
7224.00395 9.49389e-18
7225.49732 9.05953e-18
7227.00085 8.94900e-18
7228.50438 9.08970e-18
7229.99776 9.77143e-18
7231.50129 9.60360e-18
7232.99466 9.27125e-18
7234.49819 9.41032e-18
7236.00173 9.51548e-18
7237.49510 9.34837e-18
7238.99863 9.49995e-18
7240.50216 8.92351e-18
7241.99554 8.67510e-18
7243.49907 9.73616e-18
7245.00260 1.04046e-17
7246.49597 9.40468e-18
7247.99950 9.05934e-18
7249.50304 9.12144e-18
7250.99641 8.87435e-18
7252.49994 8.96633e-18
7254.00347 9.65701e-18
7255.49685 9.26331e-18
7257.00038 8.19214e-18
7258.50391 8.82418e-18
7259.99728 9.42013e-18
7261.50082 9.09233e-18
7263.00435 8.40548e-18
7264.49772 8.19816e-18
7266.00125 8.69302e-18
7267.50478 9.46949e-18
7268.99816 9.36790e-18
7270.50169 9.15096e-18
7271.99506 9.63162e-18
7273.49859 1.04207e-17
7275.00213 1.10238e-17
7276.49550 1.01003e-17
7277.99903 8.97152e-18
7279.50256 8.74169e-18
7280.99594 9.25881e-18
7282.49947 9.43504e-18
7284.00300 9.42851e-18
7285.49637 9.46400e-18
7286.99990 8.76624e-18
7288.50344 9.05537e-18
7289.99681 9.84459e-18
7291.50034 9.04847e-18
7293.00387 8.79122e-18
7294.49725 9.86575e-18
7296.00078 9.80519e-18
7297.50431 9.07199e-18
7298.99768 9.68628e-18
7300.50122 9.02691e-18
7302.00475 8.14789e-18
7303.49812 8.70746e-18
7305.00165 8.75552e-18
7306.50518 8.27680e-18
7307.99856 8.79676e-18
7309.50209 8.84379e-18
7310.99546 8.89789e-18
7312.49899 8.90706e-18
7314.00253 9.53747e-18
7315.49590 9.70555e-18
7316.99943 8.91682e-18
7318.50296 9.14109e-18
7319.99634 9.99947e-18
7321.49987 9.49916e-18
7323.00340 8.69712e-18
7324.49677 8.81564e-18
7326.00031 9.25924e-18
7327.50384 9.32579e-18
7328.99721 9.33065e-18
7330.50074 9.17378e-18
7332.00428 8.97225e-18
7333.49765 8.68687e-18
7335.00118 8.69571e-18
7336.50471 8.99567e-18
7337.99809 9.66949e-18
7339.50162 9.19804e-18
7340.99499 8.50362e-18
7342.49852 8.74925e-18
7344.00205 8.99494e-18
7345.49543 9.32200e-18
7346.99896 8.81416e-18
7348.50249 8.34705e-18
7349.99586 8.82502e-18
7351.49940 8.71213e-18
7353.00293 8.92494e-18
7354.49630 9.72551e-18
7355.99983 8.99683e-18
7357.50337 8.53102e-18
7358.99674 9.76401e-18
7360.50027 9.56398e-18
7362.00380 9.27127e-18
7363.49718 9.20012e-18
7365.00071 8.27828e-18
7366.50424 9.49693e-18
7367.99761 9.16567e-18
7369.50114 8.75773e-18
7371.00468 9.23336e-18
7372.49805 8.55290e-18
7374.00158 9.16557e-18
7375.49495 8.12752e-18
7376.99849 7.95331e-18
7378.50202 8.73087e-18
7379.99539 8.68334e-18
7381.49892 8.91707e-18
7383.00245 8.52561e-18
7384.49583 8.07958e-18
7385.99936 8.54508e-18
7387.50289 8.70381e-18
7388.99627 9.02903e-18
7390.49980 8.74192e-18
7392.00333 8.49916e-18
7393.49670 8.65860e-18
7395.00023 8.69931e-18
7396.50377 8.53351e-18
7397.99714 8.27716e-18
7399.50067 8.18613e-18
7401.00420 7.61504e-18
7402.49758 8.35636e-18
7404.00111 8.44445e-18
7405.50464 8.53254e-18
7406.99801 8.62062e-18
7408.50155 8.70870e-18
7409.99492 8.79678e-18
7411.49845 8.88485e-18
7413.00198 8.97293e-18
7414.49536 9.06100e-18
7415.99889 9.06088e-18
7417.50242 9.18661e-18
7418.99579 8.65187e-18
7420.49932 8.95036e-18
7422.00286 9.61546e-18
7423.49623 8.62212e-18
7424.99976 8.24835e-18
7426.50329 8.85016e-18
7427.99667 8.31713e-18
7429.50020 7.81372e-18
7431.00373 7.93509e-18
7432.49710 8.50972e-18
7434.00063 8.94720e-18
7435.50417 8.33450e-18
7436.99754 7.49607e-18
7438.50107 7.70004e-18
7440.00460 8.69691e-18
7441.49798 9.35544e-18
7443.00151 8.86699e-18
7444.49488 7.21723e-18
7445.99841 7.29480e-18
7447.50195 8.07287e-18
7448.99532 7.62486e-18
7450.49885 6.91745e-18
7452.00238 7.78710e-18
7453.49576 8.19771e-18
7454.99929 8.47425e-18
7456.50282 8.26495e-18
7457.99619 8.09581e-18
7459.49973 8.23750e-18
7461.00326 7.98635e-18
7462.49663 8.00153e-18
7464.00016 8.33328e-18
7465.50369 7.73046e-18
7466.99707 7.18517e-18
7468.50060 7.44482e-18
7470.00413 7.43726e-18
7471.49750 7.50830e-18
7473.00104 7.28480e-18
7474.50457 7.12644e-18
7475.99794 6.78064e-18
7477.50147 7.15827e-18
7478.99485 7.81250e-18
7480.49838 7.45518e-18
7482.00191 6.56497e-18
7483.49528 6.40790e-18
7484.99882 6.63779e-18
7486.50235 6.87819e-18
7487.99572 6.85159e-18
7489.49925 6.18213e-18
7491.00278 6.12024e-18
7492.49616 6.69505e-18
7493.99969 6.35820e-18
7495.50322 7.00437e-18
7496.99659 7.13787e-18
7498.50013 6.72726e-18
7500.00366 7.24099e-18
7501.49703 6.73473e-18
7503.00056 6.24918e-18
7504.50410 6.09125e-18
7505.99747 5.78584e-18
7507.50100 6.32368e-18
7509.00453 6.17802e-18
7510.49791 6.40991e-18
7512.00144 6.64451e-18
7513.49481 7.02618e-18
7514.99834 6.98240e-18
7516.50187 6.37688e-18
7517.99525 5.85244e-18
7519.49878 6.35373e-18
7521.00231 6.94432e-18
7522.49568 6.09284e-18
7523.99922 6.14285e-18
7525.50275 6.12201e-18
7526.99612 6.20812e-18
7528.49965 6.41937e-18
7530.00318 6.35873e-18
7531.49656 5.93523e-18
7533.00009 5.86678e-18
7534.50362 6.21550e-18
7535.99700 6.19325e-18
7537.50053 5.91237e-18
7539.00406 5.43882e-18
7540.49743 6.47064e-18
7542.00320 6.47064e-18
7544.00005 6.48579e-18
7545.99690 6.55548e-18
7548.00394 6.48989e-18
7550.00078 6.25205e-18
7551.99763 6.10511e-18
7554.00467 6.03192e-18
7556.00152 6.04481e-18
7557.99836 6.21338e-18
7559.99521 6.62994e-18
7562.00225 6.66478e-18
7563.99910 6.33511e-18
7565.99594 6.15550e-18
7568.00298 6.15392e-18
7569.99983 6.18015e-18
7571.99668 6.06031e-18
7574.00371 5.85250e-18
7576.00056 5.86374e-18
7577.99741 6.19580e-18
7580.00444 6.23056e-18
7582.00129 5.89942e-18
7583.99814 5.62197e-18
7585.99499 5.65411e-18
7588.00202 5.89106e-18
7589.99887 6.01815e-18
7591.99572 6.12784e-18
7594.00276 6.22280e-18
7595.99960 6.20880e-18
7597.99645 6.27666e-18
7600.00349 6.59552e-18
7602.00034 7.00489e-18
7603.99718 6.95610e-18
7606.00422 6.42369e-18
7608.00107 6.22068e-18
7609.99792 6.14089e-18
7612.00495 6.14270e-18
7614.00180 6.24645e-18
7615.99865 6.38950e-18
7617.99550 6.47292e-18
7620.00253 6.36821e-18
7621.99938 6.66537e-18
7623.99623 7.64316e-18
7626.00326 7.98826e-18
7628.00011 7.47543e-18
7629.99696 6.73104e-18
7632.00400 6.38254e-18
7634.00084 6.16749e-18
7635.99769 5.96505e-18
7638.00473 5.73365e-18
7640.00158 5.73139e-18
7641.99842 6.06422e-18
7643.99527 6.40691e-18
7646.00231 6.45419e-18
7647.99916 6.35526e-18
7649.99600 6.27101e-18
7652.00304 6.00473e-18
7653.99989 5.92604e-18
7655.99674 6.00815e-18
7658.00377 6.13741e-18
7660.00062 6.29660e-18
7661.99747 6.49942e-18
7664.00450 6.51748e-18
7666.00135 6.39832e-18
7667.99820 6.24993e-18
7669.99505 6.02043e-18
7672.00208 5.80547e-18
7673.99893 5.60718e-18
7675.99578 5.45246e-18
7678.00282 5.42683e-18
7679.99966 5.54400e-18
7681.99651 5.74923e-18
7684.00355 6.12695e-18
7686.00040 6.42397e-18
7687.99724 6.65121e-18
7690.00428 6.80469e-18
7692.00113 6.78888e-18
7693.99798 6.57748e-18
7695.99482 6.50862e-18
7698.00186 6.52054e-18
7699.99871 6.50555e-18
7701.99556 6.50119e-18
7704.00259 6.45416e-18
7705.99944 6.26636e-18
7707.99629 5.93880e-18
7710.00332 6.02820e-18
7712.00017 6.64931e-18
7713.99702 6.81256e-18
7716.00406 6.54471e-18
7718.00090 6.27590e-18
7719.99775 6.16473e-18
7722.00479 6.10117e-18
7724.00164 6.19558e-18
7725.99848 6.57350e-18
7727.99533 6.67078e-18
7730.00237 6.56056e-18
7731.99922 6.44412e-18
7733.99606 6.29966e-18
7736.00310 6.18682e-18
7737.99995 6.26654e-18
7739.99680 6.56870e-18
7742.00383 6.77463e-18
7744.00068 7.11067e-18
7745.99753 7.18415e-18
7748.00456 6.86182e-18
7750.00141 6.38116e-18
7751.99826 6.12857e-18
7753.99511 5.90348e-18
7756.00214 5.98588e-18
7757.99899 6.57736e-18
7759.99584 6.87664e-18
7762.00288 6.89355e-18
7763.99972 6.74481e-18
7765.99657 6.38191e-18
7768.00361 5.71508e-18
7770.00046 5.57857e-18
7771.99730 5.83016e-18
7774.00434 6.02902e-18
7776.00119 6.32502e-18
7777.99804 6.53943e-18
7780.00507 6.56787e-18
7782.00192 6.44503e-18
7783.99877 6.35228e-18
7785.99562 6.13726e-18
7788.00265 6.06507e-18
7789.99950 6.12275e-18
7791.99635 6.23534e-18
7794.00338 6.43642e-18
7796.00023 6.69088e-18
7797.99708 6.69686e-18
7800.00412 6.33004e-18
7802.00096 6.29687e-18
7803.99781 6.50378e-18
7806.00485 6.62907e-18
7808.00170 6.61627e-18
7809.99854 6.49980e-18
7811.99539 6.42915e-18
7814.00243 6.26516e-18
7815.99928 6.42696e-18
7817.99612 7.00753e-18
7820.00316 7.32803e-18
7822.00001 7.36571e-18
7823.99686 7.23745e-18
7826.00389 6.88587e-18
7828.00074 6.19733e-18
7829.99759 5.97226e-18
7832.00462 6.02022e-18
7834.00147 6.16753e-18
7835.99832 6.58597e-18
7837.99517 6.92652e-18
7840.00220 6.82793e-18
7841.99905 6.41642e-18
7843.99590 6.14322e-18
7846.00294 5.75043e-18
7847.99978 5.60407e-18
7849.99663 5.58759e-18
7852.00367 5.77858e-18
7854.00052 6.28932e-18
7855.99736 6.96121e-18
7858.00440 7.19190e-18
7860.00125 7.17757e-18
7861.99810 6.98452e-18
7863.99494 6.43803e-18
7866.00198 5.98775e-18
7867.99883 5.76952e-18
7869.99568 5.67953e-18
7872.00271 5.65970e-18
7873.99956 5.84314e-18
7875.99641 5.88889e-18
7878.00344 5.86049e-18
7880.00029 5.88983e-18
7881.99714 5.97049e-18
7884.00418 6.04420e-18
7886.00102 6.10692e-18
7887.99787 6.10583e-18
7889.99472 6.17813e-18
7892.00176 6.36846e-18
7893.99860 6.46121e-18
7895.99545 6.53845e-18
7898.00249 6.53842e-18
7899.99934 6.32759e-18
7901.99618 5.90203e-18
7904.00322 5.68547e-18
7906.00007 5.54773e-18
7907.99692 5.58627e-18
7910.00395 5.85065e-18
7912.00080 6.11815e-18
7913.99765 6.29946e-18
7916.00468 6.44472e-18
7918.00153 6.37675e-18
7919.99838 5.99993e-18
7921.99523 5.89788e-18
7924.00226 5.89336e-18
7925.99911 6.05975e-18
7927.99596 6.52174e-18
7930.00300 7.12620e-18
7931.99984 7.18152e-18
7933.99669 6.72179e-18
7936.00373 6.45863e-18
7938.00058 6.01737e-18
7939.99742 5.81627e-18
7942.00446 6.02948e-18
7944.00131 6.40332e-18
7945.99816 6.51245e-18
7947.99500 6.53042e-18
7950.00204 6.49296e-18
7951.99889 6.30003e-18
7953.99574 6.25116e-18
7956.00277 6.50897e-18
7957.99962 6.73726e-18
7959.99647 6.52350e-18
7962.00350 5.95973e-18
7964.00035 5.83707e-18
7965.99720 5.98808e-18
7968.00424 6.05691e-18
7970.00108 6.09589e-18
7971.99793 6.15307e-18
7973.99478 6.20252e-18
7976.00182 6.25880e-18
7977.99866 6.22003e-18
7979.99551 6.02259e-18
7982.00255 5.93867e-18
7983.99940 5.87716e-18
7985.99624 5.92308e-18
7988.00328 6.24951e-18
7990.00013 6.73430e-18
7991.99698 6.73406e-18
7994.00401 6.30764e-18
7996.00086 6.03985e-18
7997.99771 5.64190e-18
8000.00474 5.43641e-18
8002.00159 5.61111e-18
8003.99844 5.94881e-18
8005.99529 6.15105e-18
8008.00232 6.44103e-18
8009.99917 6.50682e-18
8011.99602 6.39646e-18
8014.00306 6.20391e-18
8015.99990 5.92111e-18
8017.99675 5.59382e-18
8020.00379 5.32690e-18
8022.00064 4.95566e-18
8023.99748 5.07525e-18
8026.00452 5.88346e-18
8028.00137 6.24872e-18
8029.99822 5.99931e-18
8031.99506 5.69122e-18
8034.00210 5.80398e-18
8035.99895 6.13456e-18
8037.99580 6.17467e-18
8040.00283 5.97320e-18
8041.99968 5.90231e-18
8043.99653 5.95062e-18
8046.00356 6.02189e-18
8048.00041 6.04993e-18
8049.99726 6.07789e-18
8052.00430 6.17484e-18
8054.00114 6.46039e-18
8055.99799 6.49415e-18
8057.99484 6.27787e-18
8060.00188 6.10202e-18
8061.99872 6.04346e-18
8063.99557 6.02250e-18
8066.00261 6.01326e-18
8067.99946 6.07830e-18
8069.99630 6.10321e-18
8072.00334 6.07106e-18
8074.00019 6.11766e-18
8075.99704 6.40676e-18
8078.00407 6.71367e-18
8080.00092 6.55103e-18
8081.99777 5.93247e-18
8084.00480 5.74707e-18
8086.00165 5.83812e-18
8087.99850 5.87465e-18
8089.99535 5.85904e-18
8092.00238 5.83286e-18
8093.99923 5.73681e-18
8095.99608 5.56519e-18
8098.00312 5.55499e-18
8099.99996 5.67911e-18
8101.99681 5.79240e-18
8104.00385 5.93975e-18
8106.00070 6.07913e-18
8107.99754 6.15036e-18
8110.00458 6.18600e-18
8112.00143 6.26310e-18
8113.99828 6.48582e-18
8115.99512 6.46423e-18
8118.00216 6.16472e-18
8119.99901 5.89292e-18
8121.99586 5.83664e-18
8124.00289 5.85438e-18
8125.99974 5.65489e-18
8127.99659 5.10736e-18
8130.00362 5.04435e-18
8132.00047 5.37658e-18
8133.99732 5.66376e-18
8136.00436 5.81687e-18
8138.00120 5.93820e-18
8139.99805 6.09596e-18
8141.99490 6.28292e-18
8144.00194 6.31454e-18
8145.99878 6.14295e-18
8147.99563 6.09411e-18
8150.00267 6.23083e-18
8151.99952 6.42133e-18
8153.99636 6.48450e-18
8156.00340 6.49565e-18
8158.00025 6.47451e-18
8159.99710 6.42367e-18
8162.00413 6.25677e-18
8164.00098 5.78118e-18
8165.99783 5.44327e-18
8167.99468 5.76499e-18
8170.00171 6.57732e-18
8171.99856 6.81730e-18
8173.99541 6.73594e-18
8176.00244 6.72754e-18
8177.99929 6.73591e-18
8179.99614 6.70048e-18
8182.00318 6.58379e-18
8184.00002 6.37538e-18
8185.99687 6.10338e-18
8188.00391 5.53393e-18
8190.00076 5.42426e-18
8191.99760 5.72887e-18
8194.00464 6.06566e-18
8196.00149 6.38921e-18
8197.99834 6.69390e-18
8199.99518 6.54616e-18
8202.00222 5.79366e-18
8203.99907 5.63852e-18
8205.99592 5.88153e-18
8208.00295 6.04019e-18
8209.99980 6.09679e-18
8211.99665 6.08271e-18
8214.00368 5.93021e-18
8216.00053 5.60081e-18
8217.99738 5.58359e-18
8220.00442 5.81925e-18
8222.00126 6.04915e-18
8223.99811 6.31547e-18
8225.99496 6.55715e-18
8228.00200 6.72203e-18
8229.99884 6.87462e-18
8231.99569 6.79782e-18
8234.00273 6.50486e-18
8235.99958 6.28799e-18
8237.99642 6.03228e-18
8240.00346 5.86345e-18
8242.00031 5.88924e-18
8243.99716 6.06241e-18
8246.00419 6.06817e-18
8248.00104 6.02153e-18
8249.99789 6.08601e-18
8252.00492 6.16788e-18
8254.00177 6.26918e-18
8255.99862 6.53513e-18
8257.99547 6.75817e-18
8260.00250 6.61518e-18
8261.99935 6.33121e-18
8263.99620 6.09753e-18
8266.00324 5.89773e-18
8268.00008 5.79192e-18
8269.99693 5.79925e-18
8272.00397 5.89444e-18
8274.00082 6.05100e-18
8275.99766 6.33795e-18
8278.00470 6.49156e-18
8280.00155 6.67426e-18
8281.99840 6.64898e-18
8283.99524 6.29945e-18
8286.00228 5.87972e-18
8287.99913 5.69030e-18
8289.99598 5.59705e-18
8292.00301 5.63267e-18
8293.99986 5.89869e-18
8295.99671 6.05001e-18
8298.00374 6.06604e-18
8300.00059 6.09985e-18
8301.99744 6.28743e-18
8304.00448 6.57931e-18
8306.00132 6.67351e-18
8307.99817 6.62407e-18
8309.99502 6.58620e-18
8312.00206 6.49385e-18
8313.99890 6.43028e-18
8315.99575 6.48874e-18
8318.00279 6.59878e-18
8319.99964 6.43840e-18
8321.99648 5.86861e-18
8324.00352 5.74018e-18
8326.00037 5.92166e-18
8327.99722 6.12697e-18
8330.00425 6.31724e-18
8332.00110 6.50443e-18
8333.99795 6.56422e-18
8335.99480 6.57459e-18
8338.00183 6.41369e-18
8339.99868 5.87818e-18
8341.99553 5.65772e-18
8344.00256 5.85767e-18
8345.99941 6.28136e-18
8347.99626 6.81445e-18
8350.00330 7.70617e-18
8352.00014 7.82712e-18
8353.99699 7.23750e-18
8356.00403 6.83682e-18
8358.00088 6.59292e-18
8359.99772 6.38428e-18
8362.00476 6.15004e-18
8364.00161 5.89864e-18
8365.99846 5.83729e-18
8367.99530 5.91077e-18
8370.00234 6.07620e-18
8371.99919 6.44316e-18
8373.99604 6.76459e-18
8376.00307 6.90233e-18
8377.99992 6.92997e-18
8379.99677 6.77632e-18
8382.00380 6.27310e-18
8384.00065 6.05640e-18
8385.99750 5.96166e-18
8388.00454 5.99889e-18
8390.00138 6.20120e-18
8391.99823 6.53087e-18
8393.99508 6.86067e-18
8396.00212 7.38631e-18
8397.99896 7.57093e-18
8399.99581 7.57754e-18
8402.00285 7.39962e-18
8403.99970 6.91743e-18
8405.99654 6.33747e-18
8408.00358 6.09562e-18
8410.00043 6.07335e-18
8411.99728 6.00670e-18
8414.00431 5.98625e-18
8416.00116 5.98725e-18
8417.99801 5.94976e-18
8419.99486 6.00077e-18
8422.00189 6.33449e-18
8423.99874 6.94295e-18
8425.99559 7.23639e-18
8428.00262 7.51822e-18
8429.99947 7.44282e-18
8431.99632 6.81213e-18
8434.00336 6.20802e-18
8436.00020 6.07353e-18
8437.99705 6.19767e-18
8440.00409 6.31309e-18
8442.00094 6.68128e-18
8443.99778 6.75115e-18
8446.00482 6.47426e-18
8448.00167 6.28975e-18
8449.99852 6.46690e-18
8451.99536 6.80557e-18
8454.00240 6.77902e-18
8455.99925 6.36040e-18
8457.99610 6.28180e-18
8460.00313 6.36633e-18
8461.99998 6.51820e-18
8463.99683 6.82524e-18
8466.00386 7.13736e-18
8468.00071 6.98558e-18
8469.99756 6.31562e-18
8472.00460 6.11424e-18
8474.00144 6.15793e-18
8475.99829 6.21884e-18
8477.99514 6.33448e-18
8480.00218 6.43964e-18
8481.99902 6.37392e-18
8483.99587 6.14930e-18
8486.00291 6.10143e-18
8487.99976 6.15526e-18
8489.99660 6.21278e-18
8492.00364 6.24741e-18
8494.00049 6.34319e-18
8495.99734 6.61523e-18
8498.00437 7.04659e-18
8500.00122 7.16075e-18
8501.99807 7.03682e-18
8504.00510 6.93069e-18
8506.00195 6.74826e-18
8507.99880 6.59859e-18
8509.99565 6.58610e-18
8512.00268 6.64654e-18
8513.99953 6.50799e-18
8515.99638 6.05964e-18
8518.00342 5.98704e-18
8520.00026 6.26159e-18
8521.99711 6.47777e-18
8524.00415 6.50683e-18
8526.00100 6.45137e-18
8527.99784 6.37906e-18
8529.99469 6.29248e-18
8532.00173 6.08637e-18
8533.99858 5.54873e-18
8535.99542 5.36940e-18
8538.00246 5.80076e-18
8539.99931 6.42270e-18
8541.99616 6.61968e-18
8544.00319 6.56608e-18
8546.00004 6.64172e-18
8547.99689 6.75539e-18
8550.00392 6.82351e-18
8552.00077 6.85810e-18
8553.99762 6.84710e-18
8556.00466 6.76214e-18
8558.00150 6.60770e-18
8559.99835 6.45497e-18
8561.99520 6.11984e-18
8564.00224 6.10496e-18
8565.99908 6.53453e-18
8567.99593 6.91953e-18
8570.00297 6.94113e-18
8571.99982 6.76152e-18
8573.99666 6.45520e-18
8576.00370 5.72087e-18
8578.00055 5.45762e-18
8579.99740 5.54029e-18
8582.00443 5.74225e-18
8584.00128 6.03723e-18
8585.99813 6.41677e-18
8587.99498 6.59453e-18
8590.00201 6.60381e-18
8591.99886 6.68930e-18
8593.99571 6.83764e-18
8596.00274 6.88550e-18
8597.99959 6.77520e-18
8599.99644 6.58172e-18
8602.00348 6.41307e-18
8604.00032 6.19758e-18
8605.99717 6.06483e-18
8608.00421 5.98461e-18
8610.00106 5.92843e-18
8611.99790 5.88927e-18
8613.99475 5.88316e-18
8616.00179 5.94197e-18
8617.99864 6.08620e-18
8619.99548 6.08962e-18
8622.00252 5.94006e-18
8623.99937 5.89831e-18
8625.99622 5.94874e-18
8628.00325 6.05071e-18
8630.00010 6.17503e-18
8631.99695 6.32905e-18
8634.00398 6.62237e-18
8636.00083 7.22918e-18
8637.99768 7.47242e-18
8640.00472 7.50470e-18
8642.00156 7.29610e-18
8643.99841 6.67367e-18
8645.99526 5.77685e-18
8648.00230 5.54314e-18
8649.99914 5.77280e-18
8651.99599 6.01745e-18
8654.00303 6.62655e-18
8655.99988 6.99137e-18
8657.99672 6.90766e-18
8660.00376 6.56723e-18
8662.00061 6.16734e-18
8663.99746 5.34042e-18
8665.99430 5.23654e-18
8668.00134 5.77569e-18
8669.99819 6.18922e-18
8671.99504 6.45718e-18
8674.00207 6.60528e-18
8675.99892 6.47808e-18
8677.99577 6.06817e-18
8680.00280 5.76356e-18
8681.99965 5.31272e-18
8683.99650 5.10346e-18
8686.00354 5.11977e-18
8688.00038 5.31912e-18
8689.99723 5.76258e-18
8692.00427 6.50229e-18
8694.00112 6.73897e-18
8695.99796 6.60857e-18
8698.00500 6.51586e-18
8700.00185 6.37050e-18
8701.99870 6.21810e-18
8703.99554 6.10930e-18
8706.00258 6.01746e-18
8707.99943 5.86885e-18
8709.99628 5.55130e-18
8712.00331 5.51752e-18
8714.00016 5.73418e-18
8715.99701 5.99412e-18
8718.00404 6.29601e-18
8720.00089 6.60372e-18
8721.99774 6.56820e-18
8724.00478 6.16500e-18
8726.00162 5.94078e-18
8727.99847 5.63794e-18
8729.99532 5.52030e-18
8732.00236 5.71380e-18
8733.99920 6.02763e-18
8735.99605 6.14628e-18
8738.00309 6.21957e-18
8739.99994 6.13320e-18
8741.99678 5.77915e-18
8744.00382 5.58071e-18
8746.00067 5.48753e-18
8747.99752 5.55724e-18
8750.00455 5.97840e-18
8752.00140 6.78235e-18
8753.99825 7.13706e-18
8755.99510 7.24269e-18
8758.00213 7.31542e-18
8759.99898 7.26080e-18
8761.99583 7.22594e-18
8764.00286 7.41430e-18
8765.99971 7.75714e-18
8767.99656 7.53642e-18
8770.00360 6.70504e-18
8772.00044 6.20506e-18
8773.99729 5.79554e-18
8776.00433 5.56142e-18
8778.00118 5.58506e-18
8779.99802 5.80550e-18
8782.00506 6.03500e-18
8784.00191 6.56960e-18
8785.99876 6.64106e-18
8787.99560 6.23760e-18
8790.00264 5.98876e-18
8791.99949 6.11354e-18
8793.99634 6.37136e-18
8796.00337 6.42322e-18
8798.00022 6.43028e-18
8799.99707 6.26573e-18
8802.00410 5.83020e-18
8804.00095 5.52231e-18
8805.99780 5.33151e-18
8807.99465 5.27005e-18
8810.00168 5.47249e-18
8811.99853 5.99284e-18
8813.99538 6.18328e-18
8816.00242 6.07163e-18
8817.99926 6.19983e-18
8819.99611 6.59684e-18
8822.00315 7.06943e-18
8824.00000 7.54777e-18
8825.99684 8.12671e-18
8828.00388 8.06548e-18
8830.00073 7.32040e-18
8831.99758 6.81464e-18
8834.00461 6.29294e-18
8836.00146 5.95098e-18
8837.99831 5.96849e-18
8840.00534 6.24166e-18
8842.00219 6.44226e-18
8843.99904 6.93479e-18
8845.99589 6.89512e-18
8848.00292 6.28688e-18
8849.99977 5.77380e-18
8851.99662 5.58986e-18
8854.00366 5.54621e-18
8856.00050 5.45878e-18
8857.99735 5.24075e-18
8860.00439 5.46897e-18
8862.00124 6.27371e-18
8863.99808 6.79860e-18
8865.99493 6.84839e-18
8868.00197 6.71794e-18
8869.99882 6.72372e-18
8871.99566 6.70475e-18
8874.00270 6.82754e-18
8875.99955 7.18111e-18
8877.99640 7.34563e-18
8880.00343 7.35733e-18
8882.00028 7.20122e-18
8883.99713 6.74485e-18
8886.00416 5.94174e-18
8888.00101 5.65933e-18
8889.99786 5.57088e-18
8892.00490 5.81025e-18
8894.00174 6.71883e-18
8895.99859 7.44161e-18
8897.99544 7.30048e-18
8900.00248 6.62037e-18
8901.99932 6.13657e-18
8903.99617 5.41771e-18
8906.00321 5.04519e-18
8908.00006 4.86442e-18
8909.99690 4.92541e-18
8912.00394 5.38268e-18
8914.00079 6.08050e-18
8915.99764 6.29323e-18
8918.00467 6.29177e-18
8920.00152 6.05289e-18
8921.99837 5.25901e-18
8923.99522 4.80305e-18
8926.00225 4.96093e-18
8927.99910 5.40323e-18
8929.99595 5.71444e-18
8932.00298 6.16547e-18
8933.99983 6.28455e-18
8935.99668 6.02621e-18
8938.00372 5.94572e-18
8940.00056 6.15588e-18
8941.99741 6.40252e-18
8944.00445 6.40445e-18
8946.00130 6.24478e-18
8947.99814 6.15596e-18
8949.99499 6.12760e-18
8952.00203 5.96314e-18
8953.99888 5.62794e-18
8955.99572 5.25486e-18
8958.00276 4.88926e-18
8959.99961 4.47224e-18
8961.99646 4.55556e-18
8964.00349 5.31491e-18
8966.00034 5.59455e-18
8967.99719 5.49517e-18
8970.00422 5.34995e-18
8972.00107 5.29229e-18
8973.99792 5.24940e-18
8976.00496 5.30020e-18
8978.00180 5.40808e-18
8979.99865 5.60155e-18
8981.99550 5.93226e-18
8984.00254 6.24109e-18
8985.99938 6.53348e-18
8987.99623 6.77411e-18
8990.00327 6.73777e-18
8992.00012 6.42253e-18
8993.99696 6.16522e-18
8996.00400 5.68501e-18
8998.00085 5.49161e-18
8999.99770 5.72131e-18
9001.99454 6.13777e-18
9004.00158 6.46134e-18
9005.99843 6.85314e-18
9007.99528 7.06474e-18
9010.00231 7.08274e-18
9011.99916 7.18228e-18
9013.99601 7.46501e-18
9016.00304 7.66157e-18
9017.99989 7.45698e-18
9019.99674 6.92137e-18
9022.00378 6.73934e-18
9024.00062 6.81341e-18
9025.99747 6.74049e-18
9028.00451 6.57684e-18
9030.00136 6.35344e-18
9031.99820 6.00297e-18
9033.99505 5.55574e-18
9036.00209 5.57730e-18
9037.99894 6.23649e-18
9039.99578 6.33736e-18
9042.00282 6.04145e-18
9043.99967 5.68881e-18
9045.99652 5.32383e-18
9048.00355 4.95314e-18
9050.00040 4.93735e-18
9051.99725 5.30693e-18
9054.00428 5.48867e-18
9056.00113 5.58795e-18
9057.99798 5.78628e-18
9059.99483 6.21078e-18
9062.00186 6.66649e-18
9063.99871 6.77633e-18
9065.99556 6.63450e-18
9068.00260 6.49102e-18
9069.99944 6.09124e-18
9071.99629 5.95596e-18
9074.00333 6.24978e-18
9076.00018 6.58990e-18
9077.99702 6.53121e-18
9080.00406 6.21869e-18
9082.00091 5.98719e-18
9083.99776 5.61472e-18
9085.99460 5.45182e-18
9088.00164 5.59107e-18
9089.99849 5.70804e-18
9091.99534 5.48710e-18
9094.00237 5.04621e-18
9095.99922 5.11296e-18
9097.99607 5.63175e-18
9100.00310 5.98601e-18
9101.99995 6.46025e-18
9103.99680 6.67201e-18
9106.00384 6.32301e-18
9108.00068 5.62738e-18
9109.99753 5.28110e-18
9112.00457 4.94836e-18
9114.00142 4.91858e-18
9115.99826 5.27442e-18
9117.99511 5.57065e-18
9120.00215 5.68003e-18
9121.99900 5.72331e-18
9123.99584 5.80614e-18
9126.00288 5.90686e-18
9127.99973 5.94958e-18
9129.99658 5.89973e-18
9132.00361 5.92325e-18
9134.00046 6.12911e-18
9135.99731 6.30943e-18
9138.00434 6.13512e-18
9140.00119 5.64523e-18
9141.99804 5.39703e-18
9143.99489 5.08637e-18
9146.00192 5.09784e-18
9147.99877 5.58088e-18
9149.99562 6.12093e-18
9152.00266 6.34998e-18
9153.99950 6.43993e-18
9155.99635 6.37246e-18
9158.00339 6.02670e-18
9160.00024 5.80450e-18
9161.99708 5.62225e-18
9164.00412 5.50249e-18
9166.00097 5.46585e-18
9167.99782 5.50139e-18
9170.00485 5.63466e-18
9172.00170 5.92401e-18
9173.99855 6.14741e-18
9175.99540 6.45226e-18
9178.00243 6.59961e-18
9179.99928 6.45665e-18
9181.99613 6.14895e-18
9184.00316 5.95280e-18
9186.00001 5.68994e-18
9187.99686 5.63605e-18
9190.00390 5.87711e-18
9192.00074 5.93937e-18
9193.99759 5.65908e-18
9196.00463 5.28858e-18
9198.00148 5.19947e-18
9199.99832 5.29326e-18
9201.99517 5.32598e-18
9204.00221 5.34819e-18
9205.99906 5.43582e-18
9207.99590 5.60342e-18
9210.00294 5.81067e-18
9211.99979 6.05897e-18
9213.99664 6.41666e-18
9216.00367 6.34053e-18
9218.00052 5.62248e-18
9219.99737 5.46007e-18
9222.00440 5.93988e-18
9224.00125 6.43106e-18
9225.99810 6.47357e-18
9227.99495 6.28170e-18
9230.00198 6.36877e-18
9231.99883 6.67183e-18
9233.99568 6.82482e-18
9236.00272 6.95107e-18
9237.99956 6.94868e-18
9239.99641 6.69380e-18
9242.00345 6.29583e-18
9244.00030 6.20174e-18
9245.99714 6.43230e-18
9248.00418 6.37047e-18
9250.00103 6.13812e-18
9251.99788 5.89562e-18
9254.00491 5.63640e-18
9256.00176 5.39252e-18
9257.99861 5.33375e-18
9259.99546 5.51179e-18
9262.00249 5.42760e-18
9263.99934 5.09580e-18
9265.99619 4.91852e-18
9268.00322 4.95675e-18
9270.00007 5.07386e-18
9271.99692 5.15205e-18
9274.00396 5.27060e-18
9276.00080 5.24615e-18
9277.99765 4.97401e-18
9279.99450 4.95267e-18
9282.00154 5.23354e-18
9283.99838 5.57010e-18
9285.99523 5.76297e-18
9288.00227 5.89498e-18
9289.99912 6.12248e-18
9291.99596 6.63900e-18
9294.00300 6.66014e-18
9295.99985 5.84224e-18
9297.99670 5.42041e-18
9300.00373 6.28506e-18
9302.00058 7.88811e-18
9303.99743 8.48748e-18
9306.00446 9.20627e-18
9308.00131 8.36007e-18
9309.99816 5.04688e-18
9312.00520 2.87403e-18
9314.00204 3.35446e-18
9315.99889 5.04063e-18
9317.99574 5.53030e-18
9320.00278 5.44895e-18
9321.99962 5.85739e-18
9323.99647 6.51675e-18
9326.00351 7.19629e-18
9328.00036 8.08369e-18
9329.99720 8.82983e-18
9332.00424 8.67329e-18
9334.00109 7.66126e-18
9335.99794 7.15002e-18
9337.99478 6.59764e-18
9340.00182 6.34933e-18
9341.99867 6.63812e-18
9343.99552 6.90833e-18
9346.00255 6.49626e-18
9347.99940 5.57102e-18
9349.99625 5.28907e-18
9352.00328 5.38556e-18
9354.00013 5.49878e-18
9355.99698 5.67447e-18
9358.00402 5.94724e-18
9360.00086 6.37643e-18
9361.99771 6.93732e-18
9364.00475 7.23350e-18
9366.00160 7.37844e-18
9367.99844 7.44908e-18
9369.99529 7.24395e-18
9372.00233 7.23751e-18
9373.99918 7.78938e-18
9375.99602 8.57457e-18
9378.00306 8.59918e-18
9379.99991 8.12780e-18
9381.99676 7.50551e-18
9384.00379 6.11529e-18
9386.00064 5.38291e-18
9387.99749 5.90184e-18
9390.00452 6.84950e-18
9392.00137 6.84582e-18
9393.99822 6.22643e-18
9395.99507 5.91619e-18
9398.00210 5.50976e-18
9399.99895 5.35736e-18
9401.99580 5.65279e-18
9404.00284 5.97851e-18
9405.99968 5.78318e-18
9407.99653 5.20436e-18
9410.00357 4.91688e-18
9412.00042 4.69562e-18
9413.99726 4.56342e-18
9416.00430 4.47819e-18
9418.00115 4.52919e-18
9419.99800 4.85020e-18
9421.99484 5.40840e-18
9424.00188 5.63886e-18
9425.99873 5.60998e-18
9427.99558 5.71614e-18
9430.00261 5.78020e-18
9431.99946 6.03782e-18
9433.99631 6.59021e-18
9436.00334 7.38398e-18
9438.00019 8.53330e-18
9439.99704 1.10580e-17
9442.00408 1.14098e-17
9444.00092 9.91361e-18
9445.99777 8.35363e-18
9448.00481 6.95856e-18
9450.00166 5.68118e-18
9451.99850 5.46172e-18
9453.99535 6.56258e-18
9456.00239 6.51533e-18
9457.99924 5.82740e-18
9459.99608 5.19436e-18
9462.00312 4.60512e-18
9463.99997 4.08423e-18
9465.99682 3.80093e-18
9468.00385 3.58365e-18
9470.00070 3.99707e-18
9471.99755 5.29230e-18
9474.00458 6.17220e-18
9476.00143 6.81374e-18
9477.99828 7.10281e-18
9479.99513 6.68339e-18
9482.00216 5.58002e-18
9483.99901 5.24022e-18
9485.99586 5.43535e-18
9488.00290 5.37211e-18
9489.99974 5.08210e-18
9491.99659 4.83524e-18
9494.00363 4.72814e-18
9496.00048 4.71016e-18
9497.99732 5.08608e-18
9500.00436 5.96985e-18
9502.00121 6.63641e-18
9503.99806 7.50554e-18
9505.99490 7.95414e-18
9508.00194 7.67451e-18
9509.99879 6.93170e-18
9511.99564 6.20964e-18
9514.00267 4.97928e-18
9515.99952 4.49975e-18
9517.99637 4.51687e-18
9520.00340 4.68861e-18
9522.00025 5.01387e-18
9523.99710 5.46649e-18
9526.00414 5.91793e-18
9528.00098 6.64587e-18
9529.99783 6.57686e-18
9532.00487 5.55988e-18
9534.00172 5.02930e-18
9535.99856 5.24716e-18
9537.99541 5.50416e-18
9540.00245 4.93516e-18
9541.99930 3.58559e-18
9543.99614 3.97146e-18
9546.00318 6.13515e-18
9548.00003 7.40885e-18
9549.99688 8.19044e-18
9552.00391 8.46791e-18
9554.00076 8.01612e-18
9555.99761 6.91686e-18
9557.99446 5.93497e-18
9560.00149 4.00706e-18
9561.99834 3.72954e-18
9563.99519 5.19092e-18
9566.00222 6.68858e-18
9567.99907 7.65239e-18
9569.99592 8.37692e-18
9572.00296 8.10419e-18
9573.99980 6.50790e-18
9575.99665 5.60887e-18
9578.00369 4.81010e-18
9580.00054 4.14996e-18
9581.99738 3.52968e-18
9584.00442 3.10870e-18
9586.00127 3.37274e-18
9587.99812 4.48352e-18
9590.00515 4.98508e-18
9592.00200 5.26479e-18
9593.99885 5.49095e-18
9595.99570 5.64838e-18
9598.00273 5.76140e-18
9599.99958 5.89970e-18
9601.99643 6.03499e-18
9604.00346 6.16138e-18
9606.00031 6.44211e-18
9607.99716 6.38641e-18
9610.00420 5.99033e-18
9612.00104 5.38470e-18
9613.99789 4.46693e-18
9615.99474 3.13011e-18
9618.00178 3.31957e-18
9619.99862 5.53059e-18
9621.99547 6.11901e-18
9624.00251 5.29829e-18
9625.99936 4.27863e-18
9627.99620 3.48013e-18
9630.00324 2.69373e-18
9632.00009 2.96565e-18
9633.99694 4.60983e-18
9636.00397 5.36401e-18
9638.00082 5.88440e-18
9639.99767 6.00752e-18
9642.00470 5.43323e-18
9644.00155 4.53053e-18
9645.99840 4.48035e-18
9647.99525 5.14061e-18
9650.00228 5.38523e-18
9651.99913 5.65414e-18
9653.99598 5.66184e-18
9656.00302 5.28185e-18
9657.99986 4.72572e-18
9659.99671 4.28388e-18
9662.00375 3.69267e-18
9664.00060 3.68975e-18
9665.99744 4.36094e-18
9668.00448 4.76050e-18
9670.00133 4.89411e-18
9671.99818 4.89742e-18
9673.99502 4.80535e-18
9676.00206 4.58250e-18
9677.99891 4.39795e-18
9679.99576 3.96462e-18
9682.00279 4.00617e-18
9683.99964 4.78888e-18
9685.99649 5.40511e-18
9688.00352 5.14413e-18
9690.00037 4.34780e-18
9691.99722 4.01732e-18
9694.00426 3.82106e-18
9696.00110 3.71572e-18
9697.99795 3.75064e-18
9699.99480 3.82482e-18
9702.00184 3.87542e-18
9703.99868 3.95356e-18
9705.99553 4.18959e-18
9708.00257 4.67583e-18
9709.99942 4.93363e-18
9711.99626 5.08838e-18
9714.00330 5.18512e-18
9716.00015 5.18281e-18
9717.99700 5.15357e-18
9720.00403 5.30725e-18
9722.00088 5.69419e-18
9723.99773 5.73348e-18
9726.00476 5.64154e-18
9728.00161 5.30930e-18
9729.99846 4.53344e-18
9731.99531 3.72587e-18
9734.00234 3.43672e-18
9735.99919 3.42093e-18
9737.99604 3.74573e-18
9740.00308 4.65170e-18
9741.99992 5.33477e-18
9743.99677 5.97323e-18
9746.00381 6.39424e-18
9748.00066 6.36081e-18
9749.99750 5.96110e-18
9751.99435 5.60283e-18
9754.00139 4.97720e-18
9755.99824 4.63296e-18
9757.99508 4.39583e-18
9760.00212 4.41816e-18
9761.99897 4.96764e-18
9763.99582 5.84282e-18
9766.00285 5.86586e-18
9767.99970 5.14847e-18
9769.99655 4.71669e-18
9772.00358 4.00331e-18
9774.00043 3.77783e-18
9775.99728 4.55108e-18
9778.00432 5.72183e-18
9780.00116 5.86308e-18
9781.99801 5.14458e-18
9784.00505 5.01973e-18
9786.00190 5.33307e-18
9787.99874 5.27047e-18
9789.99559 4.56802e-18
9792.00263 3.69986e-18
9793.99948 3.25134e-18
9795.99632 2.83398e-18
9798.00336 3.24876e-18
9800.00021 5.08000e-18
9801.99706 5.80941e-18
9804.00409 5.21220e-18
9806.00094 4.26565e-18
9807.99779 3.66895e-18
9809.99464 3.01661e-18
9812.00167 3.16596e-18
9813.99852 4.52946e-18
9815.99537 4.91655e-18
9818.00240 4.43880e-18
9819.99925 3.75221e-18
9821.99610 3.03397e-18
9824.00314 2.18625e-18
9825.99998 2.40891e-18
9827.99683 4.04010e-18
9830.00387 4.60009e-18
9832.00072 4.52003e-18
9833.99756 4.27591e-18
9836.00460 3.88617e-18
9838.00145 3.40908e-18
9839.99830 3.52121e-18
9841.99514 4.26215e-18
9844.00218 4.60525e-18
9845.99903 4.83660e-18
9847.99588 5.01195e-18
9850.00291 5.17329e-18
9851.99976 5.25456e-18
9853.99661 5.10905e-18
9856.00364 4.65237e-18
9858.00049 4.54579e-18
9859.99734 4.69779e-18
9862.00438 4.77319e-18
9864.00122 4.84000e-18
9865.99807 4.79391e-18
9868.00511 4.41464e-18
9870.00196 3.71561e-18
9871.99880 3.29410e-18
9873.99565 2.75273e-18
9876.00269 2.72113e-18
9877.99954 3.44831e-18
9879.99638 4.15158e-18
9882.00342 4.20430e-18
9884.00027 3.89135e-18
9885.99712 3.73482e-18
9888.00415 3.37190e-18
9890.00100 3.40027e-18
9891.99785 4.11739e-18
9893.99470 4.43834e-18
9896.00173 3.59919e-18
9897.99858 2.16034e-18
9899.99543 1.86917e-18
9902.00246 2.41153e-18
9903.99931 2.73177e-18
9905.99616 3.28414e-18
9908.00320 3.65038e-18
9910.00004 3.65572e-18
9911.99689 3.50137e-18
9914.00393 3.52113e-18
9916.00078 3.51092e-18
9917.99762 3.78153e-18
9920.00466 4.59083e-18
9922.00151 4.92162e-18
9923.99836 4.55188e-18
9925.99520 3.92313e-18
9928.00224 3.46119e-18
9929.99909 2.79315e-18
9931.99594 3.05787e-18
9934.00297 4.41030e-18
9935.99982 5.28109e-18
9937.99667 5.88423e-18
9940.00370 6.11474e-18
9942.00055 5.53312e-18
9943.99740 4.14416e-18
9946.00444 4.27862e-18
9948.00128 6.09547e-18
9949.99813 6.62629e-18
9951.99498 6.00881e-18
9954.00202 5.27659e-18
9955.99886 4.95803e-18
9957.99571 4.76272e-18
9960.00275 4.52730e-18
9961.99960 3.89469e-18
9963.99644 4.23482e-18
9966.00348 6.32572e-18
9968.00033 7.17133e-18
9969.99718 5.13411e-18
9972.00421 1.81253e-18
9974.00106 7.82865e-19
9975.99791 1.17969e-18
9978.00494 1.27101e-18
9980.00179 1.66249e-18
9981.99864 2.11274e-18
9983.99549 2.62234e-18
9986.00252 3.17515e-18
9987.99937 3.67676e-18
9989.99622 4.21203e-18
9992.00326 4.55005e-18
9994.00010 4.77391e-18
9995.99695 4.85133e-18
9998.00399 4.68513e-18
10000.00084 4.48352e-18
