# wavelength flux
3472.10415 1.32299e-17
3473.57145 1.33182e-17
3475.04880 1.57070e-17
3476.51610 1.59269e-17
3477.98340 1.43248e-17
3479.45070 1.27872e-17
3480.92805 9.95643e-18
3482.39535 1.20263e-17
3483.86265 1.48552e-17
3485.32995 1.83126e-17
3486.80730 1.17559e-17
3488.27460 1.07021e-17
3489.74190 1.32777e-17
3491.21925 1.66043e-17
3492.68655 8.68444e-18
3494.15385 1.02478e-17
3495.62115 1.43228e-17
3497.09850 9.66951e-18
3498.56580 9.97400e-18
3500.03310 1.58744e-17
3501.50040 1.29901e-17
3502.97775 1.18821e-17
3504.44505 1.03571e-17
3505.91235 1.02034e-17
3507.38970 1.18127e-17
3508.85700 1.40656e-17
3510.32430 1.35534e-17
3511.79160 1.34331e-17
3513.26895 9.86495e-18
3514.73625 1.23029e-17
3516.20355 1.30388e-17
3517.67085 9.87186e-18
3519.14820 1.79275e-17
3520.61550 1.19677e-17
3522.08280 1.00126e-17
3523.56015 1.10422e-17
3525.02745 8.64404e-18
3526.49475 1.46012e-17
3527.96205 1.14506e-17
3529.43940 1.22230e-17
3530.90670 8.29102e-18
3532.37400 7.59965e-18
3533.84130 1.12581e-17
3535.31865 1.57584e-17
3536.78595 1.20774e-17
3538.25325 1.34534e-17
3539.73060 1.29062e-17
3541.19790 1.18831e-17
3542.66520 1.24097e-17
3544.13250 8.85642e-18
3545.60985 1.25436e-17
3547.07715 1.39186e-17
3548.54445 1.37802e-17
3550.01175 8.48437e-18
3551.48910 7.53319e-18
3552.95640 6.29463e-18
3554.42370 6.23304e-18
3555.90105 9.54727e-18
3557.36835 1.44047e-17
3558.83565 9.28963e-18
3560.30295 9.73911e-18
3561.78030 6.91772e-18
3563.24760 8.24994e-18
3564.71490 9.85105e-18
3566.18220 7.76500e-18
3567.65955 8.79923e-18
3569.12685 1.01124e-17
3570.59415 1.16703e-17
3572.07150 6.33038e-18
3573.53880 5.05597e-18
3575.00610 9.59997e-18
3576.47340 1.34469e-17
3577.95075 9.66800e-18
3579.41805 9.50600e-18
3580.88535 9.31706e-18
3582.35265 1.11422e-17
3583.83000 1.27013e-17
3585.29730 7.88483e-18
3586.76460 8.56029e-18
3588.24195 1.08770e-17
3589.70925 1.06624e-17
3591.17655 1.01777e-17
3592.64385 1.05518e-17
3594.12120 9.62269e-18
3595.58850 9.26041e-18
3597.05580 1.19383e-17
3598.52310 1.23798e-17
3600.00045 1.29313e-17
3601.46775 9.44911e-18
3602.93505 9.93264e-18
3604.41240 1.08454e-17
3605.87970 1.18033e-17
3607.34700 1.14994e-17
3608.81430 1.29869e-17
3610.29165 1.09559e-17
3611.75895 7.50603e-18
3613.22625 8.62201e-18
3614.69355 1.31282e-17
3616.17090 8.21393e-18
3617.63820 5.90216e-18
3619.10550 9.97136e-18
3620.58285 1.18319e-17
3622.05015 9.36052e-18
3623.51745 1.14612e-17
3624.98475 7.30470e-18
3626.46210 9.52500e-18
3627.92940 7.32331e-18
3629.39670 6.54034e-18
3630.86400 1.01979e-17
3632.34135 1.22332e-17
3633.80865 8.03951e-18
3635.27595 7.82662e-18
3636.75330 8.83158e-18
3638.22060 7.75101e-18
3639.68790 8.80414e-18
3641.15520 7.98211e-18
3642.63255 4.17328e-18
3644.09985 5.57212e-18
3645.56715 1.20945e-17
3647.03445 1.29243e-17
3648.51180 1.09743e-17
3649.97910 1.10153e-17
3651.44640 1.20784e-17
3652.92375 1.10582e-17
3654.39105 8.55711e-18
3655.85835 9.55512e-18
3657.32565 8.42543e-18
3658.80300 8.78800e-18
3660.27030 1.04295e-17
3661.73760 1.03887e-17
3663.20490 1.17540e-17
3664.68225 1.22003e-17
3666.14955 1.44379e-17
3667.61685 1.49236e-17
3669.09420 1.39728e-17
3670.56150 1.17948e-17
3672.02880 1.39092e-17
3673.49610 1.25834e-17
3674.97345 1.17779e-17
3676.44075 1.67146e-17
3677.90805 1.67104e-17
3679.37535 1.26489e-17
3680.85270 1.39441e-17
3682.32000 1.43026e-17
3683.78730 1.60550e-17
3685.26465 1.62870e-17
3686.73195 1.63171e-17
3688.19925 1.59392e-17
3689.66655 1.59405e-17
3691.14390 1.48028e-17
3692.61120 1.57023e-17
3694.07850 1.44982e-17
3695.54580 1.37623e-17
3697.02315 1.90054e-17
3698.49045 1.60549e-17
3699.95775 1.53557e-17
3701.43510 1.51069e-17
3702.90240 1.38850e-17
3704.36970 1.49619e-17
3705.83700 1.48846e-17
3707.31435 1.61897e-17
3708.78165 1.57071e-17
3710.24895 1.47558e-17
3711.71625 1.27012e-17
3713.19360 1.26489e-17
3714.66090 1.23298e-17
3716.12820 1.24712e-17
3717.60555 1.42439e-17
3719.07285 1.39832e-17
3720.54015 1.31948e-17
3722.00745 1.13888e-17
3723.48480 1.16105e-17
3724.95210 1.46275e-17
3726.41940 1.05715e-17
3727.88670 1.05943e-17
3729.36405 1.10740e-17
3730.83135 9.53953e-18
3732.29865 1.15473e-17
3733.77600 1.17102e-17
3735.24330 1.01557e-17
3736.71060 9.12515e-18
3738.17790 8.59189e-18
3739.65525 1.01967e-17
3741.12255 8.80668e-18
3742.58985 8.77219e-18
3744.05715 8.37500e-18
3745.53450 8.36801e-18
3747.00180 7.55664e-18
3748.46910 5.69742e-18
3749.94645 6.83915e-18
3751.41375 8.34320e-18
3752.88105 8.01575e-18
3754.34835 9.51692e-18
3755.82570 8.40015e-18
3757.29300 7.16152e-18
3758.76030 6.58216e-18
3760.22760 5.69693e-18
3761.70495 5.31018e-18
3763.17225 5.56834e-18
3764.63955 5.41357e-18
3766.11690 4.90424e-18
3767.58420 6.61959e-18
3769.05150 6.04905e-18
3770.51880 5.28192e-18
3771.99615 4.57835e-18
3773.46345 4.70794e-18
3774.93075 6.60677e-18
3776.39805 4.79669e-18
3777.87540 4.05235e-18
3779.34270 6.09426e-18
3780.81000 4.73944e-18
3782.28735 5.67829e-18
3783.75465 6.11122e-18
3785.22195 4.44063e-18
3786.68925 3.95955e-18
3788.16660 4.82027e-18
3789.63390 7.09901e-18
3791.10120 6.11277e-18
3792.56850 4.07186e-18
3794.04585 4.98896e-18
3795.51315 5.74691e-18
3796.98045 3.64054e-18
3798.45780 4.22535e-18
3799.92510 5.34602e-18
3801.39240 6.91068e-18
3802.85970 4.62732e-18
3804.33705 4.47698e-18
3805.80435 6.03682e-18
3807.27165 5.32347e-18
3808.73895 4.26757e-18
3810.21630 6.05460e-18
3811.68360 6.69337e-18
3813.15090 7.12658e-18
3814.62825 4.48070e-18
3816.09555 4.62181e-18
3817.56285 5.60287e-18
3819.03015 4.50443e-18
3820.50750 4.54031e-18
3821.97480 4.66630e-18
3823.44210 4.83343e-18
3824.91945 5.13878e-18
3826.38675 6.29613e-18
3827.85405 7.49067e-18
3829.32135 5.50674e-18
3830.79870 6.19303e-18
3832.26600 6.70216e-18
3833.73330 6.23131e-18
3835.20060 5.53646e-18
3836.67795 6.10826e-18
3838.14525 7.14821e-18
3839.61255 5.73004e-18
3841.07985 6.11821e-18
3842.55720 8.03474e-18
3844.02450 6.75361e-18
3845.49180 6.87342e-18
3846.96915 5.83748e-18
3848.43645 6.98169e-18
3849.90375 8.08407e-18
3851.37105 7.84092e-18
3852.84840 7.38407e-18
3854.31570 6.55608e-18
3855.78300 7.58111e-18
3857.25030 7.67047e-18
3858.72765 9.06704e-18
3860.19495 8.41516e-18
3861.66225 7.00537e-18
3863.13960 7.10884e-18
3864.60690 7.92001e-18
3866.07420 7.66854e-18
3867.54150 7.34625e-18
3869.01885 1.03857e-17
3870.48615 1.07708e-17
3871.95345 8.48547e-18
3873.43080 1.05134e-17
3874.89810 1.18395e-17
3876.36540 1.34148e-17
3877.83270 1.20064e-17
3879.31005 9.81086e-18
3880.77735 1.16843e-17
3882.24465 1.30261e-17
3883.71195 1.33971e-17
3885.18930 1.36230e-17
3886.65660 1.11959e-17
3888.12390 1.34468e-17
3889.60125 1.29103e-17
3891.06855 1.28591e-17
3892.53585 1.48970e-17
3894.00315 1.53874e-17
3895.48050 1.54106e-17
3896.94780 1.46849e-17
3898.41510 1.39183e-17
3899.88240 1.55558e-17
3901.35975 1.46698e-17
3902.82705 1.54316e-17
3904.29435 1.51900e-17
3905.76165 1.66936e-17
3907.23900 1.65673e-17
3908.70630 1.65367e-17
3910.17360 1.69437e-17
3911.65095 1.56491e-17
3913.11825 1.59311e-17
3914.58555 1.77602e-17
3916.05285 1.75495e-17
3917.53020 1.54162e-17
3918.99750 1.78502e-17
3920.46480 1.86295e-17
3921.94215 1.97919e-17
3923.40945 2.03263e-17
3924.87675 2.07193e-17
3926.34405 2.13572e-17
3927.82140 2.19263e-17
3929.28870 2.22508e-17
3930.75600 1.98128e-17
3932.22330 2.05608e-17
3933.70065 2.00677e-17
3935.16795 2.00702e-17
3936.63525 2.17263e-17
3938.11260 2.23187e-17
3939.57990 2.40837e-17
3941.04720 2.54086e-17
3942.51450 2.46178e-17
3943.99185 2.35891e-17
3945.45915 2.48773e-17
3946.92645 2.58024e-17
3948.39375 2.38936e-17
3949.87110 2.32930e-17
3951.33840 2.26827e-17
3952.80570 2.29556e-17
3954.28305 2.37326e-17
3955.75035 2.22388e-17
3957.21765 2.32483e-17
3958.68495 2.50048e-17
3960.16230 2.42110e-17
3961.62960 2.39983e-17
3963.09690 2.27265e-17
3964.56420 2.22906e-17
3966.04155 2.27448e-17
3967.50885 2.32320e-17
3968.97615 2.22679e-17
3970.45350 2.32802e-17
3971.92080 2.43708e-17
3973.38810 2.37623e-17
3974.85540 2.34007e-17
3976.33275 2.47901e-17
3977.80005 2.45703e-17
3979.26735 2.23056e-17
3980.73465 2.16449e-17
3982.21200 2.15671e-17
3983.67930 2.41019e-17
3985.14660 2.18078e-17
3986.62395 2.06879e-17
3988.09125 1.97004e-17
3989.55855 1.98004e-17
3991.02585 2.06408e-17
3992.50320 2.00906e-17
3993.97050 2.09951e-17
3995.43780 2.11912e-17
3996.90510 2.21173e-17
3998.38245 2.04427e-17
3999.84975 2.11862e-17
4001.31705 2.24202e-17
4002.79440 2.37349e-17
4004.26170 2.28530e-17
4005.72900 2.13612e-17
4007.19630 2.12549e-17
4008.67365 2.21192e-17
4010.14095 2.28739e-17
4011.60825 2.36479e-17
4013.07555 2.40200e-17
4014.55290 2.32356e-17
4016.02020 2.16266e-17
4017.48750 2.26543e-17
4018.96485 2.10504e-17
4020.43215 2.32629e-17
4021.89945 2.20043e-17
4023.36675 2.06393e-17
4024.84410 2.15085e-17
4026.31140 2.11348e-17
4027.77870 1.98909e-17
4029.24600 2.10516e-17
4030.72335 2.00695e-17
4032.19065 2.25198e-17
4033.65795 2.27785e-17
4035.13530 2.06695e-17
4036.60260 2.16165e-17
4038.06990 2.10851e-17
4039.53720 1.93393e-17
4041.01455 2.02367e-17
4042.48185 1.99226e-17
4043.94915 1.99918e-17
4045.41645 1.94224e-17
4046.89380 1.94701e-17
4048.36110 2.05128e-17
4049.82840 2.04644e-17
4051.30575 1.97091e-17
4052.77305 1.82498e-17
4054.24035 1.78152e-17
4055.70765 1.96261e-17
4057.18500 1.95132e-17
4058.65230 1.82391e-17
4060.11960 1.69092e-17
4061.58690 1.60232e-17
4063.06425 1.50334e-17
4064.53155 1.50115e-17
4065.99885 1.66495e-17
4067.47620 1.60658e-17
4068.94350 1.59451e-17
4070.41080 1.58602e-17
4071.87810 1.73205e-17
4073.35545 1.71588e-17
4074.82275 1.47805e-17
4076.29005 1.46855e-17
4077.75735 1.58447e-17
4079.23470 1.55639e-17
4080.70200 1.62897e-17
4082.16930 1.60148e-17
4083.64665 1.69118e-17
4085.11395 1.57573e-17
4086.58125 1.63025e-17
4088.04855 1.55070e-17
4089.52590 1.46415e-17
4090.99320 1.48504e-17
4092.46050 1.54845e-17
4093.92780 1.55187e-17
4095.40515 1.67408e-17
4096.87245 1.74341e-17
4098.33975 1.54070e-17
4099.81710 1.55876e-17
4101.28440 1.60769e-17
4102.75170 1.53932e-17
4104.21900 1.55792e-17
4105.69635 1.59463e-17
4107.16365 1.55353e-17
4108.63095 1.55795e-17
4110.09825 1.44732e-17
4111.57560 1.40993e-17
4113.04290 1.48863e-17
4114.51020 1.40133e-17
4115.98755 1.36761e-17
4117.45485 1.32536e-17
4118.92215 1.12875e-17
4120.38945 1.11508e-17
4121.86680 1.17514e-17
4123.33410 1.14995e-17
4124.80140 1.15153e-17
4126.26870 1.15945e-17
4127.74605 1.18139e-17
4129.21335 1.29964e-17
4130.68065 1.14921e-17
4132.15800 1.23294e-17
4133.62530 1.24636e-17
4135.09260 1.27890e-17
4136.55990 1.36741e-17
4138.03725 1.27046e-17
4139.50455 1.30438e-17
4140.97185 1.28489e-17
4142.43915 1.32479e-17
4143.91650 1.37437e-17
4145.38380 1.44329e-17
4146.85110 1.43389e-17
4148.32845 1.33488e-17
4149.79575 1.47122e-17
4151.26305 1.35884e-17
4152.73035 1.19758e-17
4154.20770 1.35609e-17
4155.67500 1.32645e-17
4157.14230 1.53284e-17
4158.60960 1.40270e-17
4160.08695 1.25770e-17
4161.55425 1.41814e-17
4163.02155 1.33415e-17
4164.49890 1.21079e-17
4165.96620 1.27244e-17
4167.43350 1.35771e-17
4168.90080 1.23290e-17
4170.37815 1.27329e-17
4171.84545 1.22491e-17
4173.31275 1.29103e-17
4174.78005 1.23018e-17
4176.25740 1.19391e-17
4177.72470 1.24957e-17
4179.19200 1.22576e-17
4180.66935 1.23269e-17
4182.13665 1.26449e-17
4183.60395 1.32352e-17
4185.07125 1.34204e-17
4186.54860 1.35138e-17
4188.01590 1.34024e-17
4189.48320 1.33335e-17
4190.95050 1.34987e-17
4192.42785 1.35585e-17
4193.89515 1.35116e-17
4195.36245 1.33462e-17
4196.83980 1.44553e-17
4198.30710 1.45836e-17
4199.77440 1.49533e-17
4201.24170 1.41287e-17
4202.71905 1.32396e-17
4204.18635 1.34292e-17
4205.65365 1.35430e-17
4207.12095 1.34552e-17
4208.59830 1.36164e-17
4210.06560 1.37972e-17
4211.53290 1.39730e-17
4213.01025 1.35142e-17
4214.47755 1.34959e-17
4215.94485 1.34111e-17
4217.41215 1.25043e-17
4218.88950 1.26643e-17
4220.35680 1.26683e-17
4221.82410 1.22965e-17
4223.29140 1.25583e-17
4224.76875 1.27803e-17
4226.23605 1.28776e-17
4227.70335 1.21064e-17
4229.18070 1.26507e-17
4230.64800 1.29190e-17
4232.11530 1.24862e-17
4233.58260 1.35967e-17
4235.05995 1.28156e-17
4236.52725 1.28811e-17
4237.99455 1.29033e-17
4239.46185 1.16075e-17
4240.93920 1.31985e-17
4242.40650 1.28464e-17
4243.87380 1.30334e-17
4245.35115 1.29304e-17
4246.81845 1.30908e-17
4248.28575 1.25219e-17
4249.75305 1.27321e-17
4251.23040 1.36785e-17
4252.69770 1.39515e-17
4254.16500 1.30854e-17
4255.63230 1.24488e-17
4257.10965 1.28041e-17
4258.57695 1.37484e-17
4260.04425 1.30200e-17
4261.52160 1.29147e-17
4262.98890 1.28815e-17
4264.45620 1.36609e-17
4265.92350 1.38601e-17
4267.40085 1.32967e-17
4268.86815 1.51805e-17
4270.33545 1.47659e-17
4271.81280 1.42830e-17
4273.28010 1.46357e-17
4274.74740 1.44393e-17
4276.21470 1.49048e-17
4277.69205 1.37200e-17
4279.15935 1.36514e-17
4280.62665 1.42406e-17
4282.09395 1.42185e-17
4283.57130 1.51730e-17
4285.03860 1.43127e-17
4286.50590 1.48473e-17
4287.98325 1.47344e-17
4289.45055 1.41702e-17
4290.91785 1.38000e-17
4292.38515 1.41312e-17
4293.86250 1.43163e-17
4295.32980 1.44209e-17
4296.79710 1.47138e-17
4298.26440 1.56369e-17
4299.74175 1.47354e-17
4301.20905 1.42449e-17
4302.67635 1.51027e-17
4304.14365 1.58390e-17
4305.62100 1.56110e-17
4307.08830 1.48888e-17
4308.55560 1.57435e-17
4310.03295 1.61064e-17
4311.50025 1.57305e-17
4312.96755 1.52833e-17
4314.43485 1.56738e-17
4315.91220 1.60696e-17
4317.37950 1.49618e-17
4318.84680 1.52162e-17
4320.32415 1.66764e-17
4321.79145 1.74593e-17
4323.25875 1.58678e-17
4324.72605 1.51966e-17
4326.20340 1.48287e-17
4327.67070 1.58560e-17
4329.13800 1.58430e-17
4330.60530 1.54926e-17
4332.08265 1.55104e-17
4333.54995 1.62461e-17
4335.01725 1.57498e-17
4336.49460 1.62139e-17
4337.96190 1.66751e-17
4339.42920 1.54324e-17
4340.89650 1.55535e-17
4342.37385 1.61809e-17
4343.84115 1.59532e-17
4345.30845 1.48839e-17
4346.77575 1.59764e-17
4348.25310 1.64319e-17
4349.72040 1.59338e-17
4351.18770 1.67862e-17
4352.65500 1.67321e-17
4354.13235 1.72696e-17
4355.59965 1.68669e-17
4357.06695 1.53081e-17
4358.54430 1.56224e-17
4360.01160 1.52440e-17
4361.47890 1.54238e-17
4362.94620 1.42359e-17
4364.42355 1.45726e-17
4365.89085 1.45943e-17
4367.35815 1.43571e-17
4368.83550 1.36611e-17
4370.30280 1.49794e-17
4371.77010 1.42062e-17
4373.23740 1.39956e-17
4374.71475 1.37396e-17
4376.18205 1.41887e-17
4377.64935 1.45690e-17
4379.11665 1.34344e-17
4380.59400 1.29042e-17
4382.06130 1.23783e-17
4383.52860 1.23646e-17
4385.00595 1.29134e-17
4386.47325 1.25622e-17
4387.94055 1.17497e-17
4389.40785 1.17032e-17
4390.88520 1.16465e-17
4392.35250 1.24452e-17
4393.81980 1.25178e-17
4395.28710 1.19425e-17
4396.76445 1.14018e-17
4398.23175 1.10464e-17
4399.69905 1.09242e-17
4401.17640 1.04648e-17
4402.64370 1.01563e-17
4404.11100 9.79905e-18
4405.57830 9.84335e-18
4407.05565 9.98599e-18
4408.52295 1.07768e-17
4409.99025 1.03276e-17
4411.45755 9.88705e-18
4412.93490 1.01203e-17
4414.40220 9.99600e-18
4415.86950 9.55510e-18
4417.34685 9.32220e-18
4418.81415 9.53245e-18
4420.28145 9.56786e-18
4421.74875 9.38011e-18
4423.22610 8.89536e-18
4424.69340 9.44080e-18
4426.16070 9.74999e-18
4427.62800 9.46716e-18
4429.10535 9.62606e-18
4430.57265 9.28598e-18
4432.03995 9.49022e-18
4433.51730 9.83714e-18
4434.98460 9.84009e-18
4436.45190 1.02113e-17
4437.91920 1.12012e-17
4439.39655 1.13499e-17
4440.86385 1.06950e-17
4442.33115 1.07619e-17
4443.79845 1.06295e-17
4445.27580 1.01447e-17
4446.74310 1.05331e-17
4448.21040 1.00869e-17
4449.67770 1.00156e-17
4451.15505 1.03670e-17
4452.62235 1.10332e-17
4454.08965 1.08357e-17
4455.56700 1.05292e-17
4457.03430 9.53232e-18
4458.50160 1.00007e-17
4459.96890 1.07059e-17
4461.44625 9.92829e-18
4462.91355 1.01748e-17
4464.38085 1.17116e-17
4465.85820 1.19103e-17
4467.32550 1.14387e-17
4468.79280 1.05087e-17
4470.26010 1.13771e-17
4471.73745 1.16906e-17
4473.20475 1.17519e-17
4474.67205 1.21677e-17
4476.13935 1.19313e-17
4477.61670 1.23519e-17
4479.08400 1.25212e-17
4480.55130 1.33003e-17
4482.02865 1.25804e-17
4483.49595 1.22211e-17
4484.96325 1.34699e-17
4486.43055 1.37951e-17
4487.90790 1.22342e-17
4489.37520 1.26010e-17
4490.84250 1.33832e-17
4492.30980 1.40526e-17
4493.78715 1.37941e-17
4495.25445 1.41064e-17
4496.72175 1.38751e-17
4498.19910 1.40677e-17
4499.66640 1.39360e-17
4501.13370 1.44387e-17
4502.60100 1.38338e-17
4504.07835 1.34311e-17
4505.54565 1.51023e-17
4507.01295 1.44523e-17
4508.48025 1.51985e-17
4509.95760 1.61471e-17
4511.42490 1.61438e-17
4512.89220 1.61592e-17
4514.36955 1.53234e-17
4515.83685 1.54840e-17
4517.30415 1.55365e-17
4518.77145 1.68870e-17
4520.24880 1.62896e-17
4521.71610 1.64220e-17
4523.18340 1.71318e-17
4524.65070 1.68782e-17
4526.12805 1.62656e-17
4527.59535 1.76445e-17
4529.06265 1.67468e-17
4530.54000 1.62349e-17
4532.00730 1.67649e-17
4533.47460 1.73062e-17
4534.94190 1.76708e-17
4536.41925 1.64908e-17
4537.88655 1.78658e-17
4539.35385 1.77552e-17
4540.82115 1.88697e-17
4542.29850 1.93471e-17
4543.76580 1.86797e-17
4545.23310 1.74759e-17
4546.71045 1.83437e-17
4548.17775 1.90324e-17
4549.64505 1.97583e-17
4551.11235 1.94641e-17
4552.58970 1.89236e-17
4554.05700 1.96751e-17
4555.52430 1.96007e-17
4556.99160 1.95597e-17
4558.46895 2.01048e-17
4559.93625 1.92640e-17
4561.40355 1.87027e-17
4562.88090 1.89940e-17
4564.34820 1.99794e-17
4565.81550 2.06580e-17
4567.28280 2.02615e-17
4568.76015 2.05609e-17
4570.22745 2.02459e-17
4571.69475 1.90821e-17
4573.16205 2.07211e-17
4574.63940 2.07868e-17
4576.10670 1.98462e-17
4577.57400 2.03765e-17
4579.05135 1.95120e-17
4580.51865 1.97006e-17
4581.98595 2.00461e-17
4583.45325 1.96554e-17
4584.93060 2.02646e-17
4586.39790 2.08113e-17
4587.86520 2.09668e-17
4589.33250 2.14033e-17
4590.80985 2.06134e-17
4592.27715 1.99005e-17
4593.74445 2.01539e-17
4595.22180 2.00532e-17
4596.68910 2.06946e-17
4598.15640 2.16653e-17
4599.62370 2.14954e-17
4601.10105 2.05690e-17
4602.56835 2.11422e-17
4604.03565 1.99901e-17
4605.50295 2.01282e-17
4606.98030 2.11761e-17
4608.44760 2.05395e-17
4609.91490 1.98825e-17
4611.39225 1.97162e-17
4612.85955 2.02580e-17
4614.32685 1.89547e-17
4615.79415 1.94625e-17
4617.27150 2.01565e-17
4618.73880 2.05819e-17
4620.20610 2.10759e-17
4621.67340 2.03319e-17
4623.15075 1.95576e-17
4624.61805 1.98847e-17
4626.08535 1.97478e-17
4627.56270 1.96697e-17
4629.03000 1.93940e-17
4630.49730 1.95396e-17
4631.96460 1.89947e-17
4633.44195 1.94169e-17
4634.90925 2.02693e-17
4636.37655 2.03762e-17
4637.84385 1.93934e-17
4639.32120 1.95902e-17
4640.78850 2.01674e-17
4642.25580 1.89070e-17
4643.73315 1.94179e-17
4645.20045 1.96195e-17
4646.66775 1.96999e-17
4648.13505 1.96129e-17
4649.61240 1.86233e-17
4651.07970 1.89314e-17
4652.54700 1.86997e-17
4654.01430 1.86632e-17
4655.49165 1.83613e-17
4656.95895 1.83143e-17
4658.42625 1.89384e-17
4659.90360 1.84032e-17
4661.37090 1.81190e-17
4662.83820 1.78926e-17
4664.30550 1.84406e-17
4665.78285 1.79598e-17
4667.25015 1.77220e-17
4668.71745 1.79212e-17
4670.18475 1.80303e-17
4671.66210 1.74014e-17
4673.12940 1.74177e-17
4674.59670 1.79859e-17
4676.07405 1.75088e-17
4677.54135 1.70905e-17
4679.00865 1.66822e-17
4680.47595 1.65871e-17
4681.95330 1.62829e-17
4683.42060 1.59128e-17
4684.88790 1.66691e-17
4686.35520 1.66633e-17
4687.83255 1.63309e-17
4689.29985 1.65770e-17
4690.76715 1.67349e-17
4692.24450 1.60956e-17
4693.71180 1.62214e-17
4695.17910 1.57923e-17
4696.64640 1.56542e-17
4698.12375 1.50456e-17
4699.59105 1.50040e-17
4701.05835 1.51824e-17
4702.53570 1.46130e-17
4704.00300 1.37470e-17
4705.47030 1.42431e-17
4706.93760 1.39818e-17
4708.41495 1.33235e-17
4709.88225 1.30050e-17
4711.34955 1.27705e-17
4712.81685 1.23558e-17
4714.29420 1.29134e-17
4715.76150 1.21427e-17
4717.22880 1.19860e-17
4718.70615 1.13578e-17
4720.17345 1.20873e-17
4721.64075 1.18136e-17
4723.10805 1.12926e-17
4724.58540 1.07258e-17
4726.05270 1.05607e-17
4727.52000 1.03105e-17
4728.98730 1.06250e-17
4730.46465 1.08578e-17
4731.93195 1.11505e-17
4733.39925 1.02922e-17
4734.86655 9.78558e-18
4736.34390 1.05190e-17
4737.81120 1.09966e-17
4739.27850 1.07485e-17
4740.75585 1.15757e-17
4742.22315 1.14137e-17
4743.69045 1.09637e-17
4745.15775 1.08537e-17
4746.63510 1.15508e-17
4748.10240 1.26709e-17
4749.56970 1.23508e-17
4751.03700 1.22127e-17
4752.51435 1.25163e-17
4753.98165 1.24808e-17
4755.44895 1.25391e-17
4756.92630 1.21853e-17
4758.39360 1.18878e-17
4759.86090 1.23414e-17
4761.32820 1.20294e-17
4762.80555 1.19585e-17
4764.27285 1.22766e-17
4765.74015 1.17809e-17
4767.20745 1.08698e-17
4768.68480 1.11015e-17
4770.15210 1.07945e-17
4771.61940 1.05186e-17
4773.09675 1.06250e-17
4774.56405 1.04471e-17
4776.03135 9.84343e-18
4777.49865 1.01843e-17
4778.97600 1.01414e-17
4780.44330 9.84599e-18
4781.91060 9.85653e-18
4783.38795 9.57909e-18
4784.85525 9.98647e-18
4786.32255 9.49522e-18
4787.78985 8.18722e-18
4789.26720 8.28345e-18
4790.73450 9.00431e-18
4792.20180 9.31039e-18
4793.66910 9.12649e-18
4795.14645 9.18174e-18
4796.61375 9.37492e-18
4798.08105 9.02027e-18
4799.55840 8.92674e-18
4801.02570 9.34937e-18
4802.49300 9.45547e-18
4803.96030 8.82770e-18
4805.43765 8.98956e-18
4806.90495 9.05947e-18
4808.37225 8.94705e-18
4809.83955 9.47794e-18
4811.31690 9.81220e-18
4812.78420 9.48752e-18
4814.25150 9.65683e-18
4815.72885 9.89954e-18
4817.19615 1.07154e-17
4818.66345 1.01663e-17
4820.13075 1.03354e-17
4821.60810 1.00088e-17
4823.07540 1.01777e-17
4824.54270 1.11727e-17
4826.01000 1.15826e-17
4827.48735 1.06797e-17
4828.95465 1.03383e-17
4830.42195 1.06543e-17
4831.88925 1.09006e-17
4833.36660 1.07392e-17
4834.83390 1.06604e-17
4836.30120 1.13882e-17
4837.77855 1.16890e-17
4839.24585 1.12062e-17
4840.71315 1.15561e-17
4842.18045 1.17607e-17
4843.65780 1.14125e-17
4845.12510 1.13620e-17
4846.59240 1.07857e-17
4848.06975 1.06594e-17
4849.53705 1.10688e-17
4851.00435 1.09211e-17
4852.47165 1.12355e-17
4853.94900 1.11610e-17
4855.41630 1.09284e-17
4856.88360 1.05860e-17
4858.35090 1.06796e-17
4859.82825 1.11845e-17
4861.29555 1.11055e-17
4862.76285 1.05368e-17
4864.24020 1.01424e-17
4865.70750 9.83883e-18
4867.17480 1.06759e-17
4868.64210 1.05776e-17
4870.11945 1.00235e-17
4871.58675 9.91745e-18
4873.05405 9.92788e-18
4874.52135 1.01531e-17
4875.99870 9.92120e-18
4877.46600 9.88213e-18
4878.93330 1.00580e-17
4880.40060 9.63349e-18
4881.87795 9.27543e-18
4883.34525 9.56722e-18
4884.81255 9.26792e-18
4886.28990 8.93492e-18
4887.75720 9.73427e-18
4889.22450 9.81475e-18
4890.69180 9.55411e-18
4892.16915 9.96407e-18
4893.63645 1.02584e-17
4895.10375 1.00823e-17
4896.58110 9.81457e-18
4898.04840 9.62510e-18
4899.51570 9.77550e-18
4900.98300 1.00346e-17
4902.46035 1.02248e-17
4903.92765 1.01040e-17
4905.39495 1.06384e-17
4906.86225 1.04526e-17
4908.33960 1.02569e-17
4909.80690 1.08684e-17
4911.27420 1.12760e-17
4912.75155 1.10465e-17
4914.21885 1.14590e-17
4915.68615 1.19125e-17
4917.15345 1.17477e-17
4918.63080 1.18997e-17
4920.09810 1.20807e-17
4921.56540 1.13595e-17
4923.03270 1.11799e-17
4924.51005 1.15327e-17
4925.97735 1.21899e-17
4927.44465 1.22784e-17
4928.92200 1.17864e-17
4930.38930 1.24545e-17
4931.85660 1.21069e-17
4933.32390 1.20039e-17
4934.80125 1.21411e-17
4936.26855 1.20837e-17
4937.73585 1.30198e-17
4939.20315 1.32056e-17
4940.68050 1.28165e-17
4942.14780 1.32746e-17
4943.61510 1.25861e-17
4945.09245 1.21717e-17
4946.55975 1.28400e-17
4948.02705 1.25682e-17
4949.49435 1.26827e-17
4950.97170 1.27420e-17
4952.43900 1.31412e-17
4953.90630 1.28862e-17
4955.37360 1.32677e-17
4956.85095 1.39582e-17
4958.31825 1.41578e-17
4959.78555 1.33076e-17
4961.26290 1.33602e-17
4962.73020 1.34254e-17
4964.19750 1.41445e-17
4965.66480 1.40654e-17
4967.14215 1.44962e-17
4968.60945 1.52301e-17
4970.07675 1.50233e-17
4971.54405 1.53130e-17
4973.02140 1.60117e-17
4974.48870 1.52504e-17
4975.95600 1.49470e-17
4977.43335 1.54321e-17
4978.90065 1.64818e-17
4980.36795 1.64883e-17
4981.83525 1.52404e-17
4983.31260 1.55542e-17
4984.77990 1.61806e-17
4986.24720 1.53890e-17
4987.71450 1.42902e-17
4989.19185 1.54674e-17
4990.65915 1.55145e-17
4992.12645 1.47142e-17
4993.60380 1.47201e-17
4995.07110 1.45328e-17
4996.53840 1.37259e-17
4998.00570 1.36492e-17
4999.48305 1.37246e-17
5000.95035 1.36451e-17
5002.41765 1.34107e-17
5003.88495 1.31698e-17
5005.36230 1.28050e-17
5006.82960 1.16699e-17
5008.29690 1.15821e-17
5009.77425 1.23070e-17
5011.24155 1.23251e-17
5012.70885 1.20201e-17
5014.17615 1.14731e-17
5015.65350 1.13287e-17
5017.12080 1.14335e-17
5018.58810 1.03953e-17
5020.05540 1.03816e-17
5021.53275 9.72374e-18
5023.00005 1.00359e-17
5024.46735 9.58489e-18
5025.94470 9.07411e-18
5027.41200 9.70817e-18
5028.87930 1.02150e-17
5030.34660 9.46326e-18
5031.82395 9.63410e-18
5033.29125 1.01403e-17
5034.75855 9.90541e-18
5036.22585 9.71282e-18
5037.70320 9.83381e-18
5039.17050 9.65821e-18
5040.63780 9.54664e-18
5042.11515 9.78428e-18
5043.58245 9.16499e-18
5045.04975 9.07427e-18
5046.51705 9.69162e-18
5047.99440 9.48292e-18
5049.46170 9.01721e-18
5050.92900 9.12976e-18
5052.39630 9.37375e-18
5053.87365 9.29839e-18
5055.34095 8.80278e-18
5056.80825 9.44066e-18
5058.28560 9.60392e-18
5059.75290 8.71343e-18
5061.22020 8.19142e-18
5062.68750 8.38897e-18
5064.16485 9.23729e-18
5065.63215 9.63054e-18
5067.09945 9.42348e-18
5068.56675 9.69747e-18
5070.04410 9.17131e-18
5071.51140 9.72279e-18
5072.97870 1.03628e-17
5074.45605 9.82193e-18
5075.92335 1.02972e-17
5077.39065 9.96785e-18
5078.85795 9.91276e-18
5080.33530 9.84578e-18
5081.80260 1.03099e-17
5083.26990 1.05846e-17
5084.73720 1.00320e-17
5086.21455 1.02175e-17
5087.68185 9.76896e-18
5089.14915 1.08383e-17
5090.62650 1.14156e-17
5092.09380 1.08639e-17
5093.56110 1.11034e-17
5095.02840 1.12776e-17
5096.50575 1.11763e-17
5097.97305 1.10476e-17
5099.44035 1.00555e-17
5100.90765 1.02707e-17
5102.38500 1.12691e-17
5103.85230 1.13959e-17
5105.31960 1.10394e-17
5106.79695 1.12380e-17
5108.26425 1.20148e-17
5109.73155 1.21436e-17
5111.19885 1.19130e-17
5112.67620 1.20619e-17
5114.14350 1.28647e-17
5115.61080 1.27512e-17
5117.07810 1.17107e-17
5118.55545 1.23556e-17
5120.02275 1.24560e-17
5121.49005 1.21765e-17
5122.96740 1.25782e-17
5124.43470 1.23889e-17
5125.90200 1.31562e-17
5127.36930 1.32197e-17
5128.84665 1.23437e-17
5130.31395 1.21073e-17
5131.78125 1.31421e-17
5133.24855 1.26444e-17
5134.72590 1.23981e-17
5136.19320 1.28215e-17
5137.66050 1.30369e-17
5139.13785 1.32616e-17
5140.60515 1.29083e-17
5142.07245 1.35139e-17
5143.53975 1.31066e-17
5145.01710 1.34485e-17
5146.48440 1.33460e-17
5147.95170 1.28735e-17
5149.42905 1.32036e-17
5150.89635 1.32238e-17
5152.36365 1.24216e-17
5153.83095 1.25274e-17
5155.30830 1.31041e-17
5156.77560 1.35394e-17
5158.24290 1.29449e-17
5159.71020 1.32664e-17
5161.18755 1.35850e-17
5162.65485 1.31588e-17
5164.12215 1.30203e-17
5165.59950 1.25575e-17
5167.06680 1.31564e-17
5168.53410 1.27877e-17
5170.00140 1.29902e-17
5171.47875 1.31546e-17
5172.94605 1.27415e-17
5174.41335 1.26083e-17
5175.88065 1.26116e-17
5177.35800 1.25248e-17
5178.82530 1.28093e-17
5180.29260 1.25059e-17
5181.75990 1.22751e-17
5183.23725 1.22276e-17
5184.70455 1.27949e-17
5186.17185 1.25909e-17
5187.64920 1.22900e-17
5189.11650 1.24633e-17
5190.58380 1.29042e-17
5192.05110 1.31749e-17
5193.52845 1.28693e-17
5194.99575 1.29696e-17
5196.46305 1.34015e-17
5197.93035 1.33455e-17
5199.40770 1.37123e-17
5200.87500 1.33903e-17
5202.34230 1.38663e-17
5203.81965 1.39230e-17
5205.28695 1.34951e-17
5206.75425 1.33280e-17
5208.22155 1.33887e-17
5209.69890 1.36522e-17
5211.16620 1.35860e-17
5212.63350 1.31649e-17
5214.11085 1.36687e-17
5215.57815 1.40405e-17
5217.04545 1.37890e-17
5218.51275 1.42185e-17
5219.99010 1.39334e-17
5221.45740 1.38761e-17
5222.92470 1.44212e-17
5224.39200 1.43277e-17
5225.86935 1.38197e-17
5227.33665 1.41590e-17
5228.80395 1.41779e-17
5230.28130 1.46367e-17
5231.74860 1.49997e-17
5233.21590 1.50211e-17
5234.68320 1.45768e-17
5236.16055 1.49310e-17
5237.62785 1.48106e-17
5239.09515 1.46733e-17
5240.56245 1.51424e-17
5242.03980 1.51533e-17
5243.50710 1.47204e-17
5244.97440 1.45757e-17
5246.45175 1.52404e-17
5247.91905 1.51224e-17
5249.38635 1.48853e-17
5250.85365 1.51560e-17
5252.33100 1.51066e-17
5253.79830 1.50481e-17
5255.26560 1.52669e-17
5256.73290 1.49975e-17
5258.21025 1.55784e-17
5259.67755 1.58189e-17
5261.14485 1.53852e-17
5262.62220 1.56311e-17
5264.08950 1.63197e-17
5265.55680 1.63313e-17
5267.02410 1.65154e-17
5268.50145 1.64123e-17
5269.96875 1.61546e-17
5271.43605 1.63538e-17
5272.90335 1.61049e-17
5274.38070 1.60172e-17
5275.84800 1.61560e-17
5277.31530 1.59570e-17
5278.78260 1.67176e-17
5280.25995 1.69607e-17
5281.72725 1.71478e-17
5283.19455 1.71642e-17
5284.67190 1.64534e-17
5286.13920 1.64602e-17
5287.60650 1.68565e-17
5289.07380 1.73963e-17
5290.55115 1.74429e-17
5292.01845 1.70885e-17
5293.48575 1.68697e-17
5294.96310 1.68383e-17
5296.43040 1.65452e-17
5297.89770 1.65288e-17
5299.36500 1.65150e-17
5300.84235 1.69178e-17
5302.30965 1.73178e-17
5303.77695 1.72278e-17
5305.24425 1.73296e-17
5306.72160 1.70108e-17
5308.18890 1.67620e-17
5309.65620 1.69083e-17
5311.13355 1.68802e-17
5312.60085 1.66615e-17
5314.06815 1.70406e-17
5315.53545 1.74519e-17
5317.01280 1.76637e-17
5318.48010 1.70634e-17
5319.94740 1.69845e-17
5321.41470 1.80407e-17
5322.89205 1.76460e-17
5324.35935 1.67687e-17
5325.82665 1.67010e-17
5327.30400 1.71314e-17
5328.77130 1.73986e-17
5330.23860 1.76146e-17
5331.70590 1.74587e-17
5333.18325 1.67896e-17
5334.65055 1.66005e-17
5336.11785 1.67579e-17
5337.58515 1.67744e-17
5339.06250 1.69515e-17
5340.52980 1.71355e-17
5341.99710 1.71798e-17
5343.47445 1.74720e-17
5344.94175 1.70730e-17
5346.40905 1.72365e-17
5347.87635 1.75238e-17
5349.35370 1.69364e-17
5350.82100 1.68277e-17
5352.28830 1.65202e-17
5353.75560 1.65408e-17
5355.23295 1.69882e-17
5356.70025 1.67154e-17
5358.16755 1.61462e-17
5359.64490 1.58933e-17
5361.11220 1.58456e-17
5362.57950 1.63619e-17
5364.04680 1.68482e-17
5365.52415 1.64083e-17
5366.99145 1.62892e-17
5368.45875 1.64876e-17
5369.92605 1.60762e-17
5371.40340 1.53400e-17
5372.87070 1.56190e-17
5374.33800 1.59450e-17
5375.81535 1.60264e-17
5377.28265 1.59552e-17
5378.74995 1.59099e-17
5380.21725 1.51537e-17
5381.69460 1.54616e-17
5383.16190 1.60011e-17
5384.62920 1.61418e-17
5386.09650 1.56086e-17
5387.57385 1.50172e-17
5389.04115 1.52827e-17
5390.50845 1.51928e-17
5391.98580 1.54185e-17
5393.45310 1.58521e-17
5394.92040 1.55146e-17
5396.38770 1.47814e-17
5397.86505 1.48918e-17
5399.33235 1.52921e-17
5400.79965 1.56222e-17
5402.26695 1.52922e-17
5403.74430 1.45144e-17
5405.21160 1.37174e-17
5406.67890 1.49096e-17
5408.15625 1.51696e-17
5409.62355 1.50490e-17
5411.09085 1.51274e-17
5412.55815 1.48441e-17
5414.03550 1.46802e-17
5415.50280 1.50137e-17
5416.97010 1.52503e-17
5418.43740 1.53243e-17
5419.91475 1.52712e-17
5421.38205 1.53157e-17
5422.84935 1.53209e-17
5424.32670 1.56964e-17
5425.79400 1.53878e-17
5427.26130 1.44509e-17
5428.72860 1.47232e-17
5430.20595 1.52345e-17
5431.67325 1.50767e-17
5433.14055 1.50531e-17
5434.60785 1.49927e-17
5436.08520 1.49320e-17
5437.55250 1.47021e-17
5439.01980 1.46598e-17
5440.49715 1.47733e-17
5441.96445 1.48459e-17
5443.43175 1.47296e-17
5444.89905 1.43251e-17
5446.37640 1.47799e-17
5447.84370 1.49152e-17
5449.31100 1.48853e-17
5450.77830 1.48230e-17
5452.25565 1.42072e-17
5453.72295 1.32482e-17
5455.19025 1.36971e-17
5456.66760 1.43230e-17
5458.13490 1.45275e-17
5459.60220 1.38612e-17
5461.06950 1.40473e-17
5462.54685 1.44153e-17
5464.01415 1.47567e-17
5465.48145 1.53881e-17
5466.94875 1.46325e-17
5468.42610 1.44080e-17
5469.89340 1.46781e-17
5471.36070 1.45758e-17
5472.83805 1.41040e-17
5474.30535 1.42049e-17
5475.77265 1.43538e-17
5477.23995 1.41773e-17
5478.71730 1.42196e-17
5480.18460 1.45750e-17
5481.65190 1.48062e-17
5483.11920 1.44385e-17
5484.59655 1.39215e-17
5486.06385 1.42052e-17
5487.53115 1.45635e-17
5489.00850 1.45394e-17
5490.47580 1.46732e-17
5491.94310 1.48177e-17
5493.41040 1.42470e-17
5494.88775 1.44011e-17
5496.35505 1.46998e-17
5497.82235 1.46579e-17
5499.28965 1.43685e-17
5500.76700 1.43671e-17
5502.23430 1.43277e-17
5503.70160 1.40787e-17
5505.17895 1.40474e-17
5506.64625 1.41014e-17
5508.11355 1.41230e-17
5509.58085 1.44418e-17
5511.05820 1.47798e-17
5512.52550 1.45816e-17
5513.99280 1.41160e-17
5515.46010 1.44925e-17
5516.93745 1.48166e-17
5518.40475 1.47763e-17
5519.87205 1.41276e-17
5521.34940 1.42801e-17
5522.81670 1.43668e-17
5524.28400 1.40125e-17
5525.75130 1.39978e-17
5527.22865 1.42601e-17
5528.69595 1.45415e-17
5530.16325 1.43097e-17
5531.64060 1.39149e-17
5533.10790 1.43811e-17
5534.57520 1.41265e-17
5536.04250 1.35809e-17
5537.51985 1.36557e-17
5538.98715 1.39236e-17
5540.45445 1.35702e-17
5541.92175 1.37867e-17
5543.39910 1.39811e-17
5544.86640 1.40198e-17
5546.33370 1.42642e-17
5547.81105 1.43513e-17
5549.27835 1.39207e-17
5550.74565 1.42739e-17
5552.21295 1.41666e-17
5553.69030 1.35629e-17
5555.15760 1.36110e-17
5556.62490 1.38498e-17
5558.09220 1.39271e-17
5559.56955 1.41721e-17
5561.03685 1.39183e-17
5562.50415 1.37045e-17
5563.97145 1.40234e-17
5565.44880 1.37410e-17
5566.91610 1.33837e-17
5568.38340 1.34096e-17
5569.86075 1.35837e-17
5571.32805 1.37126e-17
5572.79535 1.38579e-17
5574.26265 1.34955e-17
5575.74000 1.47482e-17
5577.20730 1.53302e-17
5578.67460 1.39311e-17
5580.14190 1.31393e-17
5581.61925 1.28223e-17
5583.08655 1.34182e-17
5584.55385 1.33684e-17
5586.03120 1.31490e-17
5587.49850 1.36679e-17
5588.96580 1.35055e-17
5590.43310 1.30447e-17
5591.91045 1.26662e-17
5593.37775 1.27310e-17
5594.84505 1.30901e-17
5596.31235 1.35317e-17
5597.78970 1.36656e-17
5599.25700 1.30088e-17
5600.72430 1.24157e-17
5602.20165 1.25783e-17
5603.66895 1.30140e-17
5605.13625 1.31560e-17
5606.60355 1.29046e-17
5608.08090 1.27508e-17
5609.54820 1.26565e-17
5611.01550 1.27776e-17
5612.48280 1.29592e-17
5613.96015 1.29225e-17
5615.42745 1.31174e-17
5616.89475 1.31031e-17
5618.37210 1.30520e-17
5619.83940 1.30314e-17
5621.30670 1.29078e-17
5622.77400 1.24733e-17
5624.25135 1.20943e-17
5625.71865 1.23264e-17
5627.18595 1.26163e-17
5628.66330 1.24907e-17
5630.13060 1.24456e-17
5631.59790 1.23720e-17
5633.06520 1.23875e-17
5634.54255 1.27325e-17
5636.00985 1.29493e-17
5637.47715 1.27996e-17
5638.94445 1.22070e-17
5640.42180 1.24766e-17
5641.88910 1.26095e-17
5643.35640 1.24042e-17
5644.83375 1.26166e-17
5646.30105 1.29374e-17
5647.76835 1.26745e-17
5649.23565 1.20036e-17
5650.71300 1.20271e-17
5652.18030 1.24568e-17
5653.64760 1.22979e-17
5655.11490 1.20125e-17
5656.59225 1.20501e-17
5658.05955 1.19962e-17
5659.52685 1.20572e-17
5660.99415 1.15951e-17
5662.47150 1.16523e-17
5663.93880 1.20821e-17
5665.40610 1.26442e-17
5666.88345 1.23973e-17
5668.35075 1.14841e-17
5669.81805 1.12263e-17
5671.28535 1.17484e-17
5672.76270 1.19974e-17
5674.23000 1.19465e-17
5675.69730 1.19441e-17
5677.17465 1.18920e-17
5678.64195 1.17071e-17
5680.10925 1.17642e-17
5681.57655 1.24587e-17
5683.05390 1.18968e-17
5684.52120 1.12923e-17
5685.98850 1.18035e-17
5687.45580 1.25757e-17
5688.93315 1.24524e-17
5690.40045 1.20528e-17
5691.86775 1.19285e-17
5693.34510 1.23058e-17
5694.81240 1.19049e-17
5696.27970 1.17293e-17
5697.74700 1.17051e-17
5699.22435 1.16337e-17
5700.69165 1.15657e-17
5702.15895 1.20171e-17
5703.62625 1.17643e-17
5705.10360 1.15418e-17
5706.57090 1.16320e-17
5708.03820 1.15551e-17
5709.50550 1.15929e-17
5710.98285 1.14622e-17
5712.45015 1.16772e-17
5713.91745 1.18681e-17
5715.39480 1.17850e-17
5716.86210 1.12355e-17
5718.32940 1.08669e-17
5719.79670 1.12795e-17
5721.27405 1.10115e-17
5722.74135 1.12677e-17
5724.20865 1.15926e-17
5725.67595 1.15278e-17
5727.15330 1.15321e-17
5728.62060 1.12105e-17
5730.08790 1.14315e-17
5731.56525 1.14768e-17
5733.03255 1.08681e-17
5734.49985 1.12674e-17
5735.96715 1.18816e-17
5737.44450 1.15490e-17
5738.91180 1.09683e-17
5740.37910 1.05558e-17
5741.85645 1.07488e-17
5743.32375 1.12809e-17
5744.79105 1.10769e-17
5746.25835 1.10173e-17
5747.73570 1.11023e-17
5749.20300 1.05966e-17
5750.67030 1.08677e-17
5752.13760 1.14184e-17
5753.61495 1.12358e-17
5755.08225 1.09379e-17
5756.54955 1.09252e-17
5758.02690 1.08880e-17
5759.49420 1.09949e-17
5760.96150 1.09126e-17
5762.42880 1.11997e-17
5763.90615 1.14558e-17
5765.37345 1.15429e-17
5766.84075 1.17280e-17
5768.30805 1.16568e-17
5769.78540 1.13137e-17
5771.25270 1.08999e-17
5772.72000 1.12846e-17
5774.19735 1.10905e-17
5775.66465 1.06752e-17
5777.13195 1.09176e-17
5778.59925 1.10608e-17
5780.07660 1.05930e-17
5781.54390 1.06514e-17
5783.01120 1.09313e-17
5784.47850 1.10537e-17
5785.95585 1.08990e-17
5787.42315 1.07454e-17
5788.89045 1.06356e-17
5790.36780 1.07387e-17
5791.83510 1.02799e-17
5793.30240 1.01138e-17
5794.76970 1.10535e-17
5796.24705 1.09026e-17
5797.71435 1.03448e-17
5799.18165 1.04763e-17
5800.64895 1.04584e-17
5802.12630 1.04133e-17
5803.59360 1.06813e-17
5805.06090 1.07981e-17
5806.53825 1.08210e-17
5808.00555 1.09205e-17
5809.47285 1.10491e-17
5810.94015 1.10705e-17
5812.41750 1.17697e-17
5813.88480 1.22032e-17
5815.35210 1.21522e-17
5816.81940 1.19437e-17
5818.29675 1.19696e-17
5819.76405 1.23149e-17
5821.23135 1.24034e-17
5822.70870 1.23647e-17
5824.17600 1.25445e-17
5825.64330 1.27248e-17
5827.11060 1.26389e-17
5828.58795 1.26685e-17
5830.05525 1.29459e-17
5831.52255 1.33444e-17
5832.98985 1.30431e-17
5834.46720 1.29199e-17
5835.93450 1.32649e-17
5837.40180 1.32299e-17
5838.87915 1.32696e-17
5840.34645 1.33920e-17
5841.81375 1.38655e-17
5843.28105 1.37420e-17
5844.75840 1.29399e-17
5846.22570 1.28028e-17
5847.69300 1.30672e-17
5849.16030 1.35308e-17
5850.63765 1.39943e-17
5852.10495 1.38628e-17
5853.57225 1.35672e-17
5855.04960 1.35257e-17
5856.51690 1.35440e-17
5857.98420 1.38283e-17
5859.45150 1.42420e-17
5860.92885 1.43437e-17
5862.39615 1.38594e-17
5863.86345 1.36847e-17
5865.33075 1.36784e-17
5866.80810 1.38910e-17
5868.27540 1.41841e-17
5869.74270 1.40610e-17
5871.22005 1.42949e-17
5872.68735 1.41001e-17
5874.15465 1.38800e-17
5875.62195 1.41500e-17
5877.09930 1.36787e-17
5878.56660 1.32398e-17
5880.03390 1.32283e-17
5881.50120 1.35049e-17
5882.97855 1.31184e-17
5884.44585 1.29976e-17
5885.91315 1.30923e-17
5887.39050 1.29891e-17
5888.85780 1.23172e-17
5890.32510 1.16940e-17
5891.79240 1.22720e-17
5893.26975 1.27867e-17
5894.73705 1.22415e-17
5896.20435 1.24390e-17
5897.67165 1.30486e-17
5899.14900 1.29603e-17
5900.61630 1.31838e-17
5902.08360 1.24082e-17
5903.56095 1.19746e-17
5905.02825 1.25885e-17
5906.49555 1.30100e-17
5907.96285 1.32785e-17
5909.44020 1.23938e-17
5910.90750 1.17225e-17
5912.37480 1.27666e-17
5913.84210 1.31547e-17
5915.31945 1.22834e-17
5916.78675 1.17266e-17
5918.25405 1.12820e-17
5919.73140 1.13789e-17
5921.19870 1.12726e-17
5922.66600 1.10656e-17
5924.13330 1.12229e-17
5925.61065 1.17736e-17
5927.07795 1.19385e-17
5928.54525 1.19439e-17
5930.01255 1.22195e-17
5931.48990 1.24981e-17
5932.95720 1.22278e-17
5934.42450 1.23675e-17
5935.90185 1.26432e-17
5937.36915 1.26306e-17
5938.83645 1.26027e-17
5940.30375 1.24229e-17
5941.78110 1.24975e-17
5943.24840 1.26496e-17
5944.71570 1.26439e-17
5946.18300 1.28750e-17
5947.66035 1.29279e-17
5949.12765 1.29831e-17
5950.59495 1.31380e-17
5952.07230 1.31664e-17
5953.53960 1.29135e-17
5955.00690 1.23081e-17
5956.47420 1.27457e-17
5957.95155 1.31380e-17
5959.41885 1.31672e-17
5960.88615 1.30563e-17
5962.35345 1.28925e-17
5963.83080 1.27961e-17
5965.29810 1.25033e-17
5966.76540 1.24001e-17
5968.24275 1.25231e-17
5969.71005 1.24948e-17
5971.17735 1.27284e-17
5972.64465 1.30178e-17
5974.12200 1.25984e-17
5975.58930 1.19539e-17
5977.05660 1.20022e-17
5978.52390 1.24087e-17
5980.00125 1.24816e-17
5981.46855 1.17420e-17
5982.93585 1.11998e-17
5984.41320 1.13717e-17
5985.88050 1.18925e-17
5987.34780 1.17433e-17
5988.81510 1.15189e-17
5990.29245 1.19757e-17
5991.75975 1.18920e-17
5993.22705 1.18581e-17
5994.70440 1.18584e-17
5996.17170 1.16478e-17
5997.63900 1.15204e-17
5999.10630 1.16228e-17
6000.58365 1.16423e-17
6002.05095 1.15939e-17
6003.51825 1.14828e-17
6004.98555 1.18156e-17
6006.46290 1.21915e-17
6007.93020 1.20245e-17
6009.39750 1.12053e-17
6010.86480 1.09988e-17
6012.34215 1.13045e-17
6013.80945 1.09762e-17
6015.27675 1.07364e-17
6016.75410 1.12263e-17
6018.22140 1.15387e-17
6019.68870 1.12701e-17
6021.15600 1.13709e-17
6022.63335 1.17309e-17
6024.10065 1.15421e-17
6025.56795 1.10164e-17
6027.03525 1.11515e-17
6028.51260 1.15781e-17
6029.97990 1.12465e-17
6031.44720 1.09867e-17
6032.92455 1.11092e-17
6034.39185 1.13516e-17
6035.85915 1.13331e-17
6037.32645 1.10464e-17
6038.80380 1.13531e-17
6040.27110 1.14085e-17
6041.73840 1.11973e-17
6043.20570 1.10614e-17
6044.68305 1.08395e-17
6046.15035 1.08557e-17
6047.61765 1.06595e-17
6049.09500 1.06349e-17
6050.56230 1.12340e-17
6052.02960 1.14327e-17
6053.49690 1.10358e-17
6054.97425 1.09114e-17
6056.44155 1.07712e-17
6057.90885 1.04750e-17
6059.38620 1.03628e-17
6060.85350 1.06859e-17
6062.32080 1.06241e-17
6063.78810 1.06870e-17
6065.26545 1.07951e-17
6066.73275 1.05216e-17
6068.20005 1.00582e-17
6069.66735 1.02538e-17
6071.14470 1.05852e-17
6072.61200 1.05278e-17
6074.07930 1.05175e-17
6075.55665 1.07589e-17
6077.02395 1.03682e-17
6078.49125 1.00850e-17
6079.95855 1.01575e-17
6081.43590 1.00699e-17
6082.90320 1.01012e-17
6084.37050 1.00988e-17
6085.83780 9.70786e-18
6087.31515 9.75112e-18
6088.78245 9.93542e-18
6090.24975 9.63184e-18
6091.72710 1.03162e-17
6093.19440 1.08918e-17
6094.66170 1.10718e-17
6096.12900 1.08259e-17
6097.60635 1.01691e-17
6099.07365 1.01254e-17
6100.54095 1.03554e-17
6102.00825 1.04255e-17
6103.48560 1.07309e-17
6104.95290 1.08969e-17
6106.42020 1.05730e-17
6107.88750 1.05857e-17
6109.36485 1.08271e-17
6110.83215 1.05737e-17
6112.29945 1.05151e-17
6113.77680 1.08318e-17
6115.24410 1.07924e-17
6116.71140 1.11303e-17
6118.17870 1.09188e-17
6119.65605 1.05982e-17
6121.12335 1.10384e-17
6122.59065 1.11244e-17
6124.06800 1.08406e-17
6125.53530 1.09819e-17
6127.00260 1.11291e-17
6128.46990 1.10950e-17
6129.94725 1.13028e-17
6131.41455 1.11699e-17
6132.88185 1.10692e-17
6134.34915 1.14864e-17
6135.82650 1.13676e-17
6137.29380 1.13439e-17
6138.76110 1.12880e-17
6140.23845 1.08702e-17
6141.70575 1.08333e-17
6143.17305 1.09450e-17
6144.64035 1.10047e-17
6146.11770 1.07552e-17
6147.58500 1.04757e-17
6149.05230 1.06827e-17
6150.51960 1.10175e-17
6151.99695 1.12008e-17
6153.46425 1.13672e-17
6154.93155 1.13396e-17
6156.40890 1.10394e-17
6157.87620 1.07275e-17
6159.34350 1.07487e-17
6160.81080 1.09708e-17
6162.28815 1.05797e-17
6163.75545 1.02577e-17
6165.22275 1.06696e-17
6166.69005 1.06781e-17
6168.16740 1.06686e-17
6169.63470 1.07955e-17
6171.10200 1.07844e-17
6172.57935 1.01315e-17
6174.04665 9.73943e-18
6175.51395 1.02490e-17
6176.98125 1.04954e-17
6178.45860 1.00908e-17
6179.92590 9.91926e-18
6181.39320 9.96007e-18
6182.86050 9.93537e-18
6184.33785 9.97152e-18
6185.80515 9.62375e-18
6187.27245 9.20014e-18
6188.74980 8.97579e-18
6190.21710 9.07206e-18
6191.68440 9.12597e-18
6193.15170 8.80934e-18
6194.62905 8.79398e-18
6196.09635 8.73755e-18
6197.56365 8.47902e-18
6199.03095 8.43580e-18
6200.50830 8.64767e-18
6201.97560 8.53067e-18
6203.44290 8.08104e-18
6204.92025 8.34692e-18
6206.38755 8.49462e-18
6207.85485 8.10658e-18
6209.32215 7.97145e-18
6210.79950 8.10584e-18
6212.26680 8.23071e-18
6213.73410 7.98446e-18
6215.20140 7.88834e-18
6216.67875 8.07139e-18
6218.14605 8.03863e-18
6219.61335 7.90739e-18
6221.09070 7.67194e-18
6222.55800 7.60792e-18
6224.02530 7.51760e-18
6225.49260 7.28945e-18
6226.96995 7.32781e-18
6228.43725 7.20039e-18
6229.90455 7.15049e-18
6231.37185 7.45928e-18
6232.84920 7.48709e-18
6234.31650 6.76747e-18
6235.78380 6.48929e-18
6237.26115 7.10127e-18
6238.72845 6.83237e-18
6240.19575 6.37079e-18
6241.66305 6.71634e-18
6243.14040 6.90106e-18
6244.60770 6.57106e-18
6246.07500 6.33933e-18
6247.54230 6.49917e-18
6249.01965 6.56852e-18
6250.48695 6.52557e-18
6251.95425 6.62474e-18
6253.43160 6.43841e-18
6254.89890 6.15922e-18
6256.36620 6.08364e-18
6257.83350 5.93322e-18
6259.31085 5.74556e-18
6260.77815 6.00462e-18
6262.24545 6.09925e-18
6263.71275 5.95018e-18
6265.19010 6.10467e-18
6266.65740 6.04025e-18
6268.12470 5.54726e-18
6269.60205 5.21735e-18
6271.06935 5.10350e-18
6272.53665 5.48039e-18
6274.00395 5.81564e-18
6275.48130 5.74647e-18
6276.94860 5.40856e-18
6278.41590 5.07037e-18
6279.88320 5.33226e-18
6281.36055 5.53244e-18
6282.82785 5.43150e-18
6284.29515 5.20597e-18
6285.77250 5.22156e-18
6287.23980 5.55527e-18
6288.70710 5.48493e-18
6290.17440 5.08192e-18
6291.65175 5.04334e-18
6293.11905 5.26965e-18
6294.58635 5.20853e-18
6296.05365 5.00233e-18
6297.53100 5.10856e-18
6298.99830 5.25751e-18
6300.46560 5.22967e-18
6301.94295 4.90637e-18
6303.41025 5.31541e-18
6304.87755 5.62010e-18
6306.34485 5.20805e-18
6307.82220 4.81269e-18
6309.28950 4.99042e-18
6310.75680 5.28002e-18
6312.22410 5.66037e-18
6313.70145 5.57028e-18
6315.16875 5.44600e-18
6316.63605 5.67081e-18
6318.11340 5.38289e-18
6319.58070 5.29136e-18
6321.04800 5.52582e-18
6322.51530 5.50413e-18
6323.99265 5.35846e-18
6325.45995 5.54068e-18
6326.92725 5.58145e-18
6328.39455 5.14122e-18
6329.87190 4.88687e-18
6331.33920 5.14664e-18
6332.80650 5.69032e-18
6334.28385 5.87333e-18
6335.75115 5.33020e-18
6337.21845 5.34921e-18
6338.68575 5.79377e-18
6340.16310 5.81670e-18
6341.63040 5.76963e-18
6343.09770 5.47625e-18
6344.56500 5.17738e-18
6346.04235 5.06894e-18
6347.50965 5.05024e-18
6348.97695 4.96672e-18
6350.45430 4.73643e-18
6351.92160 4.84834e-18
6353.38890 5.12187e-18
6354.85620 4.98474e-18
6356.33355 5.03187e-18
6357.80085 5.18860e-18
6359.26815 5.13392e-18
6360.73545 4.99532e-18
6362.21280 5.14370e-18
6363.68010 5.34301e-18
6365.14740 5.17244e-18
6366.62475 5.07299e-18
6368.09205 5.31633e-18
6369.55935 5.41237e-18
6371.02665 5.19546e-18
6372.50400 5.35881e-18
6373.97130 5.45352e-18
6375.43860 5.24750e-18
6376.91595 5.34415e-18
6378.38325 5.66266e-18
6379.85055 5.80415e-18
6381.31785 5.94046e-18
6382.79520 6.38491e-18
6384.26250 6.61833e-18
6385.72980 6.43290e-18
6387.19710 6.18092e-18
6388.67445 6.20714e-18
6390.14175 6.65485e-18
6391.60905 6.92177e-18
6393.07635 6.89956e-18
6394.55370 6.95885e-18
6396.02100 7.30539e-18
6397.48830 7.67023e-18
6398.96565 7.76977e-18
6400.43295 8.23555e-18
6401.90025 8.49250e-18
6403.36755 8.34033e-18
6404.84490 8.45001e-18
6406.31220 8.58592e-18
6407.77950 8.96403e-18
6409.24680 9.48279e-18
6410.72415 9.72752e-18
6412.19145 9.80038e-18
6413.65875 9.90931e-18
6415.13610 1.01628e-17
6416.60340 1.04559e-17
6418.07070 1.09625e-17
6419.53800 1.12495e-17
6421.01535 1.09802e-17
6422.48265 1.08074e-17
6423.94995 1.09417e-17
6425.41725 1.14187e-17
6426.89460 1.17430e-17
6428.36190 1.16309e-17
6429.82920 1.18047e-17
6431.30655 1.21010e-17
6432.77385 1.20844e-17
6434.24115 1.19724e-17
6435.70845 1.18687e-17
6437.18580 1.19416e-17
6438.65310 1.21041e-17
6440.12040 1.24636e-17
6441.58770 1.27559e-17
6443.06505 1.25330e-17
6444.53235 1.23709e-17
6445.99965 1.25030e-17
6447.47700 1.24737e-17
6448.94430 1.27915e-17
6450.41160 1.33292e-17
6451.87890 1.33689e-17
6453.35625 1.33365e-17
6454.82355 1.31775e-17
6456.29085 1.32710e-17
6457.75815 1.36825e-17
6459.23550 1.38513e-17
6460.70280 1.36948e-17
6462.17010 1.36641e-17
6463.64745 1.40415e-17
6465.11475 1.40453e-17
6466.58205 1.40877e-17
6468.04935 1.42287e-17
6469.52670 1.43227e-17
6470.99400 1.41363e-17
6472.46130 1.40748e-17
6473.93865 1.49016e-17
6475.40595 1.47513e-17
6476.87325 1.42151e-17
6478.34055 1.42858e-17
6479.81790 1.43137e-17
6481.28520 1.44390e-17
6482.75250 1.46857e-17
6484.21980 1.49406e-17
6485.69715 1.47939e-17
6487.16445 1.49163e-17
6488.63175 1.51538e-17
6490.09905 1.48061e-17
6491.57640 1.47913e-17
6493.04370 1.52848e-17
6494.51100 1.53903e-17
6495.98835 1.52268e-17
6497.45565 1.48376e-17
6498.92295 1.52545e-17
6500.39025 1.57236e-17
6501.86760 1.53687e-17
6503.33490 1.55346e-17
6504.80220 1.55866e-17
6506.27955 1.52388e-17
6507.74685 1.51768e-17
6509.21415 1.53708e-17
6510.68145 1.52592e-17
6512.15880 1.54425e-17
6513.62610 1.55218e-17
6515.09340 1.56640e-17
6516.56070 1.54936e-17
6518.03805 1.50823e-17
6519.50535 1.52825e-17
6520.97265 1.52450e-17
6522.45000 1.53990e-17
6523.91730 1.59864e-17
6525.38460 1.60956e-17
6526.85190 1.56082e-17
6528.32925 1.56478e-17
6529.79655 1.59833e-17
6531.26385 1.63933e-17
6532.73115 1.61846e-17
6534.20850 1.58821e-17
6535.67580 1.60059e-17
6537.14310 1.58994e-17
6538.61040 1.58191e-17
6540.08775 1.60400e-17
6541.55505 1.60151e-17
6543.02235 1.56739e-17
6544.49970 1.54344e-17
6545.96700 1.61015e-17
6547.43430 1.67593e-17
6548.90160 1.65449e-17
6550.37895 1.60293e-17
6551.84625 1.58378e-17
6553.31355 1.57921e-17
6554.78085 1.57001e-17
6556.25820 1.62390e-17
6557.72550 1.61752e-17
6559.19280 1.54029e-17
6560.67015 1.53035e-17
6562.13745 1.53787e-17
6563.60475 1.53831e-17
6565.07205 1.56988e-17
6566.54940 1.54170e-17
6568.01670 1.49837e-17
6569.48400 1.52203e-17
6570.95130 1.54443e-17
6572.42865 1.54070e-17
6573.89595 1.50927e-17
6575.36325 1.48009e-17
6576.84060 1.47404e-17
6578.30790 1.46033e-17
6579.77520 1.49490e-17
6581.24250 1.50932e-17
6582.71985 1.54534e-17
6584.18715 1.52167e-17
6585.65445 1.43103e-17
6587.13180 1.44542e-17
6588.59910 1.45814e-17
6590.06640 1.43902e-17
6591.53370 1.42690e-17
6593.01105 1.43815e-17
6594.47835 1.50850e-17
6595.94565 1.62029e-17
6597.41295 1.60564e-17
6598.89030 1.53724e-17
6600.35760 1.55534e-17
6601.82490 1.52449e-17
6603.30225 1.46058e-17
6604.76955 1.45703e-17
6606.23685 1.42771e-17
6607.70415 1.38753e-17
6609.18150 1.40342e-17
6610.64880 1.44626e-17
6612.11610 1.49019e-17
6613.58340 1.46882e-17
6615.06075 1.46699e-17
6616.52805 1.52873e-17
6617.99535 1.55048e-17
6619.47270 1.52522e-17
6620.94000 1.50365e-17
6622.40730 1.51285e-17
6623.87460 1.49997e-17
6625.35195 1.47545e-17
6626.81925 1.50278e-17
6628.28655 1.53138e-17
6629.75385 1.50822e-17
6631.23120 1.48320e-17
6632.69850 1.53153e-17
6634.16580 1.59245e-17
6635.63310 1.54212e-17
6637.11045 1.51709e-17
6638.57775 1.56198e-17
6640.04505 1.57051e-17
6641.52240 1.58026e-17
6642.98970 1.55962e-17
6644.45700 1.50700e-17
6645.92430 1.51246e-17
6647.40165 1.53607e-17
6648.86895 1.52994e-17
6650.33625 1.54002e-17
6651.81360 1.53934e-17
6653.28090 1.55323e-17
6654.74820 1.57742e-17
6656.21550 1.54747e-17
6657.69285 1.53658e-17
6659.16015 1.54994e-17
6660.62745 1.54935e-17
6662.09475 1.50020e-17
6663.57210 1.45988e-17
6665.03940 1.47146e-17
6666.50670 1.50460e-17
6667.98405 1.54253e-17
6669.45135 1.48378e-17
6670.91865 1.41587e-17
6672.38595 1.43297e-17
6673.86330 1.45366e-17
6675.33060 1.42015e-17
6676.79790 1.39118e-17
6678.26520 1.38403e-17
6679.74255 1.35418e-17
6681.20985 1.34527e-17
6682.67715 1.37152e-17
6684.15450 1.40103e-17
6685.62180 1.39257e-17
6687.08910 1.36046e-17
6688.55640 1.37247e-17
6690.03375 1.36283e-17
6691.50105 1.30985e-17
6692.96835 1.31878e-17
6694.43565 1.34753e-17
6695.91300 1.32582e-17
6697.38030 1.29916e-17
6698.84760 1.31144e-17
6700.32495 1.34298e-17
6701.79225 1.32007e-17
6703.25955 1.30841e-17
6704.72685 1.31993e-17
6706.20420 1.32082e-17
6707.67150 1.31665e-17
6709.13880 1.28210e-17
6710.60610 1.26576e-17
6712.08345 1.24807e-17
6713.55075 1.24574e-17
6715.01805 1.28791e-17
6716.49540 1.31176e-17
6717.96270 1.30375e-17
6719.43000 1.25996e-17
6720.89730 1.21291e-17
6722.37465 1.21552e-17
6723.84195 1.22328e-17
6725.30925 1.24941e-17
6726.77655 1.24318e-17
6728.25390 1.23885e-17
6729.72120 1.31084e-17
6731.18850 1.32321e-17
6732.66585 1.25866e-17
6734.13315 1.25326e-17
6735.60045 1.27859e-17
6737.06775 1.24003e-17
6738.54510 1.23134e-17
6740.01240 1.22203e-17
6741.47970 1.23399e-17
6742.94700 1.25553e-17
6744.42435 1.25431e-17
6745.89165 1.29832e-17
6747.35895 1.30142e-17
6748.83630 1.25194e-17
6750.30360 1.19898e-17
6751.77090 1.19613e-17
6753.23820 1.23480e-17
6754.71555 1.26021e-17
6756.18285 1.23703e-17
6757.65015 1.24277e-17
6759.11745 1.27628e-17
6760.59480 1.21251e-17
6762.06210 1.16303e-17
6763.52940 1.20015e-17
6765.00675 1.22925e-17
6766.47405 1.20221e-17
6767.94135 1.22304e-17
6769.40865 1.20278e-17
6770.88600 1.14323e-17
6772.35330 1.16518e-17
6773.82060 1.18823e-17
6775.28790 1.19202e-17
6776.76525 1.17596e-17
6778.23255 1.11874e-17
6779.69985 1.10163e-17
6781.17720 1.14648e-17
6782.64450 1.19461e-17
6784.11180 1.19818e-17
6785.57910 1.17585e-17
6787.05645 1.14821e-17
6788.52375 1.15245e-17
6789.99105 1.16736e-17
6791.45835 1.14626e-17
6792.93570 1.12825e-17
6794.40300 1.12042e-17
6795.87030 1.10851e-17
6797.34765 1.11661e-17
6798.81495 1.10075e-17
6800.28225 1.08182e-17
6801.74955 1.12515e-17
6803.22690 1.11101e-17
6804.69420 1.05762e-17
6806.16150 1.04743e-17
6807.62880 1.08749e-17
6809.10615 1.11664e-17
6810.57345 1.12207e-17
6812.04075 1.09920e-17
6813.51810 1.03110e-17
6814.98540 1.04742e-17
6816.45270 1.11451e-17
6817.92000 1.10312e-17
6819.39735 1.09350e-17
6820.86465 1.09173e-17
6822.33195 1.07087e-17
6823.79925 1.06731e-17
6825.27660 1.05414e-17
6826.74390 1.04153e-17
6828.21120 1.04729e-17
6829.68855 1.08043e-17
6831.15585 1.09813e-17
6832.62315 1.04824e-17
6834.09045 1.00714e-17
6835.56780 1.02495e-17
6837.03510 1.02615e-17
6838.50240 9.96312e-18
6839.96970 1.00004e-17
6841.44705 1.04578e-17
6842.91435 1.04879e-17
6844.38165 9.94665e-18
6845.85900 9.70200e-18
6847.32630 9.77213e-18
6848.79360 9.76150e-18
6850.26090 9.72021e-18
6851.73825 9.82577e-18
6853.20555 1.00917e-17
6854.67285 1.01588e-17
6856.14015 1.00046e-17
6857.61750 9.83913e-18
6859.08480 9.48208e-18
6860.55210 9.48843e-18
6862.02945 1.02484e-17
6863.49675 1.05360e-17
6864.96405 1.01925e-17
6866.43135 1.01220e-17
6867.90870 1.02390e-17
6869.37600 1.03161e-17
6870.84330 1.03663e-17
6872.31060 1.02437e-17
6873.78795 1.00311e-17
6875.25525 1.03058e-17
6876.72255 1.00979e-17
6878.19990 9.66549e-18
6879.66720 1.02222e-17
6881.13450 1.02563e-17
6882.60180 1.01047e-17
6884.07915 1.01294e-17
6885.54645 9.78561e-18
6887.01375 9.64338e-18
6888.48105 9.65274e-18
6889.95840 9.62430e-18
6891.42570 9.67728e-18
6892.89300 9.53834e-18
6894.37035 9.13127e-18
6895.83765 9.28626e-18
6897.30495 9.63818e-18
6898.77225 9.73752e-18
6900.24960 9.37367e-18
6901.71690 9.35699e-18
6903.18420 9.58787e-18
6904.66155 9.59320e-18
6906.12885 9.45056e-18
6907.59615 9.36986e-18
6909.06345 9.48895e-18
6910.54080 9.45950e-18
6912.00810 9.55392e-18
6913.47540 9.48730e-18
6914.94270 9.32919e-18
6916.42005 9.18985e-18
6917.88735 9.24588e-18
6919.35465 9.29262e-18
6920.83200 9.03081e-18
6922.29930 9.38136e-18
6923.76660 9.52493e-18
6925.23390 9.15711e-18
6926.71125 8.98335e-18
6928.17855 8.83534e-18
6929.64585 8.93161e-18
6931.11315 9.31539e-18
6932.59050 9.26520e-18
6934.05780 8.97795e-18
6935.52510 8.91912e-18
6936.99240 8.97228e-18
6938.46975 8.82210e-18
6939.93705 8.76104e-18
6941.40435 9.26277e-18
6942.88170 9.45297e-18
6944.34900 9.24077e-18
6945.81630 9.20753e-18
6947.28360 8.92606e-18
6948.76095 8.68735e-18
6950.22825 8.94231e-18
6951.69555 9.04562e-18
6953.17290 9.42579e-18
6954.64020 8.93299e-18
6956.10750 8.74470e-18
6957.57480 9.00401e-18
6959.05215 8.64731e-18
6960.51945 8.32874e-18
6961.98675 8.53806e-18
6963.45405 8.91015e-18
6964.93140 8.85555e-18
6966.39870 8.72673e-18
6967.86600 8.63509e-18
6969.34335 8.56510e-18
6970.81065 8.86297e-18
6972.27795 8.66512e-18
6973.74525 8.24242e-18
6975.22260 8.12427e-18
6976.68990 8.51169e-18
6978.15720 9.19113e-18
6979.62450 9.29168e-18
6981.10185 9.08388e-18
6982.56915 8.44689e-18
6984.03645 8.38298e-18
6985.50375 8.54196e-18
6986.98110 8.77802e-18
6988.44840 8.96979e-18
6989.91570 8.74153e-18
6991.39305 8.86911e-18
6992.86035 9.32974e-18
6994.32765 9.20968e-18
6995.79495 9.14531e-18
6997.27230 9.34614e-18
6998.73960 9.22649e-18
7000.20690 9.32393e-18
7001.68425 9.38306e-18
7003.15155 9.38448e-18
7004.61885 9.94434e-18
7006.08615 9.77017e-18
7007.56350 9.12505e-18
7009.03080 9.38651e-18
7010.49810 9.97068e-18
7011.96540 9.88150e-18
7013.44275 9.33759e-18
7014.91005 9.49445e-18
7016.37735 1.00670e-17
7017.85470 1.00727e-17
7019.32200 9.60977e-18
7020.78930 9.75505e-18
7022.25660 9.73120e-18
7023.73395 9.64437e-18
7025.20125 9.57406e-18
7026.66855 9.45633e-18
7028.13585 9.41587e-18
7029.61320 9.19203e-18
7031.08050 9.46536e-18
7032.54780 9.82454e-18
7034.02515 9.63713e-18
7035.49245 9.29808e-18
7036.95975 9.17690e-18
7038.42705 8.97774e-18
7039.90440 9.00222e-18
7041.37170 9.45695e-18
7042.83900 9.30104e-18
7044.30630 9.41654e-18
7045.78365 9.53971e-18
7047.25095 8.93435e-18
7048.71825 9.00271e-18
7050.19560 9.40115e-18
7051.66290 9.65130e-18
7053.13020 9.34083e-18
7054.59750 8.82699e-18
7056.07485 9.05766e-18
7057.54215 9.54049e-18
7059.00945 9.26948e-18
7060.47675 9.16516e-18
7061.95410 9.03051e-18
7063.42140 9.05688e-18
7064.88870 8.95351e-18
7066.36605 8.80683e-18
7067.83335 9.12636e-18
7069.30065 9.13414e-18
7070.76795 9.14109e-18
7072.24530 9.34639e-18
7073.71260 9.11586e-18
7075.17990 9.14544e-18
7076.64720 9.26431e-18
7078.12455 9.13377e-18
7079.59185 8.75294e-18
7081.05915 8.57777e-18
7082.52645 8.87412e-18
7084.00380 9.33426e-18
7085.47110 9.01738e-18
7086.93840 8.23663e-18
7088.41575 8.20510e-18
7089.88305 8.78448e-18
7091.35035 9.23703e-18
7092.81765 8.55611e-18
7094.29500 7.93528e-18
7095.76230 8.30477e-18
7097.22960 8.44129e-18
7098.70695 8.47391e-18
7100.17425 8.82327e-18
7101.64155 8.56581e-18
7103.10885 8.35087e-18
7104.58620 8.68817e-18
7106.05350 8.55897e-18
7107.52080 8.47177e-18
7108.98810 8.79901e-18
7110.46545 8.70053e-18
7111.93275 8.19270e-18
7113.40005 8.50163e-18
7114.87740 8.89483e-18
7116.34470 8.78644e-18
7117.81200 8.39317e-18
7119.27930 8.01082e-18
7120.75665 8.14575e-18
7122.22395 8.17506e-18
7123.69125 7.86156e-18
7125.15855 7.64511e-18
7126.63590 7.75643e-18
7128.10320 7.93157e-18
7129.57050 8.24861e-18
7131.04785 8.65275e-18
7132.51515 8.05820e-18
7133.98245 7.85007e-18
7135.44975 8.36276e-18
7136.92710 8.46066e-18
7138.39440 8.81611e-18
7139.86170 8.80948e-18
7141.32900 8.38060e-18
7142.80635 8.60254e-18
7144.27365 8.48252e-18
7145.74095 8.14384e-18
7147.21830 8.30967e-18
7148.68560 8.02047e-18
7150.15290 7.71787e-18
7151.62020 7.82010e-18
7153.09755 8.03967e-18
7154.56485 8.10320e-18
7156.03215 8.09705e-18
7157.49945 8.07862e-18
7158.97680 7.78454e-18
7160.44410 8.06106e-18
7161.91140 8.43396e-18
7163.38875 8.19441e-18
7164.85605 8.32416e-18
7166.32335 8.66802e-18
7167.79065 8.51617e-18
7169.26800 8.10820e-18
7170.73530 8.01900e-18
7172.20260 8.34718e-18
7173.66990 8.58553e-18
7175.14725 8.51833e-18
7176.61455 8.51100e-18
7178.08185 8.38536e-18
7179.55920 8.22588e-18
7181.02650 8.40001e-18
7182.49380 8.43690e-18
7183.96110 8.32955e-18
7185.43845 8.66453e-18
7186.90575 8.54117e-18
7188.37305 8.11675e-18
7189.84035 8.03940e-18
7191.31770 8.32410e-18
7192.78500 8.22983e-18
7194.25230 8.09723e-18
7195.72965 7.99141e-18
7197.19695 8.17413e-18
7198.66425 8.69075e-18
7200.13155 8.52506e-18
7201.60890 8.41163e-18
7203.07620 8.70671e-18
7204.54350 8.75338e-18
7206.01080 8.64665e-18
7207.48815 8.88225e-18
7208.95545 8.75508e-18
7210.42275 8.79474e-18
7211.90010 9.16597e-18
7213.36740 8.77626e-18
7214.83470 8.64055e-18
7216.30200 8.60112e-18
7217.77935 8.82478e-18
7219.24665 8.95067e-18
7220.71395 8.33201e-18
7222.18125 7.97278e-18
7223.65860 8.27057e-18
7225.12590 8.06408e-18
7226.59320 8.03655e-18
7228.07055 8.67744e-18
7229.53785 8.64150e-18
7231.00515 8.60089e-18
7232.47245 8.51365e-18
7233.94980 8.47121e-18
7235.41710 8.88721e-18
7236.88440 8.93576e-18
7238.35170 8.88871e-18
7239.82905 8.69793e-18
7241.29635 8.26363e-18
7242.76365 8.56605e-18
7244.24100 9.43294e-18
7245.70830 9.29467e-18
7247.17560 8.98781e-18
7248.64290 8.88399e-18
7250.12025 8.24773e-18
7251.58755 8.25150e-18
7253.05485 8.79991e-18
7254.52215 9.16102e-18
7255.99950 9.24121e-18
7257.46680 8.68718e-18
7258.93410 8.37943e-18
7260.41145 8.72766e-18
7261.87875 8.73618e-18
7263.34605 8.70705e-18
7264.81335 8.56071e-18
7266.29070 8.60892e-18
7267.75800 8.74612e-18
7269.22530 8.45230e-18
7270.69260 8.55224e-18
7272.16995 9.00527e-18
7273.63725 8.92325e-18
7275.10455 9.12594e-18
7276.58190 9.34480e-18
7278.04920 9.37651e-18
7279.51650 9.45939e-18
7280.98380 8.99027e-18
7282.46115 8.59100e-18
7283.92845 8.45498e-18
7285.39575 8.26181e-18
7286.86305 8.62234e-18
7288.34040 8.99733e-18
7289.80770 8.93963e-18
7291.27500 8.50863e-18
7292.75235 8.54461e-18
7294.21965 8.80263e-18
7295.68695 8.71122e-18
7297.15425 8.48502e-18
7298.63160 8.31922e-18
7300.09890 8.34734e-18
7301.56620 8.54944e-18
7303.03350 8.67913e-18
7304.51085 8.92849e-18
7305.97815 8.74734e-18
7307.44545 8.25917e-18
7308.92280 7.89463e-18
7310.39010 7.94171e-18
7311.85740 8.29978e-18
7313.32470 8.64081e-18
7314.80205 8.46008e-18
7316.26935 8.90701e-18
7317.73665 9.22969e-18
7319.20395 8.69055e-18
7320.68130 8.62333e-18
7322.14860 9.00109e-18
7323.61590 9.09903e-18
7325.09325 8.90599e-18
7326.56055 8.69040e-18
7328.02785 9.09737e-18
7329.49515 9.07653e-18
7330.97250 8.22925e-18
7332.43980 8.18853e-18
7333.90710 8.20360e-18
7335.38445 7.80772e-18
7336.85175 8.02847e-18
7338.31905 7.94750e-18
7339.78635 7.74180e-18
7341.26370 8.29952e-18
7342.73100 8.34722e-18
7344.19830 7.95397e-18
7345.66560 7.92961e-18
7347.14295 8.31081e-18
7348.61025 8.29152e-18
7350.07755 8.16882e-18
7351.55490 8.53058e-18
7353.02220 8.08415e-18
7354.48950 7.91650e-18
7355.95680 8.26646e-18
7357.43415 8.01314e-18
7358.90145 7.70856e-18
7360.36875 7.85847e-18
7361.83605 7.83334e-18
7363.31340 8.21130e-18
7364.78070 8.84530e-18
7366.24800 7.85690e-18
7367.71530 7.92617e-18
7369.19265 8.62467e-18
7370.65995 8.33944e-18
7372.12725 8.51225e-18
7373.60460 8.73509e-18
7375.07190 8.44621e-18
7376.53920 8.44246e-18
7378.00650 8.17530e-18
7379.48385 7.54202e-18
7380.95115 7.82605e-18
7382.41845 8.28750e-18
7383.88575 8.12469e-18
7385.36310 8.19525e-18
7386.83040 8.28046e-18
7388.29770 8.30318e-18
7389.77505 8.34221e-18
7391.24235 8.46780e-18
7392.70965 8.49577e-18
7394.17695 7.96111e-18
7395.65430 8.23196e-18
7397.12160 8.71002e-18
7398.58890 8.18873e-18
7400.05620 8.06425e-18
7401.53355 8.06501e-18
7403.00085 7.87562e-18
7404.46815 8.21422e-18
7405.94550 8.12974e-18
7407.41280 8.13848e-18
7408.88010 8.15912e-18
7410.34740 7.99207e-18
7411.82475 7.82393e-18
7413.29205 8.11832e-18
7414.75935 8.55830e-18
7415.99734 8.55830e-18
7418.00034 8.57622e-18
7420.00334 8.58898e-18
7421.99632 8.53927e-18
7423.99932 8.44597e-18
7426.00232 8.41291e-18
7427.99531 8.50231e-18
7429.99831 8.46452e-18
7432.00131 8.66577e-18
7434.00431 8.65627e-18
7435.99729 8.82647e-18
7438.00029 8.64483e-18
7440.00329 8.53692e-18
7441.99628 8.48509e-18
7443.99928 8.41897e-18
7446.00228 8.57123e-18
7447.99526 8.61857e-18
7449.99826 8.53206e-18
7452.00126 8.58425e-18
7454.00426 8.53591e-18
7455.99725 8.40370e-18
7458.00025 8.58165e-18
7460.00325 8.70291e-18
7461.99623 8.61154e-18
7463.99923 8.55850e-18
7466.00223 8.60850e-18
7467.99522 8.73644e-18
7469.99822 8.58511e-18
7472.00122 8.59606e-18
7474.00422 8.46935e-18
7475.99720 8.46458e-18
7478.00020 8.55584e-18
7480.00320 8.49026e-18
7481.99618 8.66258e-18
7483.99919 8.44148e-18
7486.00219 8.64092e-18
7487.99517 8.48537e-18
7489.99817 8.55003e-18
7492.00117 8.53589e-18
7494.00417 8.59047e-18
7495.99716 8.60163e-18
7498.00016 8.70491e-18
7500.00316 8.54595e-18
7501.99614 8.54694e-18
7503.99914 8.49203e-18
7506.00214 8.64430e-18
7507.99513 8.63035e-18
7509.99813 8.51680e-18
7512.00113 8.56230e-18
7514.00413 8.56726e-18
7515.99711 8.50323e-18
7518.00011 8.45439e-18
7520.00311 8.71644e-18
7521.99610 8.64072e-18
7523.99910 8.64705e-18
7526.00209 8.71505e-18
7527.99508 8.65223e-18
7529.99808 8.34707e-18
7532.00108 8.54771e-18
7534.00408 8.46002e-18
7535.99707 8.44935e-18
7538.00007 8.46719e-18
7540.00307 8.55559e-18
7541.99605 8.52024e-18
7543.99905 8.34450e-18
7546.00205 8.55159e-18
7547.99503 8.46188e-18
7549.99803 8.36544e-18
7552.00104 8.38595e-18
7554.00403 8.50090e-18
7555.99702 8.47517e-18
7558.00002 8.34753e-18
7560.00302 8.37432e-18
7561.99601 8.39681e-18
7563.99901 8.29038e-18
7566.00201 8.36514e-18
7568.00501 8.52028e-18
7569.99799 8.55921e-18
7572.00099 8.31033e-18
7574.00399 8.29625e-18
7575.99698 8.43068e-18
7577.99997 8.21387e-18
7580.00298 8.34532e-18
7581.99596 8.56056e-18
7583.99896 8.41652e-18
7586.00196 8.41963e-18
7587.99495 8.52575e-18
7589.99795 8.59086e-18
7592.00095 8.42767e-18
7594.00395 8.41415e-18
7595.99693 8.67925e-18
7597.99993 8.76129e-18
7600.00293 8.61337e-18
7601.99592 8.54323e-18
7603.99892 8.58234e-18
7606.00191 8.27006e-18
7607.99490 8.16252e-18
7609.99790 8.30128e-18
7612.00090 8.27538e-18
7614.00390 7.95905e-18
7615.99689 8.36561e-18
7617.99989 8.36749e-18
7620.00289 8.25581e-18
7621.99587 8.40345e-18
7623.99887 8.50902e-18
7626.00187 8.30682e-18
7628.00487 8.38144e-18
7629.99786 8.36902e-18
7632.00086 8.51351e-18
7634.00385 8.27190e-18
7635.99684 8.26095e-18
7637.99984 8.12520e-18
7640.00284 8.40577e-18
7641.99583 8.22535e-18
7643.99883 8.40264e-18
7646.00183 8.26522e-18
7647.99481 8.00228e-18
7649.99781 8.41132e-18
7652.00081 8.14854e-18
7654.00381 8.27325e-18
7655.99680 8.40277e-18
7657.99980 8.00575e-18
7660.00280 8.30791e-18
7661.99578 8.39110e-18
7663.99878 7.99473e-18
7666.00178 8.22241e-18
7668.00478 8.27879e-18
7669.99777 8.16037e-18
7672.00077 8.39110e-18
7674.00377 8.08454e-18
7675.99675 8.12129e-18
7677.99975 8.31831e-18
7680.00275 8.06495e-18
7681.99574 8.25524e-18
7683.99874 8.29223e-18
7686.00173 8.14911e-18
7688.00474 8.21418e-18
7689.99772 8.20957e-18
7692.00072 8.14920e-18
7694.00372 8.19003e-18
7695.99671 8.18132e-18
7697.99971 8.21592e-18
7700.00271 7.95553e-18
7701.99569 8.11496e-18
7703.99869 8.08425e-18
7706.00169 8.03225e-18
7708.00469 8.22839e-18
7709.99768 8.24291e-18
7712.00068 8.31270e-18
7714.00367 8.08517e-18
7715.99666 8.10386e-18
7717.99966 8.00658e-18
7720.00266 8.17715e-18
7721.99565 8.22829e-18
7723.99865 8.16192e-18
7726.00165 8.26183e-18
7728.00465 7.99176e-18
7729.99763 8.00524e-18
7732.00063 8.11589e-18
7734.00363 8.07965e-18
7735.99662 8.02872e-18
7737.99962 8.12995e-18
7740.00262 8.23251e-18
7741.99560 7.99135e-18
7743.99860 7.99368e-18
7746.00160 8.08695e-18
7748.00460 8.18585e-18
7749.99759 7.99668e-18
7752.00059 8.19394e-18
7754.00359 8.07695e-18
7755.99657 7.94062e-18
7757.99957 8.03407e-18
7760.00257 8.05417e-18
7761.99556 8.10914e-18
7763.99856 8.06409e-18
7766.00156 8.07906e-18
7768.00456 7.84506e-18
7769.99754 7.79498e-18
7772.00054 8.12299e-18
7774.00354 8.04550e-18
7775.99653 7.83860e-18
7777.99953 8.06772e-18
7780.00253 8.13339e-18
7781.99551 8.12800e-18
7783.99851 7.75266e-18
7786.00151 7.96314e-18
7788.00451 7.95321e-18
7789.99750 7.97558e-18
7792.00050 8.01867e-18
7794.00349 7.90626e-18
7795.99648 7.92147e-18
7797.99948 8.01432e-18
7800.00248 7.86860e-18
7801.99547 7.86267e-18
7803.99847 7.79091e-18
7806.00147 7.81279e-18
7808.00447 7.84698e-18
7809.99745 7.70643e-18
7812.00045 8.05907e-18
7814.00345 7.86432e-18
7815.99644 7.89363e-18
7817.99944 7.81779e-18
7820.00244 7.83146e-18
7821.99542 7.85983e-18
7823.99842 7.73214e-18
7826.00142 7.77147e-18
7828.00442 7.84193e-18
7829.99741 7.77390e-18
7832.00041 7.76374e-18
7834.00341 7.73927e-18
7835.99639 7.81003e-18
7837.99939 7.73460e-18
7840.00239 7.71843e-18
7841.99538 7.64645e-18
7843.99838 7.71933e-18
7846.00138 7.76012e-18
7848.00438 7.64792e-18
7849.99736 7.82322e-18
7852.00036 7.76645e-18
7854.00336 7.60163e-18
7855.99634 7.69331e-18
7857.99935 7.96457e-18
7860.00234 7.80153e-18
7861.99533 7.85277e-18
7863.99833 7.80346e-18
7866.00133 7.91156e-18
7868.00433 7.69538e-18
7869.99732 7.67818e-18
7872.00032 7.68741e-18
7874.00332 7.68958e-18
7875.99630 7.68155e-18
7877.99930 7.72904e-18
7880.00230 7.73965e-18
7881.99528 7.94621e-18
7883.99828 7.81499e-18
7886.00129 7.79852e-18
7888.00428 7.89465e-18
7889.99727 7.68885e-18
7892.00027 7.58792e-18
7894.00327 7.75349e-18
7895.99626 7.66994e-18
7897.99926 7.76779e-18
7900.00226 7.69411e-18
7901.99524 7.70388e-18
7903.99824 7.71000e-18
7906.00124 7.72794e-18
7908.00424 7.86824e-18
7909.99723 7.56385e-18
7912.00022 7.72234e-18
7914.00323 7.68440e-18
7915.99621 7.71639e-18
7917.99921 7.62169e-18
7920.00221 7.75617e-18
7921.99520 7.62684e-18
7923.99820 7.82052e-18
7926.00120 7.65267e-18
7928.00420 7.64139e-18
7929.99718 7.71505e-18
7932.00018 7.64954e-18
7934.00318 7.69683e-18
7935.99617 7.58084e-18
7937.99917 7.75133e-18
7940.00216 7.62485e-18
7941.99515 7.58447e-18
7943.99815 7.61344e-18
7946.00115 7.58754e-18
7948.00415 7.62424e-18
7949.99714 7.63932e-18
7952.00014 7.75659e-18
7954.00314 7.51791e-18
7955.99612 7.57002e-18
7957.99912 7.65369e-18
7960.00212 7.48441e-18
7961.99510 7.63051e-18
7963.99811 7.69143e-18
7966.00111 7.58095e-18
7968.00410 7.44675e-18
7969.99709 7.34919e-18
7972.00009 7.62244e-18
7974.00309 7.58389e-18
7975.99608 7.49663e-18
7977.99908 7.51648e-18
7980.00208 7.64787e-18
7981.99506 7.63957e-18
7983.99806 7.57534e-18
7986.00106 7.73275e-18
7988.00406 7.68507e-18
7989.99705 7.77460e-18
7992.00004 7.85793e-18
7994.00305 7.37579e-18
7995.99603 7.43599e-18
7997.99903 7.33404e-18
8000.00203 7.34199e-18
8002.00503 7.46187e-18
8003.99802 7.28203e-18
8006.00102 7.26848e-18
8008.00402 7.38851e-18
8009.99700 7.34921e-18
8012.00000 7.26948e-18
8014.00300 7.20643e-18
8015.99599 7.22450e-18
8017.99899 7.34919e-18
8020.00198 7.31845e-18
8021.99497 7.21404e-18
8023.99797 7.29631e-18
8026.00097 7.36056e-18
8028.00397 7.42168e-18
8029.99696 7.31969e-18
8031.99996 7.21991e-18
8034.00296 7.21241e-18
8035.99594 7.33331e-18
8037.99894 7.19583e-18
8040.00194 7.16153e-18
8042.00494 7.12261e-18
8043.99793 7.00220e-18
8046.00093 6.97952e-18
8048.00392 7.01456e-18
8049.99691 7.02595e-18
8051.99991 7.04155e-18
8054.00291 7.03170e-18
8055.99590 6.95660e-18
8057.99890 6.93653e-18
8060.00190 6.98228e-18
8061.99488 7.04037e-18
8063.99788 6.93569e-18
8066.00088 7.00936e-18
8068.00388 7.05644e-18
8069.99687 6.99556e-18
8071.99987 6.90288e-18
8074.00287 6.89344e-18
8075.99585 6.79585e-18
8077.99885 6.91664e-18
8080.00185 6.79357e-18
8082.00485 6.99210e-18
8083.99784 6.87315e-18
8086.00084 6.81943e-18
8088.00384 6.81991e-18
8089.99682 6.63675e-18
8091.99982 6.88730e-18
8094.00282 6.76945e-18
8095.99581 6.66758e-18
8097.99881 6.69882e-18
8100.00181 6.83359e-18
8102.00481 6.72155e-18
8103.99779 6.61558e-18
8106.00079 6.83860e-18
8108.00379 6.75734e-18
8109.99678 6.69724e-18
8111.99978 6.66605e-18
8114.00278 6.87240e-18
8115.99576 6.66804e-18
8117.99876 6.71097e-18
8120.00176 6.54366e-18
8121.99474 6.59557e-18
8123.99775 6.66835e-18
8126.00075 6.63191e-18
8128.00374 6.62498e-18
8129.99673 6.58067e-18
8131.99973 6.61499e-18
8134.00273 6.90909e-18
8135.99572 6.75248e-18
8137.99872 6.63610e-18
8140.00172 6.84011e-18
8142.00472 6.64045e-18
8143.99770 6.67884e-18
8146.00070 6.61639e-18
8148.00370 6.61751e-18
8149.99669 6.67426e-18
8151.99969 6.51081e-18
8154.00269 6.44395e-18
8155.99567 6.58174e-18
8157.99867 6.78826e-18
8160.00167 6.47742e-18
8162.00467 6.49225e-18
8163.99766 6.63557e-18
8166.00066 6.55238e-18
8168.00366 6.60985e-18
8169.99664 6.54967e-18
8171.99964 6.68974e-18
8174.00264 6.77291e-18
8175.99563 6.51114e-18
8177.99863 6.53861e-18
8180.00163 6.56512e-18
8182.00463 6.48400e-18
8183.99761 6.49681e-18
8186.00061 6.51423e-18
8188.00361 6.53792e-18
8189.99659 6.62584e-18
8191.99960 6.71533e-18
8194.00259 6.57697e-18
8195.99558 6.52256e-18
8197.99858 6.58928e-18
8200.00158 6.61684e-18
8202.00458 6.48483e-18
8203.99756 6.45790e-18
8206.00057 6.54257e-18
8208.00356 6.48597e-18
8209.99655 6.46305e-18
8211.99955 6.53555e-18
8214.00255 6.62329e-18
8215.99554 6.46997e-18
8217.99854 6.55428e-18
8220.00154 6.47694e-18
8222.00454 6.55207e-18
8223.99752 6.56992e-18
8226.00052 6.48313e-18
8228.00352 6.69835e-18
8229.99651 6.68417e-18
8231.99950 6.51300e-18
8234.00251 6.54859e-18
8235.99549 6.46509e-18
8237.99849 6.48446e-18
8240.00149 6.59331e-18
8242.00449 6.49147e-18
8243.99748 6.48202e-18
8246.00048 6.49006e-18
8248.00347 6.53698e-18
8249.99646 6.59943e-18
8251.99946 6.63433e-18
8254.00246 6.63275e-18
8255.99545 6.60423e-18
8257.99844 6.56173e-18
8260.00144 6.60080e-18
8261.99443 6.56276e-18
8263.99743 6.58942e-18
8266.00043 6.62554e-18
8268.00343 6.63759e-18
8269.99642 6.63558e-18
8271.99942 6.79530e-18
8274.00242 6.55400e-18
8275.99540 6.73124e-18
8277.99840 6.72461e-18
8280.00140 6.63867e-18
8282.00440 6.76856e-18
8283.99739 6.87904e-18
8286.00039 6.61020e-18
8288.00338 6.52015e-18
8289.99637 6.67560e-18
8291.99937 6.65307e-18
8294.00237 6.74953e-18
8295.99536 6.77054e-18
8297.99835 6.66428e-18
8300.00136 6.86532e-18
8302.00436 6.86879e-18
8303.99734 6.66100e-18
8306.00034 6.82910e-18
8308.00334 6.83684e-18
8309.99633 6.75053e-18
8311.99932 6.81591e-18
8314.00232 6.84098e-18
8315.99531 6.83872e-18
8317.99831 6.78755e-18
8320.00131 6.87701e-18
8322.00431 7.01470e-18
8323.99730 6.83719e-18
8326.00030 6.87689e-18
8328.00330 6.91670e-18
8329.99628 6.99537e-18
8331.99928 6.82758e-18
8334.00228 6.82038e-18
8335.99527 6.91574e-18
8337.99827 6.85468e-18
8340.00127 6.99083e-18
8342.00427 6.99121e-18
8343.99725 7.10242e-18
8346.00025 7.13775e-18
8348.00325 6.84830e-18
8349.99624 7.08609e-18
8351.99924 6.98207e-18
8354.00223 7.11588e-18
8355.99522 7.05332e-18
8357.99822 7.08507e-18
8360.00122 7.00148e-18
8362.00422 6.96378e-18
8363.99720 6.97429e-18
8366.00021 7.15242e-18
8368.00320 7.13920e-18
8369.99619 7.12837e-18
8371.99919 6.99659e-18
8374.00219 7.08489e-18
8376.00519 7.06713e-18
8377.99818 6.94925e-18
8380.00118 7.17657e-18
8382.00418 7.12171e-18
8383.99716 7.14049e-18
8386.00016 7.12311e-18
8388.00316 7.12725e-18
8389.99615 7.07935e-18
8391.99915 7.06027e-18
8394.00215 7.07058e-18
8395.99513 7.27060e-18
8397.99813 7.16982e-18
8400.00113 7.15289e-18
8402.00413 7.31947e-18
8403.99712 7.15311e-18
8406.00012 7.19365e-18
8408.00311 7.05093e-18
8409.99610 7.08721e-18
8411.99910 7.19582e-18
8414.00210 7.17288e-18
8415.99509 7.28969e-18
8417.99808 7.23506e-18
8420.00108 7.12899e-18
8422.00409 7.24863e-18
8423.99707 7.29204e-18
8426.00007 7.39707e-18
8428.00307 7.08427e-18
8429.99606 7.11693e-18
8431.99906 7.18743e-18
8434.00206 7.11017e-18
8436.00506 7.33373e-18
8437.99804 7.22099e-18
8440.00104 7.26204e-18
8442.00404 7.21178e-18
8443.99703 7.28745e-18
8446.00003 7.16865e-18
8448.00302 7.27819e-18
8449.99601 7.21923e-18
8451.99901 7.30193e-18
8454.00201 7.29419e-18
8455.99500 7.23325e-18
8457.99799 7.13046e-18
8460.00100 7.24745e-18
8462.00400 7.41467e-18
8463.99698 7.15820e-18
8465.99998 7.16865e-18
8468.00298 7.36065e-18
8469.99597 7.13424e-18
8471.99897 7.12364e-18
8474.00196 7.15916e-18
8475.99495 7.15075e-18
8477.99795 7.21197e-18
8480.00095 7.23698e-18
8482.00395 7.28270e-18
8483.99694 7.33096e-18
8485.99994 7.12632e-18
8488.00294 7.15826e-18
8489.99592 7.25289e-18
8491.99892 7.23480e-18
8494.00192 7.27573e-18
8496.00492 7.35212e-18
8497.99791 7.19092e-18
8500.00091 7.33707e-18
8502.00391 7.25696e-18
8503.99689 7.14496e-18
8505.99989 7.14730e-18
8508.00289 7.20250e-18
8509.99588 7.15702e-18
8511.99888 7.32512e-18
8514.00187 7.27369e-18
8516.00488 7.28697e-18
8517.99786 7.19120e-18
8520.00086 7.23506e-18
8522.00386 7.17568e-18
8523.99684 7.21249e-18
8525.99985 7.34125e-18
8528.00285 7.20634e-18
8529.99583 7.22528e-18
8531.99883 7.25189e-18
8534.00183 7.18535e-18
8535.99482 7.23329e-18
8537.99781 7.36223e-18
8540.00081 7.24667e-18
8542.00382 7.05409e-18
8543.99680 7.25369e-18
8545.99980 7.11853e-18
8548.00280 7.32463e-18
8549.99579 7.18809e-18
8551.99879 7.16897e-18
8554.00179 7.16111e-18
8556.00479 7.09835e-18
8557.99777 7.12139e-18
8560.00077 7.16058e-18
8562.00377 7.29886e-18
8563.99676 7.16504e-18
8565.99976 7.19496e-18
8568.00276 7.13318e-18
8569.99574 7.10698e-18
8571.99874 7.06961e-18
8574.00174 7.07942e-18
8576.00474 7.24670e-18
8577.99772 7.03743e-18
8580.00072 7.07628e-18
8582.00373 7.11785e-18
8583.99671 6.98706e-18
8585.99971 7.13831e-18
8588.00271 7.06519e-18
8589.99569 7.11872e-18
8591.99870 7.16102e-18
8594.00169 6.94321e-18
8595.99468 7.09761e-18
8597.99768 7.10450e-18
8600.00068 7.00452e-18
8602.00368 7.01653e-18
8603.99667 6.96254e-18
8605.99967 6.87164e-18
8608.00267 6.96759e-18
8609.99565 7.03931e-18
8611.99865 7.05747e-18
8614.00165 7.04625e-18
8616.00465 6.97551e-18
8617.99764 7.04205e-18
8620.00064 6.99183e-18
8622.00364 6.92421e-18
8623.99662 6.95172e-18
8625.99962 6.99572e-18
8628.00262 6.88149e-18
8629.99561 7.00839e-18
8631.99861 6.90250e-18
8634.00160 6.86818e-18
8636.00461 6.94782e-18
8637.99759 7.01254e-18
8640.00059 6.87307e-18
8642.00359 6.97654e-18
8643.99657 6.97881e-18
8645.99957 6.99354e-18
8648.00258 6.79842e-18
8649.99556 6.76061e-18
8651.99856 6.98984e-18
8654.00156 6.90671e-18
8656.00456 6.84458e-18
8657.99755 7.02300e-18
8660.00055 6.82726e-18
8662.00355 6.90308e-18
8663.99653 6.78886e-18
8665.99953 6.96985e-18
8668.00253 6.80021e-18
8669.99552 6.73921e-18
8671.99852 6.91542e-18
8674.00151 6.90682e-18
8676.00452 6.74213e-18
8677.99750 6.75262e-18
8680.00050 6.84134e-18
8682.00350 6.84960e-18
8683.99648 6.83584e-18
8685.99949 6.88060e-18
8688.00249 6.73864e-18
8689.99547 6.78241e-18
8691.99847 6.71701e-18
8694.00147 6.81628e-18
8696.00447 6.90868e-18
8697.99746 6.88333e-18
8700.00045 6.74090e-18
8702.00346 6.66348e-18
8703.99644 6.76980e-18
8705.99944 6.74416e-18
8708.00244 6.56610e-18
8709.99543 6.69015e-18
8711.99843 6.71800e-18
8714.00143 6.66279e-18
8716.00443 6.79585e-18
8717.99741 6.82841e-18
8720.00041 6.70079e-18
8722.00341 6.74543e-18
8723.99640 6.81330e-18
8725.99940 6.88001e-18
8728.00240 6.63239e-18
8729.99538 6.61587e-18
8731.99838 6.57164e-18
8734.00138 6.57908e-18
8736.00438 6.64744e-18
8737.99737 6.52125e-18
8740.00036 6.64035e-18
8742.00337 6.67720e-18
8743.99635 6.61107e-18
8745.99935 6.61987e-18
8748.00235 6.56586e-18
8749.99533 6.68874e-18
8751.99834 6.68984e-18
8754.00133 6.60308e-18
8756.00433 6.46855e-18
8757.99732 6.42259e-18
8760.00032 6.56683e-18
8762.00332 6.54623e-18
8763.99631 6.53867e-18
8765.99931 6.44497e-18
8768.00231 6.53189e-18
8769.99529 6.47182e-18
8771.99829 6.58397e-18
8774.00129 6.52356e-18
8776.00429 6.38401e-18
8777.99728 6.38356e-18
8780.00028 6.58316e-18
8782.00328 6.36887e-18
8783.99626 6.32204e-18
8785.99926 6.45564e-18
8788.00226 6.34088e-18
8789.99525 6.19814e-18
8791.99825 6.41154e-18
8794.00125 6.33052e-18
8796.00425 6.37416e-18
8797.99723 6.34594e-18
8800.00023 6.25733e-18
8802.00323 6.30693e-18
8803.99621 6.36297e-18
8805.99921 6.54150e-18
8808.00222 6.35442e-18
8809.99520 6.35477e-18
8811.99820 6.27702e-18
8814.00120 6.31931e-18
8816.00420 6.30213e-18
8817.99719 6.44624e-18
8820.00019 6.37385e-18
8822.00319 6.28688e-18
8823.99617 6.36918e-18
8825.99917 6.36492e-18
8828.00217 6.28218e-18
8829.99516 6.32979e-18
8831.99816 6.25421e-18
8834.00116 6.34864e-18
8836.00416 6.32957e-18
8837.99714 6.24850e-18
8840.00014 6.18479e-18
8842.00314 6.19200e-18
8843.99612 6.31779e-18
8845.99913 6.26915e-18
8848.00213 6.36745e-18
8850.00512 6.25075e-18
8851.99811 6.28182e-18
8854.00111 6.33548e-18
8856.00411 6.39963e-18
8857.99710 6.40139e-18
8860.00009 6.50473e-18
8862.00310 6.50007e-18
8863.99608 6.67158e-18
8865.99908 6.53476e-18
8868.00208 6.46926e-18
8869.99506 6.40596e-18
8871.99806 6.39454e-18
8874.00107 6.39066e-18
8876.00406 6.28818e-18
8877.99705 6.29092e-18
8880.00005 6.23960e-18
8882.00305 6.21622e-18
8883.99604 6.24541e-18
8885.99904 6.25204e-18
8888.00204 6.21641e-18
8889.99502 6.14633e-18
8891.99802 6.05889e-18
8894.00102 6.21783e-18
8896.00402 6.22232e-18
8897.99701 6.16468e-18
8900.00000 6.23066e-18
8902.00301 6.06838e-18
8903.99599 6.19414e-18
8905.99899 6.06833e-18
8908.00199 6.12608e-18
8910.00499 6.18287e-18
8911.99798 6.17652e-18
8914.00098 6.11093e-18
8916.00397 6.24922e-18
8917.99696 6.36529e-18
8919.99996 6.08894e-18
8922.00296 6.07671e-18
8923.99595 6.08714e-18
8925.99894 6.09537e-18
8928.00194 6.16984e-18
8929.99493 6.12953e-18
8931.99793 6.04710e-18
8934.00093 6.00363e-18
8936.00393 6.00234e-18
8937.99692 5.95568e-18
8939.99992 6.00964e-18
8942.00292 5.92940e-18
8943.99590 6.09141e-18
8945.99890 6.08201e-18
8948.00190 5.95572e-18
8949.99489 5.92199e-18
8951.99789 5.89899e-18
8954.00089 6.02892e-18
8956.00389 6.07009e-18
8957.99687 6.02640e-18
8959.99987 5.90882e-18
8962.00287 5.93334e-18
8963.99586 6.01095e-18
8965.99885 6.08190e-18
8968.00186 5.93339e-18
8970.00486 6.00987e-18
8971.99784 6.07606e-18
8974.00084 6.08910e-18
8976.00384 6.05785e-18
8977.99683 5.88429e-18
8979.99982 6.00916e-18
8982.00282 6.21613e-18
8983.99581 5.95060e-18
8985.99881 5.90513e-18
8988.00181 6.26256e-18
8990.00481 5.89616e-18
8991.99780 6.13159e-18
8994.00080 5.98365e-18
8996.00380 6.02914e-18
8997.99678 5.93564e-18
8999.99978 5.96195e-18
9002.00278 6.12917e-18
9003.99577 6.31198e-18
9005.99877 6.22519e-18
9008.00177 6.17700e-18
9009.99475 6.13004e-18
9011.99775 6.49627e-18
9014.00075 6.40691e-18
9016.00375 6.41713e-18
9017.99674 6.70167e-18
9019.99973 6.08903e-18
9022.00274 6.09495e-18
9023.99572 6.12679e-18
9025.99872 6.18683e-18
9028.00172 5.95049e-18
9030.00472 5.91412e-18
9031.99770 5.88760e-18
9034.00071 5.99886e-18
9036.00370 5.97881e-18
9037.99669 5.75413e-18
9039.99969 5.73191e-18
9042.00269 5.90301e-18
9043.99568 5.94081e-18
9045.99868 5.74141e-18
9048.00168 5.92013e-18
9050.00468 5.82047e-18
9051.99766 5.78217e-18
9054.00066 5.96705e-18
9056.00366 5.81551e-18
9057.99665 5.80469e-18
9059.99965 5.88060e-18
9062.00265 5.88681e-18
9063.99563 6.06147e-18
9065.99863 5.90297e-18
9068.00163 5.85739e-18
9070.00463 5.77096e-18
9071.99762 5.67200e-18
9074.00062 5.90315e-18
9076.00361 5.95532e-18
9077.99660 5.73797e-18
9079.99960 5.80920e-18
9082.00260 5.89257e-18
9083.99559 5.73695e-18
9085.99858 5.55305e-18
9088.00158 5.80368e-18
9090.00459 5.79926e-18
9091.99757 5.68243e-18
9094.00057 5.77767e-18
9096.00357 5.80376e-18
9097.99656 5.59223e-18
9099.99956 5.75554e-18
9102.00256 5.90065e-18
9103.99554 5.73428e-18
9105.99854 5.75500e-18
9108.00154 5.77818e-18
9110.00454 5.76272e-18
9111.99753 5.73200e-18
9114.00053 5.77110e-18
9116.00353 5.56188e-18
9117.99651 5.70246e-18
9119.99951 5.76611e-18
9122.00251 5.74146e-18
9123.99550 5.74108e-18
9125.99849 5.78056e-18
9128.00150 5.65124e-18
9130.00450 5.74699e-18
9131.99748 5.81998e-18
9134.00048 5.54284e-18
9136.00348 5.90728e-18
9137.99647 5.80712e-18
9139.99947 5.72458e-18
9142.00246 5.67283e-18
9143.99545 5.63534e-18
9145.99845 5.62613e-18
9148.00145 5.77065e-18
9150.00445 5.66531e-18
9151.99744 5.79621e-18
9154.00044 5.69388e-18
9156.00344 5.77167e-18
9157.99642 5.66440e-18
9159.99942 5.57653e-18
9162.00242 5.73016e-18
9163.99541 5.67251e-18
9165.99841 5.66858e-18
9168.00141 5.68749e-18
9170.00441 5.71862e-18
9171.99739 5.62892e-18
9174.00039 5.66830e-18
9176.00339 5.78622e-18
9177.99638 5.65129e-18
9179.99938 5.69632e-18
9182.00238 5.58981e-18
9183.99536 5.63927e-18
9185.99836 5.66743e-18
9188.00136 5.52422e-18
9190.00436 5.63137e-18
9191.99734 5.72382e-18
9194.00035 5.52274e-18
9196.00335 5.63672e-18
9197.99633 5.66206e-18
9199.99933 5.58504e-18
9202.00233 5.62625e-18
9203.99532 5.51951e-18
9205.99831 5.57387e-18
9208.00131 5.75966e-18
9210.00432 5.67401e-18
9211.99730 5.69088e-18
9214.00030 5.75714e-18
9216.00330 5.81831e-18
9217.99629 5.72549e-18
9219.99929 5.86237e-18
9222.00229 5.76587e-18
9223.99527 5.80649e-18
9225.99827 6.10654e-18
9228.00127 6.28440e-18
9230.00427 6.35577e-18
9231.99726 6.14055e-18
9234.00026 6.01396e-18
9236.00326 5.79089e-18
9237.99624 5.76778e-18
9239.99924 5.70129e-18
9242.00224 5.56464e-18
9243.99523 5.55360e-18
9245.99822 5.55302e-18
9248.00122 5.50109e-18
9250.00423 5.46373e-18
9251.99721 5.64975e-18
9254.00021 5.50037e-18
9256.00321 5.48531e-18
9257.99619 5.46745e-18
9259.99920 5.51130e-18
9262.00219 5.54343e-18
9263.99518 5.65187e-18
9265.99818 5.57595e-18
9268.00118 5.48017e-18
9270.00418 5.59123e-18
9271.99717 5.41769e-18
9274.00017 5.59124e-18
9276.00317 5.47928e-18
9277.99615 5.44819e-18
9279.99915 5.65143e-18
9282.00215 5.52629e-18
9283.99514 5.39576e-18
9285.99813 5.58231e-18
9288.00114 5.60551e-18
9290.00414 5.51969e-18
9291.99712 5.48061e-18
9294.00012 5.57914e-18
9296.00312 5.55972e-18
9297.99611 5.49681e-18
9299.99911 5.51144e-18
9302.00210 5.47416e-18
9303.99509 5.60247e-18
9305.99809 5.28456e-18
9308.00109 5.24873e-18
9310.00409 5.91357e-18
9311.99707 5.55677e-18
9314.00007 5.12628e-18
9316.00308 5.46739e-18
9317.99606 5.67670e-18
9319.99906 5.59759e-18
9322.00206 5.26044e-18
9324.00506 5.63256e-18
9325.99805 5.63112e-18
9328.00105 5.55751e-18
9330.00405 5.23400e-18
9331.99703 5.32839e-18
9334.00003 5.58321e-18
9336.00303 5.54418e-18
9337.99602 5.60375e-18
9339.99902 5.56599e-18
9342.00202 4.96840e-18
9343.99500 5.76345e-18
9345.99800 5.93200e-18
9348.00100 5.45616e-18
9350.00400 5.28409e-18
9351.99698 4.99943e-18
9353.99999 5.71526e-18
9356.00299 5.34615e-18
9357.99597 5.51063e-18
9359.99897 5.88413e-18
9362.00197 5.44069e-18
9363.99496 5.03541e-18
9365.99796 5.35604e-18
9368.00095 5.22747e-18
9370.00396 5.26147e-18
9371.99694 5.79514e-18
9373.99994 5.32472e-18
9376.00294 5.31587e-18
9377.99593 5.31651e-18
9379.99893 5.26943e-18
9382.00193 5.68736e-18
9384.00493 5.44162e-18
9385.99791 5.20525e-18
9388.00091 5.48690e-18
9390.00391 5.20658e-18
9391.99690 5.12905e-18
9393.99990 5.32790e-18
9396.00290 5.19200e-18
9397.99588 5.12165e-18
9399.99888 5.26531e-18
9402.00188 5.31363e-18
9404.00488 5.27845e-18
9405.99787 5.23491e-18
9408.00086 5.14486e-18
9410.00387 5.34867e-18
9411.99685 5.49178e-18
9413.99985 5.33563e-18
9416.00285 5.11459e-18
9417.99583 5.33018e-18
9419.99884 5.15077e-18
9422.00183 5.26092e-18
9423.99482 4.92711e-18
9425.99782 4.86721e-18
9428.00082 5.46975e-18
9430.00382 5.73017e-18
9431.99681 5.34054e-18
9433.99981 5.08784e-18
9436.00281 4.96443e-18
9437.99579 5.07340e-18
9439.99879 5.18935e-18
9442.00179 5.51236e-18
9444.00479 5.30399e-18
9445.99778 5.26705e-18
9448.00078 5.04462e-18
9450.00378 5.33432e-18
9451.99676 5.12626e-18
9453.99976 4.90694e-18
9456.00276 5.57567e-18
9457.99575 4.92116e-18
9459.99875 4.88853e-18
9462.00174 5.42008e-18
9464.00475 5.18040e-18
9465.99773 5.07352e-18
9468.00073 4.87782e-18
9470.00373 5.29349e-18
9471.99671 5.05833e-18
9473.99971 4.96432e-18
9476.00272 5.39811e-18
9477.99570 5.01206e-18
9479.99870 4.89202e-18
9482.00170 5.51742e-18
9483.99469 5.30240e-18
9485.99769 4.98467e-18
9488.00069 5.11391e-18
9490.00369 5.10397e-18
9491.99667 4.88278e-18
9493.99967 5.20044e-18
9496.00267 5.22657e-18
9497.99566 5.00746e-18
9499.99866 4.99047e-18
9502.00166 5.52557e-18
9504.00466 5.14244e-18
9505.99764 5.11528e-18
9508.00064 5.08499e-18
9510.00364 5.19400e-18
9511.99662 5.00321e-18
9513.99963 4.95090e-18
9516.00263 4.86486e-18
9517.99561 5.08436e-18
9519.99861 5.00658e-18
9522.00161 5.06409e-18
9524.00461 5.06599e-18
9525.99760 4.88677e-18
9528.00059 5.04354e-18
9530.00360 5.17228e-18
9531.99658 5.01773e-18
9533.99958 4.92884e-18
9536.00258 5.15772e-18
9537.99556 5.20131e-18
9539.99856 5.01423e-18
9542.00157 5.05181e-18
9544.00456 5.45487e-18
9545.99755 5.78579e-18
9548.00055 5.45519e-18
9550.00355 5.20413e-18
9551.99654 5.03858e-18
9553.99954 5.22620e-18
9556.00254 5.31860e-18
9557.99552 5.28670e-18
9559.99852 5.07292e-18
9562.00152 4.81882e-18
9564.00452 5.01144e-18
9565.99751 5.00406e-18
9568.00050 4.91925e-18
9570.00351 4.90560e-18
9571.99649 4.80879e-18
9573.99949 4.78951e-18
9576.00249 4.82067e-18
9577.99547 4.72789e-18
9579.99848 4.88789e-18
9582.00148 5.23264e-18
9584.00447 4.92055e-18
9585.99746 4.77159e-18
9588.00046 4.66929e-18
9590.00346 4.84746e-18
9591.99644 4.98815e-18
9593.99944 4.94478e-18
9596.00245 4.73956e-18
9597.99543 4.88026e-18
9599.99843 4.96133e-18
9602.00143 4.86510e-18
9604.00443 4.77084e-18
9605.99742 4.85117e-18
9608.00042 4.97036e-18
9610.00342 4.98952e-18
9611.99640 4.89682e-18
9613.99940 4.79317e-18
9616.00240 4.74619e-18
9617.99539 4.74297e-18
9619.99839 4.68724e-18
9622.00139 4.80849e-18
9624.00439 4.71679e-18
9625.99737 4.82499e-18
9628.00037 4.96697e-18
9630.00337 4.90946e-18
9631.99636 4.63716e-18
9633.99935 4.69451e-18
9636.00236 4.79115e-18
9637.99534 4.97467e-18
9639.99834 4.82583e-18
9642.00134 4.69024e-18
9644.00434 4.69714e-18
9645.99733 4.92462e-18
9648.00032 4.75942e-18
9650.00332 4.68351e-18
9651.99631 4.82447e-18
9653.99931 4.77200e-18
9656.00231 4.80287e-18
9657.99530 4.69923e-18
9659.99830 4.69663e-18
9662.00130 4.86096e-18
9664.00430 4.87374e-18
9665.99728 4.69709e-18
9668.00028 4.65102e-18
9670.00328 4.81184e-18
9671.99627 4.88987e-18
9673.99927 4.87671e-18
9676.00227 4.91620e-18
9677.99525 4.66204e-18
9679.99825 4.66663e-18
9682.00125 4.71789e-18
9684.00425 4.73508e-18
9685.99724 4.69317e-18
9688.00023 4.81305e-18
9690.00324 4.68894e-18
9691.99622 4.78443e-18
9693.99922 4.76191e-18
9696.00222 4.65476e-18
9697.99520 4.64050e-18
9699.99820 4.62723e-18
9702.00121 4.66390e-18
9704.00420 4.63953e-18
9705.99719 4.53242e-18
9708.00019 4.68679e-18
9710.00319 4.67809e-18
9711.99618 4.54499e-18
9713.99918 4.67817e-18
9716.00218 4.85191e-18
9717.99516 4.62261e-18
9719.99816 4.73965e-18
9722.00116 4.71606e-18
9724.00416 4.87360e-18
9725.99715 4.70105e-18
9728.00014 4.87369e-18
9730.00315 4.62382e-18
9731.99613 4.62409e-18
9733.99913 4.61767e-18
9736.00213 4.68502e-18
9738.00513 4.81991e-18
9739.99812 4.69813e-18
9742.00112 4.54580e-18
9744.00411 4.74816e-18
9745.99710 4.73183e-18
9748.00010 4.72772e-18
9750.00310 4.66314e-18
9751.99609 4.58335e-18
9753.99908 4.54086e-18
9756.00209 4.72118e-18
9757.99507 4.76717e-18
9759.99807 4.65240e-18
9762.00107 4.70824e-18
9764.00407 4.76774e-18
9765.99706 4.61227e-18
9768.00006 4.59672e-18
9770.00306 4.66670e-18
9771.99604 4.56608e-18
9773.99904 4.61460e-18
9776.00204 4.58988e-18
9777.99503 4.66841e-18
9779.99803 4.59644e-18
9782.00103 4.71223e-18
9784.00403 4.64491e-18
9785.99701 4.71008e-18
9788.00001 4.60675e-18
9790.00301 4.57996e-18
9791.99600 4.63630e-18
9793.99899 4.91315e-18
9796.00200 4.62741e-18
9798.00500 4.56780e-18
9799.99798 4.71792e-18
9802.00098 4.60861e-18
9804.00398 4.62942e-18
9805.99697 4.80721e-18
9807.99997 4.63606e-18
9810.00296 4.63148e-18
9811.99595 4.64162e-18
9813.99895 4.56659e-18
9816.00195 4.47607e-18
9817.99494 4.50834e-18
9819.99794 4.64650e-18
9822.00094 4.60929e-18
9824.00394 4.56299e-18
9825.99692 4.71624e-18
9827.99992 4.61371e-18
9830.00292 4.66293e-18
9831.99591 4.73895e-18
9833.99891 4.70475e-18
9836.00191 4.71808e-18
9837.99489 4.68906e-18
9839.99789 4.68368e-18
9842.00089 4.56457e-18
9844.00389 4.56192e-18
9845.99688 4.58173e-18
9847.99988 4.52441e-18
9850.00288 4.56237e-18
9851.99586 4.59316e-18
9853.99886 4.65401e-18
9856.00186 4.53760e-18
9858.00486 4.58366e-18
9859.99784 4.63398e-18
9862.00085 4.59213e-18
9864.00384 4.65500e-18
9865.99683 4.61390e-18
9867.99983 4.60113e-18
9870.00283 4.65615e-18
9871.99582 4.55372e-18
9873.99881 4.72237e-18
9876.00181 4.58686e-18
9878.00482 4.62115e-18
9879.99780 4.59070e-18
9882.00080 4.67509e-18
9884.00380 4.61151e-18
9885.99679 4.63709e-18
9887.99979 4.51529e-18
9890.00279 4.47092e-18
9891.99577 4.53974e-18
9893.99877 4.52691e-18
9896.00177 4.63374e-18
9897.99476 4.54399e-18
9899.99776 4.56376e-18
9902.00076 4.54018e-18
9904.00375 4.48726e-18
9905.99674 4.53448e-18
9907.99974 4.40954e-18
9910.00274 4.54965e-18
9911.99573 4.53793e-18
9913.99872 4.83268e-18
9916.00173 4.57996e-18
9918.00473 4.60511e-18
9919.99771 4.57219e-18
9922.00071 4.44452e-18
9924.00371 4.34765e-18
9925.99669 4.55382e-18
9927.99970 4.50427e-18
9930.00269 4.50574e-18
9931.99568 4.53576e-18
9933.99868 4.65009e-18
9936.00168 4.54110e-18
9938.00468 4.52963e-18
9939.99767 4.50997e-18
9942.00067 4.39430e-18
9944.00367 4.43337e-18
9945.99665 4.47237e-18
9947.99965 4.69861e-18
9950.00265 4.49387e-18
9951.99564 4.43191e-18
9953.99863 4.57323e-18
9956.00164 4.44509e-18
9957.99462 4.45495e-18
9959.99762 4.39129e-18
9962.00062 4.59242e-18
9964.00362 4.51799e-18
9965.99661 4.50046e-18
9967.99961 4.50002e-18
9970.00260 4.51726e-18
9971.99559 4.53503e-18
9973.99859 4.38293e-18
9976.00159 4.43645e-18
9978.00459 4.48171e-18
9979.99757 4.55197e-18
9982.00058 4.46349e-18
9984.00358 4.44398e-18
9985.99656 4.43042e-18
9987.99956 4.31964e-18
9990.00256 4.50343e-18
9991.99555 4.51417e-18
9993.99855 4.38435e-18
9996.00155 4.51703e-18
9998.00455 4.35382e-18
9999.99753 4.39124e-18
