# wavelength flux
4101.98376 1.13490e-17
4104.72787 1.10905e-17
4107.46197 1.11422e-17
4110.19606 1.08320e-17
4112.94017 1.08501e-17
4115.67427 1.07508e-17
4118.41838 1.05641e-17
4121.15247 1.08568e-17
4123.88657 1.06209e-17
4126.63068 1.07345e-17
4129.36477 1.02496e-17
4132.09886 1.01719e-17
4134.84297 1.03471e-17
4137.57707 1.03387e-17
4140.31117 1.01197e-17
4143.05528 1.02027e-17
4145.78937 1.00125e-17
4148.52347 1.01480e-17
4151.25756 9.91033e-18
4154.00167 9.81661e-18
4156.73577 9.70648e-18
4159.47987 9.95383e-18
4162.21397 9.89384e-18
4164.94807 1.01041e-17
4167.69218 1.00217e-17
4170.42627 1.02699e-17
4173.16036 1.02372e-17
4175.90448 1.04483e-17
4178.63857 1.04966e-17
4181.37266 1.04044e-17
4184.11678 1.06062e-17
4186.85087 1.08042e-17
4189.58497 1.07685e-17
4192.32908 1.08315e-17
4195.06317 1.10229e-17
4197.79727 1.12018e-17
4200.54137 1.10879e-17
4203.27547 1.11939e-17
4206.00957 1.12934e-17
4208.75367 1.13834e-17
4211.48777 1.14327e-17
4214.22187 1.17581e-17
4216.96598 1.18044e-17
4219.70007 1.18075e-17
4222.43416 1.20602e-17
4225.17828 1.21246e-17
4227.91237 1.22935e-17
4230.64647 1.22241e-17
4233.39058 1.23163e-17
4236.12467 1.25476e-17
4238.85877 1.25436e-17
4241.60288 1.25799e-17
4244.33697 1.27825e-17
4247.07107 1.28637e-17
4249.81517 1.27036e-17
4252.54927 1.27286e-17
4255.28337 1.30684e-17
4258.02747 1.28572e-17
4260.76157 1.31664e-17
4263.49566 1.32280e-17
4266.23978 1.32575e-17
4268.97387 1.32100e-17
4271.70797 1.34881e-17
4274.45208 1.33291e-17
4277.18617 1.35059e-17
4279.92027 1.34145e-17
4282.66438 1.33452e-17
4285.39847 1.33867e-17
4288.13256 1.34963e-17
4290.87668 1.35310e-17
4293.61077 1.34528e-17
4296.34487 1.35397e-17
4299.08897 1.33986e-17
4301.82307 1.34031e-17
4304.55717 1.35897e-17
4307.30128 1.35355e-17
4310.03537 1.33553e-17
4312.76947 1.32929e-17
4315.51358 1.32547e-17
4318.24767 1.32397e-17
4320.98177 1.31779e-17
4323.72588 1.31783e-17
4326.45997 1.31637e-17
4329.19407 1.32111e-17
4331.93818 1.28539e-17
4334.67227 1.29864e-17
4337.40636 1.29471e-17
4340.15047 1.29075e-17
4342.88457 1.26818e-17
4345.61866 1.25104e-17
4348.36278 1.24134e-17
4351.09687 1.24154e-17
4353.83097 1.24141e-17
4356.57508 1.23330e-17
4359.30917 1.21800e-17
4362.04327 1.23122e-17
4364.78737 1.22622e-17
4367.52147 1.20778e-17
4370.25557 1.20672e-17
4372.99968 1.20340e-17
4375.73377 1.19885e-17
4378.46787 1.21143e-17
4381.21198 1.17787e-17
4383.94607 1.21115e-17
4386.68016 1.20693e-17
4389.42428 1.21800e-17
4392.15837 1.20462e-17
4394.89247 1.20762e-17
4397.63658 1.22055e-17
4400.37067 1.23878e-17
4403.10477 1.23895e-17
4405.84888 1.23893e-17
4408.58297 1.23793e-17
4411.31707 1.26806e-17
4414.06117 1.28276e-17
4416.79527 1.26881e-17
4419.52937 1.31382e-17
4422.27347 1.33174e-17
4425.00757 1.34721e-17
4427.74166 1.36935e-17
4430.48578 1.37311e-17
4433.21987 1.39926e-17
4435.95397 1.41294e-17
4438.69808 1.40584e-17
4441.43217 1.43159e-17
4444.16627 1.45557e-17
4446.91038 1.47875e-17
4449.64447 1.48291e-17
4452.37856 1.50798e-17
4455.12267 1.51200e-17
4457.85677 1.53583e-17
4460.59087 1.51997e-17
4463.33497 1.56756e-17
4466.06907 1.57137e-17
4468.80317 1.58337e-17
4471.54728 1.61179e-17
4474.28137 1.63568e-17
4477.01547 1.59828e-17
4479.75958 1.65761e-17
4482.49367 1.65409e-17
4485.23778 1.65292e-17
4487.97188 1.65166e-17
4490.70597 1.68439e-17
4493.44007 1.66633e-17
4496.18418 1.71153e-17
4498.91827 1.68830e-17
4501.66238 1.69608e-17
4504.39647 1.71282e-17
4507.13057 1.71948e-17
4509.86467 1.71608e-17
4512.60878 1.73660e-17
4515.34287 1.73605e-17
4518.07697 1.71433e-17
4520.82108 1.73290e-17
4523.55517 1.71118e-17
4526.29928 1.70636e-17
4529.03337 1.69488e-17
4531.76747 1.70892e-17
4534.51158 1.68198e-17
4537.24568 1.66638e-17
4539.97977 1.68115e-17
4542.72388 1.67933e-17
4545.45798 1.65270e-17
4548.19207 1.65208e-17
4550.93618 1.62950e-17
4553.67028 1.61896e-17
4556.40437 1.60178e-17
4559.14848 1.60256e-17
4561.88258 1.57434e-17
4564.61667 1.56652e-17
4567.36078 1.55206e-17
4570.09488 1.52568e-17
4572.82897 1.51993e-17
4575.57308 1.49803e-17
4578.30717 1.46744e-17
4581.04127 1.47278e-17
4583.78538 1.45542e-17
4586.51948 1.43711e-17
4589.25357 1.42685e-17
4591.99768 1.42671e-17
4594.73178 1.38383e-17
4597.46587 1.38913e-17
4600.20998 1.36694e-17
4602.94408 1.35723e-17
4605.67817 1.34610e-17
4608.42228 1.34903e-17
4611.15638 1.30854e-17
4613.89047 1.31993e-17
4616.63458 1.28486e-17
4619.36867 1.28576e-17
4622.10277 1.27490e-17
4624.84688 1.25467e-17
4627.58097 1.26604e-17
4630.31507 1.23709e-17
4633.05918 1.23834e-17
4635.79328 1.21150e-17
4638.52737 1.20722e-17
4641.27148 1.21213e-17
4644.00558 1.18936e-17
4646.73967 1.17558e-17
4649.48378 1.17108e-17
4652.21788 1.16076e-17
4654.95197 1.14349e-17
4657.69608 1.15137e-17
4660.43018 1.12530e-17
4663.16427 1.14996e-17
4665.90838 1.12320e-17
4668.64247 1.15447e-17
4671.37657 1.14958e-17
4674.12068 1.16462e-17
4676.85478 1.14696e-17
4679.58887 1.18968e-17
4682.33298 1.16403e-17
4685.06708 1.19132e-17
4687.80117 1.20320e-17
4690.54528 1.21129e-17
4693.27938 1.21561e-17
4696.01347 1.22792e-17
4698.75758 1.23420e-17
4701.49168 1.24878e-17
4704.22577 1.22756e-17
4706.96988 1.26886e-17
4709.70398 1.27291e-17
4712.43807 1.27210e-17
4715.18218 1.26706e-17
4717.91628 1.27646e-17
4720.65037 1.30658e-17
4723.39448 1.31865e-17
4726.12858 1.32658e-17
4728.86267 1.32332e-17
4731.60678 1.34256e-17
4734.34087 1.35214e-17
4737.07497 1.35509e-17
4739.81908 1.36068e-17
4742.55318 1.38145e-17
4745.28727 1.39048e-17
4748.03138 1.40916e-17
4750.76548 1.41971e-17
4753.49957 1.41691e-17
4756.24368 1.43320e-17
4758.97778 1.46287e-17
4761.71187 1.46133e-17
4764.45598 1.46119e-17
4767.19008 1.46568e-17
4769.92417 1.49600e-17
4772.66828 1.49869e-17
4775.40238 1.49777e-17
4778.13647 1.50894e-17
4780.88058 1.51328e-17
4783.61467 1.50781e-17
4786.34877 1.50054e-17
4789.09288 1.52717e-17
4791.82697 1.52233e-17
4794.56107 1.56355e-17
4797.30518 1.51598e-17
4800.03928 1.52851e-17
4802.77337 1.50617e-17
4805.51748 1.50164e-17
4808.25158 1.52740e-17
4810.98567 1.52704e-17
4813.72978 1.52051e-17
4816.46388 1.54292e-17
4819.19797 1.51499e-17
4821.94208 1.52995e-17
4824.67618 1.50617e-17
4827.41027 1.50630e-17
4830.15438 1.52209e-17
4832.88847 1.52206e-17
4835.62257 1.50003e-17
4838.36668 1.52288e-17
4841.10078 1.52788e-17
4843.83487 1.52625e-17
4846.57898 1.53094e-17
4849.31308 1.55500e-17
4852.04717 1.53470e-17
4854.79128 1.55566e-17
4857.52538 1.52129e-17
4860.25947 1.52893e-17
4863.00358 1.55598e-17
4865.73768 1.53674e-17
4868.47177 1.54332e-17
4871.21588 1.55150e-17
4873.94997 1.56295e-17
4876.68407 1.55157e-17
4879.42818 1.53290e-17
4882.16228 1.54347e-17
4884.89637 1.56802e-17
4887.64048 1.55826e-17
4890.37458 1.55242e-17
4893.11869 1.55949e-17
4895.85278 1.56152e-17
4898.58687 1.56409e-17
4901.33099 1.55549e-17
4904.06508 1.57047e-17
4906.79918 1.56218e-17
4909.54328 1.56597e-17
4912.27738 1.56667e-17
4915.01148 1.55197e-17
4917.75559 1.53819e-17
4920.48968 1.53406e-17
4923.22378 1.52461e-17
4925.96789 1.51433e-17
4928.70198 1.50330e-17
4931.43608 1.49456e-17
4934.18019 1.49433e-17
4936.91428 1.50297e-17
4939.64838 1.45159e-17
4942.39249 1.44931e-17
4945.12658 1.45605e-17
4947.86067 1.42252e-17
4950.60478 1.41778e-17
4953.33888 1.39964e-17
4956.07298 1.38403e-17
4958.81709 1.38463e-17
4961.55118 1.37165e-17
4964.28528 1.37012e-17
4967.02939 1.35431e-17
4969.76348 1.34767e-17
4972.49758 1.35261e-17
4975.24168 1.34599e-17
4977.97578 1.32672e-17
4980.70988 1.33376e-17
4983.45399 1.31799e-17
4986.18808 1.33698e-17
4988.92217 1.32874e-17
4991.66629 1.31588e-17
4994.40038 1.31716e-17
4997.13447 1.30281e-17
4999.87859 1.31144e-17
5002.61268 1.30427e-17
5005.34678 1.29642e-17
5008.09089 1.30490e-17
5010.82498 1.31878e-17
5013.55908 1.30421e-17
5016.30319 1.29238e-17
5019.03728 1.30392e-17
5021.77138 1.30698e-17
5024.51548 1.28179e-17
5027.24958 1.28989e-17
5029.98368 1.30771e-17
5032.72779 1.30678e-17
5035.46188 1.30756e-17
5038.19597 1.30959e-17
5040.94009 1.31695e-17
5043.67418 1.32864e-17
5046.40828 1.33302e-17
5049.15239 1.32697e-17
5051.88648 1.33987e-17
5054.62058 1.34199e-17
5057.36469 1.35427e-17
5060.09878 1.33910e-17
5062.83288 1.35437e-17
5065.57698 1.32941e-17
5068.31108 1.33302e-17
5071.04518 1.35155e-17
5073.78928 1.35311e-17
5076.52338 1.33569e-17
5079.25748 1.34533e-17
5082.00159 1.34250e-17
5084.73568 1.34132e-17
5087.46978 1.36513e-17
5090.21389 1.33811e-17
5092.94798 1.35349e-17
5095.68208 1.36846e-17
5098.42619 1.35610e-17
5101.16028 1.34395e-17
5103.89437 1.37379e-17
5106.63849 1.36428e-17
5109.37258 1.33210e-17
5112.10667 1.36831e-17
5114.85078 1.35443e-17
5117.58488 1.35317e-17
5120.31898 1.37072e-17
5123.06309 1.35297e-17
5125.79718 1.36126e-17
5128.53128 1.36798e-17
5131.27539 1.39333e-17
5134.00948 1.38933e-17
5136.74358 1.39914e-17
5139.48769 1.37257e-17
5142.22178 1.39606e-17
5144.95588 1.39514e-17
5147.69999 1.41226e-17
5150.43408 1.41876e-17
5153.16817 1.41250e-17
5155.91229 1.41224e-17
5158.64638 1.39934e-17
5161.38047 1.42115e-17
5164.12459 1.44209e-17
5166.85868 1.40738e-17
5169.59278 1.42540e-17
5172.33689 1.45033e-17
5175.07098 1.43332e-17
5177.80508 1.43286e-17
5180.54918 1.43406e-17
5183.28328 1.45867e-17
5186.01738 1.43075e-17
5188.76148 1.46078e-17
5191.49558 1.45840e-17
5194.22968 1.46639e-17
5196.97379 1.47076e-17
5199.70788 1.48363e-17
5202.44197 1.46832e-17
5205.18609 1.47830e-17
5207.92018 1.47122e-17
5210.65428 1.47600e-17
5213.39839 1.48561e-17
5216.13248 1.48079e-17
5218.86658 1.47165e-17
5221.61069 1.46571e-17
5224.34478 1.50619e-17
5227.07888 1.50017e-17
5229.82298 1.48275e-17
5232.55708 1.49252e-17
5235.29118 1.47090e-17
5238.03528 1.48463e-17
5240.76938 1.48804e-17
5243.50347 1.47728e-17
5246.24759 1.49413e-17
5248.98168 1.47879e-17
5251.71578 1.47604e-17
5254.45989 1.48386e-17
5257.19398 1.48172e-17
5259.93809 1.46344e-17
5262.67219 1.44916e-17
5265.40628 1.45389e-17
5268.14037 1.45860e-17
5270.88449 1.43742e-17
5273.61858 1.45358e-17
5276.36269 1.45936e-17
5279.09678 1.47053e-17
5281.83088 1.45320e-17
5284.57499 1.45225e-17
5287.30909 1.44996e-17
5290.04318 1.44963e-17
5292.78729 1.43621e-17
5295.52139 1.42176e-17
5298.25548 1.42176e-17
5300.99959 1.41479e-17
5303.73369 1.41688e-17
5306.46778 1.40486e-17
5309.20188 1.41874e-17
5311.94599 1.39328e-17
5314.68008 1.37588e-17
5317.42419 1.39196e-17
5320.15828 1.39575e-17
5322.89238 1.39144e-17
5325.63649 1.39083e-17
5328.37059 1.37182e-17
5331.10468 1.36559e-17
5333.84879 1.37139e-17
5336.58289 1.37272e-17
5339.31698 1.36863e-17
5342.06109 1.37559e-17
5344.79518 1.36966e-17
5347.52928 1.38373e-17
5350.27339 1.37219e-17
5353.00749 1.33885e-17
5355.74158 1.37283e-17
5358.48569 1.36619e-17
5361.21979 1.35393e-17
5363.95388 1.36416e-17
5366.69799 1.36584e-17
5369.43209 1.34983e-17
5372.16618 1.32618e-17
5374.91029 1.34827e-17
5377.64439 1.35406e-17
5380.37848 1.34615e-17
5383.12259 1.32961e-17
5385.85669 1.34100e-17
5388.59078 1.33917e-17
5391.33489 1.32603e-17
5394.06898 1.33192e-17
5396.80308 1.32772e-17
5399.54719 1.30997e-17
5402.28129 1.31029e-17
5405.01538 1.32578e-17
5407.75949 1.33531e-17
5410.49359 1.29884e-17
5413.22768 1.29386e-17
5415.97179 1.29879e-17
5418.70589 1.28889e-17
5421.43998 1.26886e-17
5424.18409 1.27465e-17
5426.91819 1.27242e-17
5429.65228 1.27660e-17
5432.39639 1.26916e-17
5435.13048 1.25803e-17
5437.86458 1.25024e-17
5440.60869 1.25488e-17
5443.34278 1.23495e-17
5446.07688 1.25366e-17
5448.82099 1.23416e-17
5451.55509 1.21344e-17
5454.28918 1.22073e-17
5457.03329 1.22707e-17
5459.76739 1.19238e-17
5462.50148 1.19495e-17
5465.24559 1.19610e-17
5467.97969 1.17919e-17
5470.71378 1.17479e-17
5473.45789 1.17237e-17
5476.19199 1.17270e-17
5478.92608 1.14500e-17
5481.67019 1.14918e-17
5484.40428 1.14293e-17
5487.13838 1.13917e-17
5489.88249 1.12158e-17
5492.61659 1.14255e-17
5495.35068 1.13726e-17
5498.09479 1.11470e-17
5500.82889 1.12468e-17
5503.56298 1.13051e-17
5506.30709 1.10591e-17
5509.04119 1.10853e-17
5511.77528 1.10843e-17
5514.51939 1.10237e-17
5517.25349 1.09177e-17
5519.98758 1.10236e-17
5522.73169 1.08686e-17
5525.46579 1.10897e-17
5528.19988 1.09053e-17
5530.94399 1.09386e-17
5533.67809 1.09313e-17
5536.41218 1.09924e-17
5539.15629 1.10627e-17
5541.89039 1.09192e-17
5544.62448 1.10802e-17
5547.36859 1.11591e-17
5550.10268 1.09654e-17
5552.83678 1.10491e-17
5555.58089 1.08967e-17
5558.31498 1.10949e-17
5561.04908 1.10601e-17
5563.79319 1.07909e-17
5566.52729 1.09890e-17
5569.26138 1.07920e-17
5572.00549 1.08533e-17
5574.73959 1.06804e-17
5577.47368 1.09312e-17
5580.21779 1.06691e-17
5582.95189 1.07214e-17
5585.68598 1.06978e-17
5588.43009 1.07160e-17
5591.16419 1.07164e-17
5593.89828 1.05305e-17
5596.64239 1.04808e-17
5599.37648 1.06346e-17
5602.11058 1.06364e-17
5604.85469 1.04969e-17
5607.58878 1.05345e-17
5610.32288 1.04715e-17
5613.06699 1.04347e-17
5615.80109 1.03630e-17
5618.53518 1.04106e-17
5621.27929 1.03629e-17
5624.01339 1.02662e-17
5626.74748 1.05056e-17
5629.49159 1.04715e-17
5632.22569 1.03294e-17
5634.95978 1.03368e-17
5637.70389 1.03099e-17
5640.43799 1.03030e-17
5643.18210 1.03836e-17
5645.91619 1.03145e-17
5648.65028 1.04594e-17
5651.38438 1.03696e-17
5654.12849 1.04564e-17
5656.86259 1.04080e-17
5659.59668 1.04890e-17
5662.34079 1.05537e-17
5665.07489 1.05590e-17
5667.80898 1.06427e-17
5670.55309 1.06057e-17
5673.28719 1.06383e-17
5676.02128 1.06674e-17
5678.76539 1.06778e-17
5681.49949 1.05749e-17
5684.24359 1.07864e-17
5686.97769 1.09107e-17
5689.71178 1.07536e-17
5692.45590 1.07515e-17
5695.18999 1.08181e-17
5697.92409 1.09830e-17
5700.66820 1.08487e-17
5703.40229 1.08250e-17
5706.13639 1.09246e-17
5708.88050 1.09832e-17
5711.61459 1.08615e-17
5714.34868 1.10033e-17
5717.09280 1.08617e-17
5719.82689 1.08980e-17
5722.56099 1.10151e-17
5725.30509 1.08802e-17
5728.03919 1.11464e-17
5730.77329 1.11177e-17
5733.51740 1.10864e-17
5736.25149 1.11690e-17
5738.98559 1.11972e-17
5741.72969 1.11833e-17
5744.46379 1.11334e-17
5747.19789 1.11073e-17
5749.94200 1.13487e-17
5752.67609 1.14086e-17
5755.41019 1.13337e-17
5758.15430 1.13571e-17
5760.88839 1.14563e-17
5763.62248 1.13278e-17
5766.36659 1.13623e-17
5769.10069 1.14139e-17
5771.83479 1.13998e-17
5774.57890 1.14036e-17
5777.31299 1.14313e-17
5780.04709 1.14275e-17
5782.79120 1.13662e-17
5785.52529 1.14811e-17
5788.25939 1.13872e-17
5791.00349 1.13692e-17
5793.73759 1.14655e-17
5796.47169 1.15814e-17
5799.21580 1.14924e-17
5801.94989 1.13818e-17
5804.68398 1.16288e-17
5807.42810 1.17082e-17
5810.16219 1.16684e-17
5812.89628 1.16251e-17
5815.64040 1.14957e-17
5818.37449 1.17310e-17
5821.10859 1.17989e-17
5823.85270 1.15662e-17
5826.58679 1.16178e-17
5829.32089 1.15792e-17
5832.06500 1.16401e-17
5834.79909 1.16604e-17
5837.53319 1.16966e-17
5840.27729 1.17762e-17
5843.01139 1.16587e-17
5845.74549 1.16634e-17
5848.48960 1.17559e-17
5851.22369 1.16811e-17
5853.95778 1.16353e-17
5856.70190 1.16045e-17
5859.43599 1.17200e-17
5862.17009 1.15979e-17
5864.91420 1.15408e-17
5867.64829 1.16296e-17
5870.38239 1.17225e-17
5873.12650 1.16532e-17
5875.86059 1.14838e-17
5878.59469 1.15799e-17
5881.33879 1.15218e-17
5884.07289 1.15631e-17
5886.80699 1.13898e-17
5889.55109 1.13672e-17
5892.28519 1.12205e-17
5895.01929 1.12907e-17
5897.76340 1.13740e-17
5900.49749 1.14079e-17
5903.23159 1.08170e-17
5905.97570 1.08392e-17
5908.70979 1.10439e-17
5911.44389 1.11902e-17
5914.18800 1.13282e-17
5916.92209 1.11196e-17
5919.65619 1.11759e-17
5922.40030 1.11626e-17
5925.13439 1.11914e-17
5927.86848 1.11261e-17
5930.61259 1.12825e-17
5933.34669 1.12159e-17
5936.08079 1.10870e-17
5938.82490 1.11528e-17
5941.55899 1.10733e-17
5944.29309 1.09769e-17
5947.03720 1.10742e-17
5949.77129 1.13723e-17
5952.50539 1.09788e-17
5955.24950 1.08586e-17
5957.98359 1.12814e-17
5960.71769 1.11126e-17
5963.46180 1.08986e-17
5966.19589 1.11447e-17
5968.92998 1.09576e-17
5971.67410 1.09427e-17
5974.40819 1.08861e-17
5977.14228 1.11285e-17
5979.88640 1.09844e-17
5982.62049 1.09052e-17
5985.35459 1.07694e-17
5988.09870 1.08525e-17
5990.83279 1.08784e-17
5993.56689 1.08568e-17
5996.31099 1.09762e-17
5999.04509 1.07822e-17
6001.77919 1.07411e-17
6004.52329 1.07047e-17
6007.25739 1.07946e-17
6009.99149 1.07625e-17
6012.73560 1.07374e-17
6015.46969 1.07462e-17
6018.20378 1.05812e-17
6020.94790 1.08062e-17
6023.68199 1.07981e-17
6026.41609 1.07554e-17
6029.16020 1.06786e-17
6031.89429 1.06506e-17
6034.62839 1.05866e-17
6037.37250 1.05632e-17
6040.10659 1.05806e-17
6042.84069 1.06028e-17
6045.58479 1.06532e-17
6048.31889 1.06343e-17
6051.06300 1.05925e-17
6053.79709 1.04823e-17
6056.53119 1.04845e-17
6059.27530 1.04175e-17
6062.00940 1.04828e-17
6064.74349 1.05045e-17
6067.48760 1.03181e-17
6070.22170 1.05293e-17
6072.95579 1.06139e-17
6075.69990 1.02971e-17
6078.43400 1.03833e-17
6081.16809 1.02750e-17
6083.91220 1.03218e-17
6086.64630 1.03484e-17
6089.38039 1.03425e-17
6092.12450 1.00892e-17
6094.85859 1.01419e-17
6097.59269 1.01202e-17
6100.33680 9.99746e-18
6103.07090 9.89387e-18
6105.80499 9.84157e-18
6108.54910 9.69359e-18
6111.28320 9.85665e-18
6114.01729 9.71469e-18
6116.76140 9.64789e-18
6119.49550 9.45438e-18
6122.22959 9.52537e-18
6124.97370 9.37917e-18
6127.70780 9.40584e-18
6130.44189 9.33676e-18
6133.18600 9.36431e-18
6135.92009 9.16105e-18
6138.65419 9.09115e-18
6141.39830 9.03862e-18
6144.13240 9.14406e-18
6146.86649 9.17929e-18
6149.61060 8.97416e-18
6152.34470 8.85622e-18
6155.07879 8.87301e-18
6157.82290 8.84876e-18
6160.55699 8.68270e-18
6163.29109 8.59609e-18
6166.03520 8.60347e-18
6168.76930 8.43596e-18
6171.50339 8.38664e-18
6174.24750 8.45473e-18
6176.98160 8.32658e-18
6179.71569 8.19041e-18
6182.45980 8.28251e-18
6185.19390 8.15368e-18
6187.92799 8.01477e-18
6190.67210 8.11074e-18
6193.40620 8.04215e-18
6196.14029 8.05705e-18
6198.88440 7.93504e-18
6201.61850 8.01315e-18
6204.35259 8.08497e-18
6207.09670 8.02242e-18
6209.83079 7.98143e-18
6212.56489 8.06145e-18
6215.30900 8.12089e-18
6218.04309 7.99521e-18
6220.77719 8.04188e-18
6223.52130 8.07908e-18
6226.25540 8.10376e-18
6228.98949 8.16397e-18
6231.73360 8.33787e-18
6234.46770 8.29057e-18
6237.20179 8.19199e-18
6239.94590 8.30372e-18
6242.68000 8.18691e-18
6245.41409 8.32269e-18
6248.15820 8.26655e-18
6250.89229 8.28766e-18
6253.62639 8.41873e-18
6256.37050 8.44504e-18
6259.10459 8.56469e-18
6261.83869 8.45257e-18
6264.58280 8.50367e-18
6267.31690 8.58911e-18
6270.05099 8.54874e-18
6272.79510 8.81584e-18
6275.52920 8.83923e-18
6278.26329 8.67729e-18
6281.00740 8.95123e-18
6283.74150 9.19294e-18
6286.47559 9.17496e-18
6289.21970 8.94262e-18
6291.95380 9.15270e-18
6294.68789 9.45237e-18
6297.43200 9.54616e-18
6300.16609 9.62375e-18
6302.90019 9.58710e-18
6305.64430 9.93263e-18
6308.37840 9.93171e-18
6311.11249 1.01415e-17
6313.85660 1.02478e-17
6316.59070 1.04356e-17
6319.32479 1.07258e-17
6322.06890 1.08165e-17
6324.80300 1.08520e-17
6327.53709 1.10818e-17
6330.28120 1.10854e-17
6333.01530 1.11635e-17
6335.74939 1.14061e-17
6338.49350 1.15771e-17
6341.22760 1.15380e-17
6343.96169 1.17260e-17
6346.70580 1.20988e-17
6349.43990 1.20338e-17
6352.17399 1.22230e-17
6354.91810 1.24358e-17
6357.65220 1.24478e-17
6360.38629 1.27367e-17
6363.13040 1.27260e-17
6365.86450 1.29410e-17
6368.59859 1.32655e-17
6371.34270 1.31536e-17
6374.07679 1.34840e-17
6376.81089 1.36660e-17
6379.55500 1.37595e-17
6382.28910 1.39454e-17
6385.02319 1.42164e-17
6387.76730 1.42350e-17
6390.50140 1.44704e-17
6393.23549 1.45709e-17
6395.97960 1.45079e-17
6398.71370 1.47539e-17
6401.44779 1.47426e-17
6404.19190 1.48038e-17
6406.92600 1.50486e-17
6409.66009 1.51303e-17
6412.40420 1.50770e-17
6415.13829 1.51922e-17
6417.88241 1.52885e-17
6420.61650 1.55721e-17
6423.35059 1.56813e-17
6426.08469 1.57522e-17
6428.82880 1.57887e-17
6431.56290 1.58664e-17
6434.30701 1.58926e-17
6437.04110 1.61079e-17
6439.77520 1.60267e-17
6442.51930 1.59623e-17
6445.25340 1.60270e-17
6447.98750 1.60716e-17
6450.73160 1.60768e-17
6453.46570 1.60867e-17
6456.19980 1.62699e-17
6458.94391 1.62753e-17
6461.67800 1.61640e-17
6464.41209 1.62399e-17
6467.15621 1.62346e-17
6469.89030 1.60441e-17
6472.62440 1.58421e-17
6475.36851 1.58662e-17
6478.10260 1.59758e-17
6480.83670 1.60199e-17
6483.58081 1.59836e-17
6486.31490 1.59925e-17
6489.04900 1.60350e-17
6491.79310 1.60285e-17
6494.52720 1.60079e-17
6497.26130 1.59234e-17
6500.00541 1.60873e-17
6502.73950 1.61756e-17
6505.47359 1.59635e-17
6508.21771 1.61064e-17
6510.95180 1.60384e-17
6513.68590 1.60047e-17
6516.43001 1.58224e-17
6519.16410 1.57264e-17
6521.89820 1.55518e-17
6524.64231 1.54919e-17
6527.37640 1.56381e-17
6530.11049 1.55699e-17
6532.85461 1.56508e-17
6535.58870 1.54818e-17
6538.32280 1.54603e-17
6541.06691 1.53726e-17
6543.80100 1.54101e-17
6546.53510 1.54417e-17
6549.27921 1.52625e-17
6552.01330 1.51777e-17
6554.74740 1.51296e-17
6557.49151 1.49618e-17
6560.22560 1.49887e-17
6562.95970 1.50510e-17
6565.70381 1.49894e-17
6568.43790 1.51114e-17
6571.17200 1.51009e-17
6573.91611 1.48836e-17
6576.65020 1.48718e-17
6579.38429 1.47613e-17
6582.12841 1.46271e-17
6584.86250 1.44715e-17
6587.59659 1.44317e-17
6590.34071 1.45509e-17
6593.07480 1.43257e-17
6595.80890 1.42852e-17
6598.55301 1.43559e-17
6601.28710 1.43303e-17
6604.02120 1.42333e-17
6606.76530 1.40696e-17
6609.49940 1.41297e-17
6612.23350 1.41458e-17
6614.97761 1.38677e-17
6617.71170 1.37637e-17
6620.44580 1.38118e-17
6623.18991 1.39070e-17
6625.92400 1.36893e-17
6628.65809 1.37633e-17
6631.40221 1.36302e-17
6634.13630 1.36026e-17
6636.87040 1.35936e-17
6639.61451 1.33481e-17
6642.34860 1.33530e-17
6645.08270 1.33926e-17
6647.82681 1.33584e-17
6650.56090 1.32662e-17
6653.29500 1.30239e-17
6656.03910 1.29973e-17
6658.77320 1.29493e-17
6661.50730 1.28110e-17
6664.25141 1.29133e-17
6666.98550 1.28155e-17
6669.71959 1.28840e-17
6672.46371 1.28225e-17
6675.19780 1.27751e-17
6677.93190 1.27345e-17
6680.67601 1.27162e-17
6683.41010 1.26420e-17
6686.14420 1.24636e-17
6688.88831 1.26097e-17
6691.62240 1.25048e-17
6694.35649 1.22741e-17
6697.10061 1.23589e-17
6699.83470 1.22545e-17
6702.56880 1.21647e-17
6705.31291 1.21142e-17
6708.04700 1.21487e-17
6710.78110 1.19417e-17
6713.52521 1.21608e-17
6716.25930 1.18343e-17
6718.99340 1.18810e-17
6721.73751 1.19129e-17
6724.47160 1.18584e-17
6727.20570 1.16827e-17
6729.94981 1.15087e-17
6732.68390 1.16028e-17
6735.41800 1.15790e-17
6738.16211 1.15538e-17
6740.89620 1.14596e-17
6743.63029 1.12333e-17
6746.37441 1.15479e-17
6749.10850 1.11321e-17
6751.84260 1.12211e-17
6754.58671 1.12432e-17
6757.32080 1.10954e-17
6760.05490 1.10573e-17
6762.79901 1.10961e-17
6765.53310 1.10410e-17
6768.26720 1.09745e-17
6771.01130 1.09953e-17
6773.74540 1.09594e-17
6776.47950 1.08983e-17
6779.22361 1.08243e-17
6781.95770 1.08632e-17
6784.69179 1.08471e-17
6787.43591 1.07994e-17
6790.17000 1.08187e-17
6792.90409 1.07043e-17
6795.64821 1.06837e-17
6798.38230 1.05304e-17
6801.11640 1.05883e-17
6803.86051 1.04937e-17
6806.59460 1.04753e-17
6809.32870 1.04832e-17
6812.07281 1.05281e-17
6814.80690 1.04971e-17
6817.54100 1.04089e-17
6820.28510 1.03203e-17
6823.01920 1.03223e-17
6825.76331 1.01027e-17
6828.49741 1.01525e-17
6831.23150 1.01586e-17
6833.96559 1.01082e-17
6836.70971 1.00848e-17
6839.44380 1.00497e-17
6842.18791 1.00610e-17
6844.92201 9.94098e-18
6847.65610 9.91846e-18
6850.40021 9.89028e-18
6853.13431 9.78705e-18
6855.86840 9.78462e-18
6858.61251 9.88357e-18
6861.34660 9.60619e-18
6864.08070 9.63245e-18
6866.82481 9.84036e-18
6869.55891 9.85323e-18
6872.29300 1.00318e-17
6875.03711 9.61955e-18
6877.77121 9.26761e-18
6880.50530 9.02720e-18
6883.24941 9.20793e-18
6885.98351 9.37897e-18
6888.71760 9.35324e-18
6891.46171 9.39473e-18
6894.19581 9.42359e-18
6896.92990 9.41936e-18
6899.67401 9.10265e-18
6902.40811 9.29944e-18
6905.14220 9.04351e-18
6907.88631 9.21494e-18
6910.62041 9.21661e-18
6913.35450 8.98246e-18
6916.09861 8.93484e-18
6918.83271 9.04762e-18
6921.56680 8.89812e-18
6924.31091 9.06747e-18
6927.04501 8.89414e-18
6929.77910 8.97625e-18
6932.52321 8.93386e-18
6935.25731 9.07600e-18
6937.99140 8.97743e-18
6940.73551 9.06020e-18
6943.46961 9.02172e-18
6946.20370 8.99887e-18
6948.94781 8.82752e-18
6951.68191 8.57006e-18
6954.41600 8.82787e-18
6957.16011 8.56372e-18
6959.89421 8.53858e-18
6962.62830 8.59963e-18
6965.37241 8.71157e-18
6968.10651 8.56923e-18
6970.84060 8.61971e-18
6973.58471 8.79660e-18
6976.31880 8.59341e-18
6979.05290 8.65367e-18
6981.79701 8.79940e-18
6984.53111 8.52642e-18
6987.26520 8.37728e-18
6990.00931 8.47018e-18
6992.74341 8.43276e-18
6995.47750 8.55169e-18
6998.22161 8.35809e-18
7000.95571 8.44453e-18
7003.68980 8.42871e-18
7006.43391 8.36278e-18
7009.16801 8.34793e-18
7011.90210 8.33373e-18
7014.64621 8.32536e-18
7017.38031 8.35598e-18
7020.11440 8.38539e-18
7022.85851 8.33926e-18
7025.59260 8.26927e-18
7028.32670 8.26451e-18
7031.07081 8.15527e-18
7033.80491 8.18706e-18
7036.53900 8.29719e-18
7039.28311 8.17748e-18
7042.01721 8.10971e-18
7044.75130 8.21048e-18
7047.49541 8.25237e-18
7050.22951 8.13493e-18
7052.96360 8.22188e-18
7055.70771 8.16037e-18
7058.44181 8.08383e-18
7061.17590 8.05697e-18
7063.92001 8.12897e-18
7066.65411 8.14826e-18
7069.38820 8.02933e-18
7072.13231 8.07954e-18
7074.86641 7.98425e-18
7077.60050 8.26352e-18
7080.34461 8.03562e-18
7083.07871 7.89349e-18
7085.81280 8.06646e-18
7088.55691 8.02676e-18
7091.29101 8.06428e-18
7094.02510 8.01695e-18
7096.76921 7.99294e-18
7099.50331 7.90601e-18
7102.23740 7.82755e-18
7104.98151 7.94572e-18
7107.71561 8.12265e-18
7110.44970 8.13304e-18
7113.19381 8.01290e-18
7115.92791 7.88176e-18
7118.66200 7.88691e-18
7121.40611 8.01466e-18
7124.14021 7.97011e-18
7126.87430 7.94782e-18
7129.61841 7.81818e-18
7132.35251 7.79923e-18
7135.08660 7.85451e-18
7137.83071 7.98902e-18
7140.56480 7.76285e-18
7143.29890 7.84783e-18
7146.04301 7.85558e-18
7148.77711 7.87481e-18
7151.51120 7.77526e-18
7154.25531 7.85495e-18
7156.98941 7.68545e-18
7159.72350 7.75297e-18
7162.46761 7.78431e-18
7165.20171 7.63329e-18
7167.93580 7.54424e-18
7170.67991 7.92800e-18
7173.41401 7.71558e-18
7176.14810 7.64525e-18
7178.89221 7.81722e-18
7181.62631 7.70887e-18
7184.36040 7.62547e-18
7187.10451 7.69029e-18
7189.83860 7.62343e-18
7192.57270 7.47121e-18
7195.31681 7.57448e-18
7198.05091 7.72400e-18
7200.78500 7.64040e-18
7203.52911 7.36702e-18
7206.26321 7.49746e-18
7209.00732 7.61057e-18
7211.74141 7.42314e-18
7214.47551 7.45429e-18
7217.21961 7.32429e-18
7219.95371 7.34103e-18
7222.68781 7.43143e-18
7225.43192 7.29498e-18
7228.16601 7.23560e-18
7230.90010 7.37688e-18
7233.64422 7.51940e-18
7236.37831 7.64941e-18
7239.11241 7.50708e-18
7241.85652 7.46343e-18
7244.59061 7.49814e-18
7247.32471 7.49370e-18
7250.06882 7.42829e-18
7252.80291 7.30683e-18
7255.53701 7.32551e-18
7258.28112 7.40486e-18
7261.01521 7.35567e-18
7263.74931 7.30906e-18
7266.49341 7.38735e-18
7269.22751 7.40562e-18
7271.96161 7.30079e-18
7274.70572 7.40204e-18
7277.43981 7.36155e-18
7280.17391 7.42733e-18
7282.91802 7.24987e-18
7285.65211 7.00101e-18
7288.38621 7.25003e-18
7291.13032 7.46189e-18
7293.86441 7.36704e-18
7296.59851 7.22094e-18
7299.34262 7.18509e-18
7302.07671 7.26767e-18
7304.81081 7.21465e-18
7307.55491 7.35435e-18
7310.28901 7.20721e-18
7313.02311 7.23748e-18
7315.76722 7.22630e-18
7318.50131 7.25398e-18
7321.23541 7.32803e-18
7323.97952 7.27344e-18
7326.71361 7.08412e-18
7329.44771 7.11828e-18
7332.19182 7.11736e-18
7334.92591 7.03461e-18
7337.66001 7.08364e-18
7340.40412 6.98967e-18
7343.13821 7.12960e-18
7345.87230 7.08078e-18
7348.61642 7.05616e-18
7351.35051 6.97731e-18
7354.08461 7.08059e-18
7356.82872 7.21224e-18
7359.56281 6.95555e-18
7362.29691 6.97372e-18
7365.04102 7.04138e-18
7367.77511 6.91216e-18
7370.50921 7.00176e-18
7373.25332 6.89575e-18
7375.98741 6.85678e-18
7378.72151 7.00005e-18
7381.46562 6.99046e-18
7384.19971 6.87322e-18
7386.93381 6.78247e-18
7389.67792 6.79960e-18
7392.41201 6.91472e-18
7395.14610 6.86154e-18
7397.89022 6.75596e-18
7400.62431 6.77818e-18
7403.35841 6.76489e-18
7406.10252 6.89233e-18
7408.83661 6.80894e-18
7411.57071 6.72270e-18
7414.31482 6.85550e-18
7417.04891 6.80738e-18
7419.78301 6.69445e-18
7422.52711 6.76807e-18
7425.26121 6.77267e-18
7427.99531 6.76192e-18
7430.73942 6.59574e-18
7433.47351 6.60347e-18
7436.20761 6.70889e-18
7438.95172 6.73843e-18
7441.68581 6.78835e-18
7444.41991 6.70426e-18
7447.16402 6.71981e-18
7449.89811 6.57363e-18
7452.63221 6.55956e-18
7455.37632 6.68675e-18
7458.11041 6.61045e-18
7460.84451 6.58853e-18
7463.58862 6.56575e-18
7466.32271 6.64897e-18
7469.05681 6.60044e-18
7471.80091 6.65130e-18
7474.53501 6.61103e-18
7477.26911 6.53606e-18
7480.01322 6.65745e-18
7482.74731 6.59354e-18
7485.48141 6.63741e-18
7488.22552 6.53107e-18
7490.95961 6.64977e-18
7493.69371 6.49509e-18
7496.43782 6.45282e-18
7499.17191 6.61264e-18
7501.90601 6.66156e-18
7504.65012 6.59242e-18
7507.38421 6.54333e-18
7510.11830 6.54767e-18
7512.86242 6.44575e-18
7515.59651 6.51402e-18
7518.33061 6.62698e-18
7521.07472 6.62604e-18
7523.80881 6.65812e-18
7526.54291 6.55551e-18
7529.28702 6.46780e-18
7532.02111 6.51542e-18
7534.75521 6.53614e-18
7537.49932 6.59863e-18
7540.23341 6.54403e-18
7542.96751 6.43735e-18
7545.71162 6.58371e-18
7548.44571 6.46193e-18
7551.17981 6.45604e-18
7553.92392 6.46070e-18
7556.65801 6.50910e-18
7559.39210 6.54372e-18
7562.13622 6.55273e-18
7564.87031 6.48746e-18
7567.60441 6.45206e-18
7570.34852 6.48290e-18
7573.08261 6.57575e-18
7575.82672 6.75593e-18
7578.56082 6.52255e-18
7581.29491 6.49809e-18
7584.03902 6.49346e-18
7586.77311 6.45392e-18
7589.50721 6.51054e-18
7592.25132 6.53350e-18
7594.98542 6.53056e-18
7597.71951 6.52763e-18
7600.46362 6.52470e-18
7603.19772 6.52179e-18
7605.93181 6.51886e-18
7608.67592 6.51593e-18
7611.41002 6.51300e-18
7614.14411 6.51007e-18
7616.88822 6.50717e-18
7619.62232 6.50424e-18
7622.35641 6.50131e-18
7625.10052 6.49837e-18
7627.83462 6.49547e-18
7630.56871 6.49254e-18
7633.31282 6.48961e-18
7636.04691 6.48668e-18
7638.78101 6.48378e-18
7641.52512 6.48085e-18
7644.25922 6.47792e-18
7646.99331 6.47499e-18
7649.73742 6.47209e-18
7652.47152 6.46916e-18
7655.20561 6.46623e-18
7657.94972 6.46330e-18
7660.68382 6.44850e-18
7663.41791 6.25291e-18
7666.16202 6.17788e-18
7668.89612 6.26526e-18
7671.63021 6.14499e-18
7674.37432 6.48272e-18
7677.10841 6.35786e-18
7679.84251 6.25640e-18
7682.58662 6.25871e-18
7685.32072 6.32974e-18
7688.05481 6.26221e-18
7690.79892 6.23774e-18
7693.53302 6.48470e-18
7696.26711 6.45574e-18
7699.01122 6.21420e-18
7701.74532 6.22960e-18
7704.47941 6.28065e-18
7707.22352 6.21530e-18
7709.95762 6.35487e-18
7712.69171 6.25669e-18
7715.43582 6.15152e-18
7718.16992 6.29328e-18
7720.90401 6.25041e-18
7723.64812 6.42501e-18
7726.38222 6.38015e-18
7729.11631 6.33876e-18
7731.86042 6.26664e-18
7734.59452 6.21028e-18
7737.32861 6.31035e-18
7740.07272 6.18214e-18
7742.80682 6.17397e-18
7745.54091 6.24330e-18
7748.28502 6.13852e-18
7751.01912 6.19652e-18
7753.75321 6.29911e-18
7756.49732 6.32361e-18
7759.23142 6.31048e-18
7761.96551 6.31825e-18
7764.70962 6.34444e-18
7767.44372 6.10650e-18
7770.17781 6.22166e-18
7772.92192 6.23611e-18
7775.65602 6.26081e-18
7778.39011 6.35931e-18
7781.13422 6.36378e-18
7783.86832 6.17528e-18
7786.60241 6.01285e-18
7789.34652 6.09184e-18
7792.08061 6.23987e-18
7794.81471 6.55534e-18
7797.55882 6.17553e-18
7800.29291 6.05463e-18
7803.02701 5.98318e-18
7805.77112 6.02330e-18
7808.50522 6.15209e-18
7811.23931 6.16778e-18
7813.98342 6.13856e-18
7816.71752 6.09372e-18
7819.45161 5.98753e-18
7822.19572 5.99604e-18
7824.92982 6.02389e-18
7827.66391 6.21200e-18
7830.40802 6.17940e-18
7833.14212 5.90082e-18
7835.87621 5.84011e-18
7838.62032 5.95214e-18
7841.35441 5.93838e-18
7844.08851 6.04193e-18
7846.83262 6.16913e-18
7849.56672 5.97895e-18
7852.30081 5.83012e-18
7855.04492 5.78826e-18
7857.77902 5.82740e-18
7860.51311 5.93656e-18
7863.25722 5.93403e-18
7865.99132 6.19524e-18
7868.72541 6.05705e-18
7871.46952 5.78577e-18
7874.20362 5.75263e-18
7876.93771 5.70294e-18
7879.68182 5.87223e-18
7882.41592 5.84893e-18
7885.15001 5.85966e-18
7887.89412 5.71975e-18
7890.62822 5.58181e-18
7893.36231 5.57531e-18
7896.10642 5.66068e-18
7898.84052 5.78119e-18
7901.57461 5.84607e-18
7904.31872 5.83074e-18
7907.05282 5.63885e-18
7909.78691 5.62379e-18
7912.53102 5.62596e-18
7915.26512 5.69790e-18
7917.99921 5.73056e-18
7920.74332 5.77861e-18
7923.47742 5.57507e-18
7926.21151 5.48566e-18
7928.95562 5.57243e-18
7931.68972 5.56619e-18
7934.42381 5.62352e-18
7937.16792 5.88585e-18
7939.90202 5.80774e-18
7942.64613 5.49280e-18
7945.38022 5.45167e-18
7948.11432 5.45429e-18
7950.84841 5.58087e-18
7953.59252 5.65604e-18
7956.32661 5.91579e-18
7959.06071 5.76454e-18
7961.80482 5.51305e-18
7964.53892 5.52767e-18
7967.27301 5.29952e-18
7970.01712 5.42715e-18
7972.75122 5.58917e-18
7975.48531 5.59810e-18
7978.22942 5.53313e-18
7980.96352 5.58753e-18
7983.70763 5.35637e-18
7986.44172 5.56774e-18
7989.17582 5.67022e-18
7991.90991 5.80228e-18
7994.65402 5.87423e-18
7997.38812 5.66226e-18
8000.13223 5.42739e-18
8002.86632 5.37903e-18
8005.60041 5.44256e-18
8008.34453 5.59380e-18
8011.07862 5.75693e-18
8013.81272 5.59446e-18
8016.55683 5.38476e-18
8019.29092 5.34513e-18
8022.02502 5.32798e-18
8024.76913 5.56396e-18
8027.50322 5.61162e-18
8030.23732 5.65284e-18
8032.98142 5.52645e-18
8035.71552 5.20288e-18
8038.44962 5.29922e-18
8041.19373 5.24826e-18
8043.92782 5.40898e-18
8046.66191 5.56907e-18
8049.40603 5.44339e-18
8052.14012 5.09184e-18
8054.87422 4.91522e-18
8057.61833 5.12778e-18
8060.35242 5.29685e-18
8063.08652 5.31623e-18
8065.83063 5.31202e-18
8068.56472 5.21380e-18
8071.29882 4.95904e-18
8074.04293 4.70505e-18
8076.77702 4.74616e-18
8079.51112 4.75572e-18
8082.25522 4.76476e-18
8084.98932 4.77387e-18
8087.72342 4.78303e-18
8090.46753 4.79222e-18
8093.20162 4.80152e-18
8094.00282 4.80152e-18
8095.99581 4.72927e-18
8097.99881 4.75142e-18
8100.00181 4.84701e-18
8102.00481 4.76755e-18
8103.99779 4.69238e-18
8106.00079 4.85057e-18
8108.00379 4.79293e-18
8109.99678 4.75030e-18
8111.99978 4.72818e-18
8114.00278 4.87454e-18
8115.99576 4.72959e-18
8117.99876 4.76004e-18
8120.00176 4.64137e-18
8121.99474 4.67819e-18
8123.99775 4.72981e-18
8126.00075 4.70397e-18
8128.00374 4.69905e-18
8129.99673 4.66762e-18
8131.99973 4.69197e-18
8134.00273 4.90057e-18
8135.99572 4.78949e-18
8137.99872 4.70693e-18
8140.00172 4.85164e-18
8142.00472 4.71002e-18
8143.99770 4.73725e-18
8146.00070 4.69295e-18
8148.00370 4.69375e-18
8149.99669 4.73400e-18
8151.99969 4.61807e-18
8154.00269 4.57065e-18
8155.99567 4.66838e-18
8157.99867 4.81486e-18
8160.00167 4.59439e-18
8162.00467 4.60490e-18
8163.99766 4.70656e-18
8166.00066 4.64755e-18
8168.00366 4.68832e-18
8169.99664 4.64564e-18
8171.99964 4.74498e-18
8174.00264 4.80397e-18
8175.99563 4.61830e-18
8177.99863 4.63779e-18
8180.00163 4.65659e-18
8182.00463 4.59906e-18
8183.99761 4.60814e-18
8186.00061 4.62049e-18
8188.00361 4.63730e-18
8189.99659 4.69966e-18
8191.99960 4.76313e-18
8194.00259 4.66500e-18
8195.99558 4.62640e-18
8197.99858 4.67373e-18
8200.00158 4.69328e-18
8202.00458 4.59964e-18
8203.99756 4.58054e-18
8206.00057 4.64059e-18
8208.00356 4.60045e-18
8209.99655 4.58420e-18
8211.99955 4.63562e-18
8214.00255 4.69785e-18
8215.99554 4.58910e-18
8217.99854 4.64890e-18
8220.00154 4.59405e-18
8222.00454 4.64734e-18
8223.99752 4.66000e-18
8226.00052 4.59843e-18
8228.00352 4.75109e-18
8229.99651 4.74103e-18
8231.99950 4.61962e-18
8234.00251 4.64486e-18
8235.99549 4.58564e-18
8237.99849 4.59938e-18
8240.00149 4.67658e-18
8242.00449 4.60435e-18
8243.99748 4.59765e-18
8246.00048 4.60335e-18
8248.00347 4.63663e-18
8249.99646 4.68093e-18
8251.99946 4.70568e-18
8254.00246 4.70456e-18
8255.99545 4.68433e-18
8257.99844 4.65419e-18
8260.00144 4.68190e-18
8261.99443 4.65491e-18
8263.99743 4.67383e-18
8266.00043 4.69945e-18
8268.00343 4.70800e-18
8269.99642 4.70657e-18
8271.99942 4.81985e-18
8274.00242 4.64870e-18
8275.99540 4.77442e-18
8277.99840 4.76972e-18
8280.00140 4.70876e-18
8282.00440 4.80089e-18
8283.99739 4.87925e-18
8286.00039 4.68857e-18
8288.00338 4.62470e-18
8289.99637 4.73496e-18
8291.99937 4.71898e-18
8294.00237 4.78739e-18
8295.99536 4.80229e-18
8297.99835 4.72693e-18
8300.00136 4.86952e-18
8302.00436 4.87198e-18
8303.99734 4.72460e-18
8306.00034 4.84383e-18
8308.00334 4.84932e-18
8309.99633 4.78810e-18
8311.99932 4.83447e-18
8314.00232 4.85225e-18
8315.99531 4.85065e-18
8317.99831 4.81436e-18
8320.00131 4.87781e-18
8322.00431 4.97547e-18
8323.99730 4.84957e-18
8326.00030 4.87773e-18
8328.00330 4.90597e-18
8329.99628 4.96177e-18
8331.99928 4.84275e-18
8334.00228 4.83764e-18
8335.99527 4.90529e-18
8337.99827 4.86197e-18
8340.00127 4.95854e-18
8342.00427 4.95881e-18
8343.99725 5.03769e-18
8346.00025 5.06275e-18
8348.00325 4.85745e-18
8349.99624 5.02611e-18
8351.99924 4.95233e-18
8354.00223 5.04724e-18
8355.99522 5.00286e-18
8357.99822 5.02539e-18
8360.00122 4.96610e-18
8362.00422 4.93936e-18
8363.99720 4.94681e-18
8366.00021 5.07316e-18
8368.00320 5.06378e-18
8369.99619 5.05610e-18
8371.99919 4.96263e-18
8374.00219 5.02526e-18
8376.00519 5.01267e-18
8377.99818 4.92905e-18
8380.00118 5.09029e-18
8382.00418 5.05138e-18
8383.99716 5.06469e-18
8386.00016 5.05237e-18
8388.00316 5.05531e-18
8389.99615 5.02133e-18
8391.99915 5.00780e-18
8394.00215 5.01511e-18
8395.99513 5.15698e-18
8397.99813 5.08550e-18
8400.00113 5.07349e-18
8402.00413 5.19165e-18
8403.99712 5.07365e-18
8406.00012 5.10240e-18
8408.00311 5.00117e-18
8409.99610 5.02690e-18
8411.99910 5.10394e-18
8414.00210 5.08767e-18
8415.99509 5.17052e-18
8417.99808 5.13177e-18
8420.00108 5.05654e-18
8422.00409 5.14140e-18
8423.99707 5.17219e-18
8426.00007 5.24668e-18
8428.00307 5.02482e-18
8429.99606 5.04798e-18
8431.99906 5.09799e-18
8434.00206 5.04319e-18
8436.00506 5.20176e-18
8437.99804 5.12180e-18
8440.00104 5.15091e-18
8442.00404 5.11526e-18
8443.99703 5.16893e-18
8446.00003 5.08467e-18
8448.00302 5.16236e-18
8449.99601 5.12054e-18
8451.99901 5.17921e-18
8454.00201 5.17372e-18
8455.99500 5.13049e-18
8457.99799 5.05758e-18
8460.00100 5.14056e-18
8462.00400 5.25917e-18
8463.99698 5.07726e-18
8465.99998 5.08467e-18
8468.00298 5.22085e-18
8469.99597 5.06027e-18
8471.99897 5.05274e-18
8474.00196 5.07794e-18
8475.99495 5.07198e-18
8477.99795 5.11540e-18
8480.00095 5.13313e-18
8482.00395 5.16557e-18
8483.99694 5.19980e-18
8485.99994 5.05464e-18
8488.00294 5.07730e-18
8489.99592 5.14442e-18
8491.99892 5.13159e-18
8494.00192 5.16062e-18
8496.00492 5.21481e-18
8497.99791 5.10047e-18
8500.00091 5.20413e-18
8502.00391 5.14731e-18
8503.99689 5.06787e-18
8505.99989 5.06953e-18
8508.00289 5.10868e-18
8509.99588 5.07642e-18
8511.99888 5.19565e-18
8514.00187 5.15917e-18
8516.00488 5.16859e-18
8517.99786 5.10067e-18
8520.00086 5.13177e-18
8522.00386 5.08965e-18
8523.99684 5.11577e-18
8525.99985 5.20709e-18
8528.00285 5.11141e-18
8529.99583 5.12484e-18
8531.99883 5.14371e-18
8534.00183 5.09651e-18
8535.99482 5.13052e-18
8537.99781 5.22197e-18
8540.00081 5.14001e-18
8542.00382 5.00341e-18
8543.99680 5.14499e-18
8545.99980 5.04912e-18
8548.00280 5.19530e-18
8549.99579 5.09846e-18
8551.99879 5.08490e-18
8554.00179 5.07932e-18
8556.00479 5.03481e-18
8557.99777 5.05115e-18
8560.00077 5.07895e-18
8562.00377 5.17703e-18
8563.99676 5.08211e-18
8565.99976 5.10333e-18
8568.00276 5.05951e-18
8569.99574 5.04093e-18
8571.99874 5.01442e-18
8574.00174 5.02138e-18
8576.00474 5.14003e-18
8577.99772 4.99159e-18
8580.00072 5.01915e-18
8582.00373 5.04864e-18
8583.99671 4.95587e-18
8585.99971 5.06315e-18
8588.00271 5.01129e-18
8589.99569 5.04925e-18
8591.99870 5.07926e-18
8594.00169 4.92476e-18
8595.99468 5.03429e-18
8597.99768 5.03917e-18
8600.00068 4.96825e-18
8602.00368 4.97678e-18
8603.99667 4.93848e-18
8605.99967 4.87401e-18
8608.00267 4.94206e-18
8609.99565 4.99293e-18
8611.99865 5.00581e-18
8614.00165 4.99786e-18
8616.00465 4.94768e-18
8617.99764 4.99487e-18
8620.00064 4.95925e-18
8622.00364 4.91129e-18
8623.99662 4.93080e-18
8625.99962 4.96202e-18
8628.00262 4.88099e-18
8629.99561 4.97100e-18
8631.99861 4.89589e-18
8634.00160 4.87155e-18
8636.00461 4.92804e-18
8637.99759 4.97394e-18
8640.00059 4.87502e-18
8642.00359 4.94841e-18
8643.99657 4.95002e-18
8645.99957 4.96046e-18
8648.00258 4.82207e-18
8649.99556 4.79525e-18
8651.99856 4.95784e-18
8654.00156 4.89888e-18
8656.00456 4.85481e-18
8657.99755 4.98136e-18
8660.00055 4.84253e-18
8662.00355 4.89630e-18
8663.99653 4.81529e-18
8665.99953 4.94366e-18
8668.00253 4.82334e-18
8669.99552 4.78008e-18
8671.99852 4.90505e-18
8674.00151 4.89896e-18
8676.00452 4.78214e-18
8677.99750 4.78959e-18
8680.00050 4.85251e-18
8682.00350 4.85837e-18
8683.99648 4.84861e-18
8685.99949 4.88036e-18
8688.00249 4.77967e-18
8689.99547 4.81072e-18
8691.99847 4.76433e-18
8694.00147 4.83474e-18
8696.00447 4.90028e-18
8697.99746 4.88230e-18
8700.00045 4.78127e-18
8702.00346 4.72636e-18
8703.99644 4.80177e-18
8705.99944 4.78358e-18
8708.00244 4.65729e-18
8709.99543 4.74527e-18
8711.99843 4.76502e-18
8714.00143 4.72587e-18
8716.00443 4.82024e-18
8717.99741 4.84334e-18
8720.00041 4.75282e-18
8722.00341 4.78449e-18
8723.99640 4.83263e-18
8725.99940 4.87994e-18
8728.00240 4.70431e-18
8729.99538 4.69259e-18
8731.99838 4.66122e-18
8734.00138 4.66649e-18
8736.00438 4.71498e-18
8737.99737 4.62548e-18
8740.00036 4.70995e-18
8742.00337 4.73609e-18
8743.99635 4.68918e-18
8745.99935 4.69542e-18
8748.00235 4.65711e-18
8749.99533 4.74428e-18
8751.99834 4.74506e-18
8754.00133 4.68352e-18
8756.00433 4.58809e-18
8757.99732 4.55549e-18
8760.00032 4.65780e-18
8762.00332 4.64319e-18
8763.99631 4.63783e-18
8765.99931 4.57137e-18
8768.00231 4.63302e-18
8769.99529 4.59042e-18
8771.99829 4.66996e-18
8774.00129 4.62711e-18
8776.00429 4.52813e-18
8777.99728 4.52781e-18
8780.00028 4.66939e-18
8782.00328 4.51739e-18
8783.99626 4.48418e-18
8785.99926 4.57894e-18
8788.00226 4.49754e-18
8789.99525 4.39629e-18
8791.99825 4.54766e-18
8794.00125 4.49019e-18
8796.00425 4.52115e-18
8797.99723 4.50113e-18
8800.00023 4.43828e-18
8802.00323 4.47346e-18
8803.99621 4.51321e-18
8805.99921 4.63984e-18
8808.00222 4.50714e-18
8809.99520 4.50739e-18
8811.99820 4.45224e-18
8814.00120 4.48224e-18
8816.00420 4.47006e-18
8817.99719 4.57227e-18
8820.00019 4.52092e-18
8822.00319 4.45923e-18
8823.99617 4.51761e-18
8825.99917 4.51459e-18
8828.00217 4.45590e-18
8829.99516 4.48968e-18
8831.99816 4.43606e-18
8834.00116 4.50304e-18
8836.00416 4.48952e-18
8837.99714 4.43202e-18
8840.00014 4.38682e-18
8842.00314 4.39194e-18
8843.99612 4.48116e-18
8845.99913 4.44666e-18
8848.00213 4.51639e-18
8850.00512 4.43361e-18
8851.99811 4.45565e-18
8854.00111 4.49371e-18
8856.00411 4.53921e-18
8857.99710 4.54046e-18
8860.00009 4.61376e-18
8862.00310 4.61045e-18
8863.99608 4.73210e-18
8865.99908 4.63505e-18
8868.00208 4.58860e-18
8869.99506 4.54370e-18
8871.99806 4.53560e-18
8874.00107 4.53285e-18
8876.00406 4.46016e-18
8877.99705 4.46210e-18
8880.00005 4.42570e-18
8882.00305 4.40912e-18
8883.99604 4.42982e-18
8885.99904 4.43452e-18
8888.00204 4.40925e-18
8889.99502 4.35955e-18
8891.99802 4.29753e-18
8894.00102 4.41026e-18
8896.00402 4.41344e-18
8897.99701 4.37256e-18
8900.00000 4.41936e-18
8902.00301 4.30425e-18
8903.99599 4.39346e-18
8905.99899 4.30422e-18
8908.00199 4.34519e-18
8910.00499 4.38546e-18
8911.99798 4.38096e-18
8914.00098 4.33444e-18
8916.00397 4.43252e-18
8917.99696 4.51485e-18
8919.99996 4.31884e-18
8922.00296 4.31017e-18
8923.99595 4.31756e-18
8925.99894 4.32340e-18
8928.00194 4.37623e-18
8929.99493 4.34763e-18
8931.99793 4.28916e-18
8934.00093 4.25833e-18
8936.00393 4.25742e-18
8937.99692 4.22432e-18
8939.99992 4.26259e-18
8942.00292 4.20568e-18
8943.99590 4.32059e-18
8945.99890 4.31392e-18
8948.00190 4.22435e-18
8949.99489 4.20042e-18
8951.99789 4.18411e-18
8954.00089 4.27627e-18
8956.00389 4.30547e-18
8957.99687 4.27448e-18
8959.99987 4.19108e-18
8962.00287 4.20847e-18
8963.99586 4.26352e-18
8965.99885 4.31385e-18
8968.00186 4.20851e-18
8970.00486 4.26276e-18
8971.99784 4.30970e-18
8974.00084 4.31896e-18
8976.00384 4.29679e-18
8977.99683 4.17369e-18
8979.99982 4.26225e-18
8982.00282 4.40906e-18
8983.99581 4.22071e-18
8985.99881 4.18846e-18
8988.00181 4.44199e-18
8990.00481 4.18210e-18
8991.99780 4.34909e-18
8994.00080 4.24416e-18
8996.00380 4.27642e-18
8997.99678 4.21011e-18
8999.99978 4.22877e-18
9002.00278 4.34738e-18
9003.99577 4.47704e-18
9005.99877 4.41548e-18
9008.00177 4.38130e-18
9009.99475 4.34799e-18
9011.99775 4.60775e-18
9014.00075 4.54437e-18
9016.00375 4.55162e-18
9017.99674 4.75345e-18
9019.99973 4.31891e-18
9022.00274 4.32310e-18
9023.99572 4.34568e-18
9025.99872 4.38827e-18
9028.00172 4.22064e-18
9030.00472 4.19484e-18
9031.99770 4.17603e-18
9034.00071 4.25495e-18
9036.00370 4.24072e-18
9037.99669 4.08136e-18
9039.99969 4.06560e-18
9042.00269 4.18696e-18
9043.99568 4.21377e-18
9045.99868 4.07234e-18
9048.00168 4.19910e-18
9050.00468 4.12842e-18
9051.99766 4.10125e-18
9054.00066 4.23238e-18
9056.00366 4.12490e-18
9057.99665 4.11722e-18
9059.99965 4.17107e-18
9062.00265 4.17547e-18
9063.99563 4.29935e-18
9065.99863 4.18693e-18
9068.00163 4.15461e-18
9070.00463 4.09330e-18
9071.99762 4.02311e-18
9074.00062 4.18706e-18
9076.00361 4.22406e-18
9077.99660 4.06990e-18
9079.99960 4.12042e-18
9082.00260 4.17956e-18
9083.99559 4.06917e-18
9085.99858 3.93874e-18
9088.00158 4.11651e-18
9090.00459 4.11337e-18
9091.99757 4.03051e-18
9094.00057 4.09806e-18
9096.00357 4.11657e-18
9097.99656 3.96653e-18
9099.99956 4.08236e-18
9102.00256 4.18529e-18
9103.99554 4.06728e-18
9105.99854 4.08198e-18
9108.00154 4.09842e-18
9110.00454 4.08745e-18
9111.99753 4.06567e-18
9114.00053 4.09340e-18
9116.00353 3.94500e-18
9117.99651 4.04471e-18
9119.99951 4.08986e-18
9122.00251 4.07238e-18
9123.99550 4.07210e-18
9125.99849 4.10011e-18
9128.00150 4.00838e-18
9130.00450 4.07630e-18
9131.99748 4.12807e-18
9134.00048 3.93149e-18
9136.00348 4.18999e-18
9137.99647 4.11895e-18
9139.99947 4.06040e-18
9142.00246 4.02370e-18
9143.99545 3.99710e-18
9145.99845 3.99057e-18
9148.00145 4.09308e-18
9150.00445 4.01837e-18
9151.99744 4.11121e-18
9154.00044 4.03862e-18
9156.00344 4.09380e-18
9157.99642 4.01772e-18
9159.99942 3.95539e-18
9162.00242 4.06436e-18
9163.99541 4.02347e-18
9165.99841 4.02068e-18
9168.00141 4.03410e-18
9170.00441 4.05617e-18
9171.99739 3.99255e-18
9174.00039 4.02048e-18
9176.00339 4.10412e-18
9177.99638 4.00841e-18
9179.99938 4.04036e-18
9182.00238 3.96481e-18
9183.99536 3.99989e-18
9185.99836 4.01987e-18
9188.00136 3.91829e-18
9190.00436 3.99429e-18
9191.99734 4.05986e-18
9194.00035 3.91724e-18
9196.00335 3.99808e-18
9197.99633 4.01606e-18
9199.99933 3.96143e-18
9202.00233 3.99066e-18
9203.99532 3.91495e-18
9205.99831 3.95350e-18
9208.00131 4.08529e-18
9210.00432 4.02454e-18
9211.99730 4.03650e-18
9214.00030 4.08350e-18
9216.00330 4.12688e-18
9217.99629 4.06105e-18
9219.99929 4.15814e-18
9222.00229 4.08969e-18
9223.99527 4.11850e-18
9225.99827 4.33132e-18
9228.00127 4.45748e-18
9230.00427 4.50810e-18
9231.99726 4.35544e-18
9234.00026 4.26566e-18
9236.00326 4.10744e-18
9237.99624 4.09104e-18
9239.99924 4.04388e-18
9242.00224 3.94696e-18
9243.99523 3.93913e-18
9245.99822 3.93872e-18
9248.00122 3.90188e-18
9250.00423 3.87538e-18
9251.99721 4.00733e-18
9254.00021 3.90137e-18
9256.00321 3.89069e-18
9257.99619 3.87802e-18
9259.99920 3.90913e-18
9262.00219 3.93192e-18
9263.99518 4.00883e-18
9265.99818 3.95498e-18
9268.00118 3.88704e-18
9270.00418 3.96582e-18
9271.99717 3.84273e-18
9274.00017 3.96582e-18
9276.00317 3.88641e-18
9277.99615 3.86436e-18
9279.99915 4.00851e-18
9282.00215 3.91976e-18
9283.99514 3.82717e-18
9285.99813 3.95949e-18
9288.00114 3.97595e-18
9290.00414 3.91507e-18
9291.99712 3.88736e-18
9294.00012 3.95724e-18
9296.00312 3.94347e-18
9297.99611 3.89884e-18
9299.99911 3.90923e-18
9302.00210 3.88278e-18
9303.99509 3.97379e-18
9305.99809 3.74830e-18
9308.00109 3.72288e-18
9310.00409 4.19445e-18
9311.99707 3.94138e-18
9314.00007 3.63604e-18
9316.00308 3.87798e-18
9317.99606 4.02644e-18
9319.99906 3.97033e-18
9322.00206 3.73119e-18
9324.00506 3.99513e-18
9325.99805 3.99411e-18
9328.00105 3.94190e-18
9330.00405 3.71244e-18
9331.99703 3.77939e-18
9334.00003 3.96013e-18
9336.00303 3.93245e-18
9337.99602 3.97470e-18
9339.99902 3.94791e-18
9342.00202 3.52405e-18
9343.99500 4.08797e-18
9345.99800 4.20752e-18
9348.00100 3.87001e-18
9350.00400 3.74797e-18
9351.99698 3.54606e-18
9353.99999 4.05379e-18
9356.00299 3.79199e-18
9357.99597 3.90865e-18
9359.99897 4.17357e-18
9362.00197 3.85904e-18
9363.99496 3.57158e-18
9365.99796 3.79900e-18
9368.00095 3.70781e-18
9370.00396 3.73192e-18
9371.99694 4.11045e-18
9373.99994 3.77679e-18
9376.00294 3.77051e-18
9377.99593 3.77096e-18
9379.99893 3.73757e-18
9382.00193 4.03401e-18
9384.00493 3.85970e-18
9385.99791 3.69204e-18
9388.00091 3.89182e-18
9390.00391 3.69299e-18
9391.99690 3.63800e-18
9393.99990 3.77904e-18
9396.00290 3.68265e-18
9397.99588 3.63275e-18
9399.99888 3.73464e-18
9402.00188 3.76892e-18
9404.00488 3.74396e-18
9405.99787 3.71308e-18
9408.00086 3.64921e-18
9410.00387 3.79377e-18
9411.99685 3.89528e-18
9413.99985 3.78452e-18
9416.00285 3.62774e-18
9417.99583 3.78066e-18
9419.99884 3.65340e-18
9422.00183 3.73153e-18
9423.99482 3.49476e-18
9425.99782 3.45228e-18
9428.00082 3.87966e-18
9430.00382 4.06437e-18
9431.99681 3.78801e-18
9433.99981 3.60877e-18
9436.00281 3.52123e-18
9437.99579 3.59853e-18
9439.99879 3.68077e-18
9442.00179 3.90987e-18
9444.00479 3.76208e-18
9445.99778 3.73588e-18
9448.00078 3.57811e-18
9450.00378 3.78359e-18
9451.99676 3.63602e-18
9453.99976 3.48046e-18
9456.00276 3.95478e-18
9457.99575 3.49054e-18
9459.99875 3.46740e-18
9462.00174 3.84442e-18
9464.00475 3.67442e-18
9465.99773 3.59861e-18
9468.00073 3.45980e-18
9470.00373 3.75464e-18
9471.99671 3.58784e-18
9473.99971 3.52116e-18
9476.00272 3.82884e-18
9477.99570 3.55502e-18
9479.99870 3.46988e-18
9482.00170 3.91346e-18
9483.99469 3.76096e-18
9485.99769 3.53559e-18
9488.00069 3.62726e-18
9490.00369 3.62020e-18
9491.99667 3.46332e-18
9493.99967 3.68864e-18
9496.00267 3.70717e-18
9497.99566 3.55176e-18
9499.99866 3.53970e-18
9502.00166 3.91924e-18
9504.00466 3.64750e-18
9505.99764 3.62823e-18
9508.00064 3.60675e-18
9510.00364 3.68407e-18
9511.99662 3.54874e-18
9513.99963 3.51164e-18
9516.00263 3.45061e-18
9517.99561 3.60630e-18
9519.99861 3.55113e-18
9522.00161 3.59192e-18
9524.00461 3.59327e-18
9525.99760 3.46615e-18
9528.00059 3.57735e-18
9530.00360 3.66866e-18
9531.99658 3.55904e-18
9533.99958 3.49599e-18
9536.00258 3.65833e-18
9537.99556 3.68925e-18
9539.99856 3.55656e-18
9542.00157 3.58321e-18
9544.00456 3.86910e-18
9545.99755 4.10382e-18
9548.00055 3.86932e-18
9550.00355 3.69125e-18
9551.99654 3.57382e-18
9553.99954 3.70690e-18
9556.00254 3.77244e-18
9557.99552 3.74982e-18
9559.99852 3.59819e-18
9562.00152 3.41796e-18
9564.00452 3.55458e-18
9565.99751 3.54934e-18
9568.00050 3.48919e-18
9570.00351 3.47950e-18
9571.99649 3.41084e-18
9573.99949 3.39717e-18
9576.00249 3.41927e-18
9577.99547 3.35346e-18
9579.99848 3.46694e-18
9582.00148 3.71147e-18
9584.00447 3.49011e-18
9585.99746 3.38445e-18
9588.00046 3.31189e-18
9590.00346 3.43826e-18
9591.99644 3.53806e-18
9593.99944 3.50729e-18
9596.00245 3.36173e-18
9597.99543 3.46153e-18
9599.99843 3.51903e-18
9602.00143 3.45078e-18
9604.00443 3.38392e-18
9605.99742 3.44090e-18
9608.00042 3.52544e-18
9610.00342 3.53903e-18
9611.99640 3.47328e-18
9613.99940 3.39976e-18
9616.00240 3.36643e-18
9617.99539 3.36415e-18
9619.99839 3.32462e-18
9622.00139 3.41063e-18
9624.00439 3.34559e-18
9625.99737 3.42233e-18
9628.00037 3.52303e-18
9630.00337 3.48224e-18
9631.99636 3.28911e-18
9633.99935 3.32978e-18
9636.00236 3.39833e-18
9637.99534 3.52850e-18
9639.99834 3.42292e-18
9642.00134 3.32675e-18
9644.00434 3.33165e-18
9645.99733 3.49300e-18
9648.00032 3.37582e-18
9650.00332 3.32198e-18
9651.99631 3.42196e-18
9653.99931 3.38474e-18
9656.00231 3.40664e-18
9657.99530 3.33313e-18
9659.99830 3.33128e-18
9662.00130 3.44784e-18
9664.00430 3.45691e-18
9665.99728 3.33161e-18
9668.00028 3.29893e-18
9670.00328 3.41301e-18
9671.99627 3.46835e-18
9673.99927 3.45901e-18
9676.00227 3.48703e-18
9677.99525 3.30675e-18
9679.99825 3.31000e-18
9682.00125 3.34637e-18
9684.00425 3.35856e-18
9685.99724 3.32883e-18
9688.00023 3.41386e-18
9690.00324 3.32583e-18
9691.99622 3.39356e-18
9693.99922 3.37759e-18
9696.00222 3.30159e-18
9697.99520 3.29147e-18
9699.99820 3.28206e-18
9702.00121 3.30807e-18
9704.00420 3.29078e-18
9705.99719 3.21481e-18
9708.00019 3.32431e-18
9710.00319 3.31814e-18
9711.99618 3.22373e-18
9713.99918 3.31819e-18
9716.00218 3.44142e-18
9717.99516 3.27878e-18
9719.99816 3.36180e-18
9722.00116 3.34506e-18
9724.00416 3.45681e-18
9725.99715 3.33442e-18
9728.00014 3.45687e-18
9730.00315 3.27964e-18
9731.99613 3.27983e-18
9733.99913 3.27528e-18
9736.00213 3.32305e-18
9738.00513 3.41873e-18
9739.99812 3.33235e-18
9742.00112 3.22430e-18
9744.00411 3.36784e-18
9745.99710 3.35625e-18
9748.00010 3.35334e-18
9750.00310 3.30753e-18
9751.99609 3.25093e-18
9753.99908 3.22080e-18
9756.00209 3.34870e-18
9757.99507 3.38132e-18
9759.99807 3.29991e-18
9762.00107 3.33952e-18
9764.00407 3.38173e-18
9765.99706 3.27145e-18
9768.00006 3.26042e-18
9770.00306 3.31005e-18
9771.99604 3.23869e-18
9773.99904 3.27310e-18
9776.00204 3.25557e-18
9777.99503 3.31127e-18
9779.99803 3.26022e-18
9782.00103 3.34235e-18
9784.00403 3.29460e-18
9785.99701 3.34083e-18
9788.00001 3.26754e-18
9790.00301 3.24853e-18
9791.99600 3.28849e-18
9793.99899 3.48486e-18
9796.00200 3.28219e-18
9798.00500 3.23991e-18
9799.99798 3.34638e-18
9802.00098 3.26886e-18
9804.00398 3.28362e-18
9805.99697 3.40972e-18
9807.99997 3.28833e-18
9810.00296 3.28508e-18
9811.99595 3.29227e-18
9813.99895 3.23905e-18
9816.00195 3.17484e-18
9817.99494 3.19773e-18
9819.99794 3.29573e-18
9822.00094 3.26934e-18
9824.00394 3.23650e-18
9825.99692 3.34520e-18
9827.99992 3.27247e-18
9830.00292 3.30738e-18
9831.99591 3.36130e-18
9833.99891 3.33705e-18
9836.00191 3.34650e-18
9837.99489 3.32592e-18
9839.99789 3.32210e-18
9842.00089 3.23762e-18
9844.00389 3.23573e-18
9845.99688 3.24979e-18
9847.99988 3.20913e-18
9850.00288 3.23606e-18
9851.99586 3.25789e-18
9853.99886 3.30106e-18
9856.00186 3.21849e-18
9858.00486 3.25116e-18
9859.99784 3.28685e-18
9862.00085 3.25716e-18
9864.00384 3.30176e-18
9865.99683 3.27260e-18
9867.99983 3.26355e-18
9870.00283 3.30257e-18
9871.99582 3.22992e-18
9873.99881 3.34954e-18
9876.00181 3.25342e-18
9878.00482 3.27774e-18
9879.99780 3.25615e-18
9882.00080 3.31601e-18
9884.00380 3.27091e-18
9885.99679 3.28906e-18
9887.99979 3.20266e-18
9890.00279 3.17119e-18
9891.99577 3.22000e-18
9893.99877 3.21091e-18
9896.00177 3.28668e-18
9897.99476 3.22302e-18
9899.99776 3.23704e-18
9902.00076 3.22032e-18
9904.00375 3.18278e-18
9905.99674 3.21627e-18
9907.99974 3.12766e-18
9910.00274 3.22704e-18
9911.99573 3.21872e-18
9913.99872 3.42778e-18
9916.00173 3.24853e-18
9918.00473 3.26637e-18
9919.99771 3.24302e-18
9922.00071 3.15247e-18
9924.00371 3.08376e-18
9925.99669 3.22999e-18
9927.99970 3.19484e-18
9930.00269 3.19589e-18
9931.99568 3.21718e-18
9933.99868 3.29828e-18
9936.00168 3.22097e-18
9938.00468 3.21283e-18
9939.99767 3.19889e-18
9942.00067 3.11684e-18
9944.00367 3.14456e-18
9945.99665 3.17222e-18
9947.99965 3.33269e-18
9950.00265 3.18747e-18
9951.99564 3.14352e-18
9953.99863 3.24376e-18
9956.00164 3.15287e-18
9957.99462 3.15987e-18
9959.99762 3.11471e-18
9962.00062 3.25737e-18
9964.00362 3.20458e-18
9965.99661 3.19214e-18
9967.99961 3.19183e-18
9970.00260 3.20406e-18
9971.99559 3.21666e-18
9973.99859 3.10878e-18
9976.00159 3.14674e-18
9978.00459 3.17885e-18
9979.99757 3.22868e-18
9982.00058 3.16592e-18
9984.00358 3.15208e-18
9985.99656 3.14247e-18
9987.99956 3.06389e-18
9990.00256 3.19425e-18
9991.99555 3.20187e-18
9993.99855 3.10979e-18
9996.00155 3.20390e-18
9998.00455 3.08813e-18
9999.99753 3.11467e-18
