# wavelength flux
3300.00266 3.57550e-18
3301.00463 2.49349e-18
3301.99649 3.58306e-19
3302.99847 1.03336e-18
3304.00045 2.93095e-18
3305.00243 2.80138e-18
3306.00441 2.00540e-18
3306.99627 2.06259e-18
3307.99824 1.39368e-18
3309.00022 1.75933e-18
3310.00220 3.03234e-18
3311.00418 3.88671e-18
3311.99604 1.64378e-18
3312.99802 2.96785e-18
3314.00000 2.57243e-18
3315.00198 1.65805e-18
3316.00396 2.05823e-18
3316.99581 1.13365e-18
3317.99779 1.67042e-18
3318.99977 1.60780e-18
3320.00175 1.99644e-18
3321.00373 2.37151e-18
3321.99559 1.47397e-18
3322.99757 2.98478e-21
3323.99955 2.81767e-18
3325.00153 2.93661e-18
3326.00350 3.69931e-18
3326.99536 1.42015e-18
3327.99734 2.11746e-18
3328.99932 9.11316e-19
3330.00130 6.27175e-19
3331.00328 2.98075e-18
3331.99514 1.07100e-18
3332.99712 2.21216e-18
3333.99909 1.58584e-18
3335.00107 1.16670e-18
3336.00305 2.66998e-18
3336.99491 1.57836e-18
3337.99689 3.41636e-18
3338.99887 1.70652e-18
3340.00085 2.08801e-18
3341.00283 1.50025e-18
3342.00481 1.20125e-18
3342.99666 9.10689e-19
3343.99864 7.61122e-19
3345.00062 1.37323e-18
3346.00260 1.85870e-18
3347.00458 1.90716e-18
3347.99644 2.82954e-18
3348.99842 1.66754e-18
3350.00040 2.14775e-18
3351.00237 2.13603e-18
3352.00435 2.01133e-18
3352.99621 2.11565e-18
3353.99819 1.21318e-18
3355.00017 1.25976e-18
3356.00215 1.93406e-18
3357.00413 1.08790e-18
3357.99599 7.52381e-19
3358.99796 1.36201e-18
3359.99994 1.56066e-18
3361.00192 1.23485e-18
3362.00390 2.85655e-18
3362.99576 1.21981e-18
3363.99774 1.56501e-18
3364.99972 2.10971e-18
3366.00170 1.86915e-18
3367.00367 3.51908e-19
3367.99553 1.23075e-18
3368.99751 2.73764e-18
3369.99949 1.46172e-18
3371.00147 2.03025e-18
3372.00345 8.69474e-19
3372.99531 2.04279e-18
3373.99729 2.57948e-18
3374.99926 1.17530e-18
3376.00124 1.40202e-18
3377.00322 8.34205e-19
3377.99508 2.27342e-18
3378.99706 1.38497e-18
3379.99904 1.56859e-18
3381.00102 1.15596e-18
3382.00300 3.08061e-18
3383.00498 2.28253e-18
3383.99683 3.17820e-18
3384.99881 1.60913e-18
3386.00079 1.53022e-18
3387.00277 2.40477e-18
3388.00475 2.50849e-18
3388.99661 2.06331e-18
3389.99859 1.30977e-18
3391.00057 2.01511e-18
3392.00254 1.03204e-18
3393.00452 2.79869e-18
3393.99638 2.04057e-18
3394.99836 2.29545e-18
3396.00034 2.11709e-18
3397.00232 1.37519e-18
3398.00430 1.73983e-18
3398.99616 1.25800e-18
3399.99813 1.77478e-18
3401.00011 1.75111e-18
3402.00209 1.74384e-18
3403.00407 1.33418e-18
3403.99593 2.86994e-18
3404.99791 2.14730e-18
3405.99989 2.36965e-18
3407.00187 3.06785e-18
3408.00385 1.48284e-18
3408.99570 1.98431e-18
3409.99768 2.13651e-18
3410.99966 2.41511e-18
3412.00164 7.67771e-19
3413.00362 1.69308e-18
3413.99548 3.39381e-18
3414.99746 2.21341e-18
3415.99944 2.09985e-18
3417.00142 1.30021e-18
3418.00339 2.39668e-18
3418.99525 1.72241e-18
3419.99723 1.36207e-18
3420.99921 1.36033e-18
3422.00119 1.63923e-18
3423.00317 2.06453e-18
3423.99503 1.63918e-18
3424.99701 2.94050e-18
3425.99898 3.38860e-18
3427.00096 2.62826e-18
3428.00294 2.41171e-18
3429.00492 1.95817e-18
3429.99678 1.77447e-18
3430.99876 1.73161e-18
3432.00074 1.92033e-18
3433.00272 1.56462e-18
3434.00469 1.53704e-18
3434.99655 9.10519e-19
3435.99853 2.31234e-18
3437.00051 1.65902e-18
3438.00249 2.29191e-18
3439.00447 1.94463e-18
3439.99633 8.97868e-19
3440.99831 2.05820e-18
3442.00029 1.93744e-18
3443.00226 1.92075e-18
3444.00424 2.00264e-18
3444.99610 2.40995e-18
3445.99808 6.47755e-19
3447.00006 2.13156e-18
3448.00204 1.56358e-18
3449.00402 1.25139e-18
3449.99588 2.02398e-18
3450.99785 1.57629e-18
3451.99983 3.22635e-18
3453.00181 2.82748e-18
3454.00379 1.47913e-18
3454.99565 1.78106e-18
3455.99763 1.68284e-18
3456.99961 1.14025e-18
3458.00159 1.85862e-18
3459.00356 2.89507e-18
3459.99542 2.31981e-18
3460.99740 3.42010e-18
3461.99938 2.43316e-18
3463.00136 2.10872e-18
3464.00334 1.80814e-18
3464.99520 1.67621e-18
3465.99718 2.36441e-18
3466.99915 1.71268e-18
3468.00113 2.09838e-18
3469.00311 3.18916e-18
3470.00509 2.26314e-18
3470.99695 1.98134e-18
3471.99893 1.79513e-18
3473.00091 2.21215e-18
3474.00289 1.63625e-18
3475.00487 1.64911e-18
3475.99672 2.57230e-18
3476.99870 2.28624e-18
3478.00068 9.98248e-19
3479.00266 1.93762e-18
3480.00464 2.32954e-18
3480.99650 2.04286e-18
3481.99848 2.68887e-18
3483.00046 2.41943e-18
3484.00243 3.46210e-18
3485.00441 2.73409e-18
3485.99627 3.03646e-18
3486.99825 2.46556e-18
3488.00023 2.78614e-18
3489.00221 2.03961e-18
3490.00419 2.62692e-18
3490.99605 2.73728e-18
3491.99802 2.07402e-18
3493.00000 2.05147e-18
3494.00198 2.59489e-18
3495.00396 1.89997e-18
3495.99582 1.62211e-18
3496.99780 2.22040e-18
3497.99978 1.96904e-18
3499.00176 2.71307e-18
3500.00374 2.83965e-18
3500.99559 3.03989e-18
3501.99757 2.87763e-18
3502.99955 2.41497e-18
3504.00153 3.36576e-18
3505.00351 3.53872e-18
3505.99537 2.84538e-18
3506.99735 3.07508e-18
3507.99933 2.56014e-18
3509.00131 2.28522e-18
3510.00328 3.52539e-18
3510.99514 2.73712e-18
3511.99712 2.78686e-18
3512.99910 2.83594e-18
3514.00108 2.54321e-18
3515.00306 2.81851e-18
3516.00504 2.63116e-18
3516.99689 2.55706e-18
3517.99887 1.94139e-18
3519.00085 2.12359e-18
3520.00283 2.60153e-18
3521.00481 2.91065e-18
3521.99667 2.61454e-18
3522.99865 3.01380e-18
3524.00063 2.06646e-18
3525.00261 2.00428e-18
3526.00459 2.75730e-18
3526.99644 2.38154e-18
3527.99842 2.71121e-18
3529.00040 2.60153e-18
3530.00238 2.13289e-18
3531.00436 2.41490e-18
3531.99622 2.38556e-18
3532.99820 2.41570e-18
3534.00018 2.97876e-18
3535.00215 3.14057e-18
3536.00413 2.64867e-18
3536.99599 1.90707e-18
3537.99797 2.20446e-18
3538.99995 2.29867e-18
3540.00193 2.32933e-18
3541.00391 3.20301e-18
3541.99577 3.37830e-18
3542.99774 2.79114e-18
3543.99972 2.65603e-18
3545.00170 3.34790e-18
3546.00368 2.40992e-18
3546.99554 2.31159e-18
3547.99752 3.16900e-18
3548.99950 2.98171e-18
3550.00148 2.99988e-18
3551.00346 3.00248e-18
3551.99531 2.89634e-18
3552.99729 3.42970e-18
3553.99927 3.03691e-18
3555.00125 2.36330e-18
3556.00323 3.10509e-18
3556.99509 3.28462e-18
3557.99707 3.16253e-18
3558.99905 3.08170e-18
3560.00102 2.86454e-18
3561.00300 3.23147e-18
3562.00498 2.94698e-18
3562.99684 3.30121e-18
3563.99882 3.64194e-18
3565.00080 3.35768e-18
3566.00278 3.55207e-18
3567.00476 3.47383e-18
3567.99661 3.17136e-18
3568.99859 3.42115e-18
3570.00057 2.96896e-18
3571.00255 3.01633e-18
3572.00453 2.39898e-18
3572.99639 2.94514e-18
3573.99837 2.77894e-18
3575.00035 2.86354e-18
3576.00232 3.31262e-18
3577.00430 3.82543e-18
3577.99616 3.57445e-18
3578.99814 2.79819e-18
3580.00012 3.18663e-18
3581.00210 3.67720e-18
3582.00408 2.81282e-18
3582.99594 3.36622e-18
3583.99791 3.40270e-18
3584.99989 2.79143e-18
3586.00187 3.28311e-18
3587.00385 3.26295e-18
3587.99571 3.26876e-18
3588.99769 3.09034e-18
3589.99967 3.30185e-18
3591.00165 3.78396e-18
3592.00363 3.80437e-18
3592.99548 4.04478e-18
3593.99746 2.80207e-18
3594.99944 3.46960e-18
3596.00142 3.20686e-18
3597.00340 3.91428e-18
3597.99526 3.24327e-18
3598.99724 3.91906e-18
3599.99922 4.05408e-18
3601.00119 3.04151e-18
3602.00317 2.75274e-18
3603.00515 3.20136e-18
3603.99701 3.72570e-18
3604.99899 3.44880e-18
3606.00097 4.00265e-18
3607.00295 4.22184e-18
3608.00493 3.89756e-18
3608.99678 3.26268e-18
3609.99876 3.93474e-18
3611.00074 4.16783e-18
3612.00272 3.93758e-18
3613.00470 3.63285e-18
3613.99656 3.68702e-18
3614.99854 4.32865e-18
3616.00052 4.20248e-18
3617.00250 4.16633e-18
3618.00448 3.49311e-18
3618.99633 3.88462e-18
3619.99831 3.76431e-18
3621.00029 3.48669e-18
3622.00227 3.19152e-18
3623.00425 3.07591e-18
3623.99611 3.70374e-18
3624.99809 3.99876e-18
3626.00007 3.50571e-18
3627.00204 4.13045e-18
3628.00402 4.33699e-18
3628.99588 4.41483e-18
3629.99786 4.00981e-18
3630.99984 4.06038e-18
3632.00182 4.16292e-18
3633.00380 3.84338e-18
3633.99566 3.99521e-18
3634.99763 3.36068e-18
3635.99961 3.99662e-18
3637.00159 3.87798e-18
3638.00357 4.47299e-18
3638.99543 3.85282e-18
3639.99741 4.12704e-18
3640.99939 3.74038e-18
3642.00137 3.90203e-18
3643.00334 3.54346e-18
3643.99520 3.82935e-18
3644.99718 3.78313e-18
3645.99916 3.92130e-18
3647.00114 4.52393e-18
3648.00312 3.68418e-18
3649.00510 3.93393e-18
3649.99696 4.10356e-18
3650.99894 4.18869e-18
3652.00091 4.42008e-18
3653.00289 4.18694e-18
3654.00487 3.63890e-18
3654.99673 3.70750e-18
3655.99871 4.18335e-18
3657.00069 4.16997e-18
3658.00267 4.13526e-18
3659.00465 4.27116e-18
3659.99650 4.07544e-18
3660.99848 3.82658e-18
3662.00046 3.92786e-18
3663.00244 3.30254e-18
3664.00442 3.24517e-18
3664.99628 3.70876e-18
3665.99826 3.61893e-18
3667.00024 4.24380e-18
3668.00221 4.05612e-18
3669.00419 4.21947e-18
3669.99605 3.80553e-18
3670.99803 3.43686e-18
3672.00001 3.57376e-18
3673.00199 3.84756e-18
3674.00397 3.83808e-18
3674.99583 3.37935e-18
3675.99780 3.35545e-18
3676.99978 4.30847e-18
3678.00176 4.20467e-18
3679.00374 4.20369e-18
3679.99560 4.21826e-18
3680.99758 4.20650e-18
3681.99956 3.64999e-18
3683.00154 3.53529e-18
3684.00352 4.07676e-18
3684.99537 3.70926e-18
3685.99735 3.75744e-18
3686.99933 3.51533e-18
3688.00131 4.00474e-18
3689.00329 3.98082e-18
3689.99515 3.80031e-18
3690.99713 3.48886e-18
3691.99911 3.49958e-18
3693.00108 4.14421e-18
3694.00306 3.80505e-18
3695.00504 4.76005e-18
3695.99690 3.85560e-18
3696.99888 3.84492e-18
3698.00086 4.00707e-18
3699.00284 3.49482e-18
3700.00482 4.08901e-18
3700.99667 3.48175e-18
3701.99865 3.35047e-18
3703.00063 3.76754e-18
3704.00261 4.09531e-18
3705.00459 3.89395e-18
3705.99645 4.29177e-18
3706.99843 3.84096e-18
3708.00041 4.08837e-18
3709.00239 4.17651e-18
3710.00437 4.05404e-18
3710.99622 3.87372e-18
3711.99820 4.08104e-18
3713.00018 3.36767e-18
3714.00216 3.79374e-18
3715.00414 4.01339e-18
3715.99600 4.10925e-18
3716.99798 4.28052e-18
3717.99996 4.21081e-18
3719.00193 3.97286e-18
3720.00391 4.50718e-18
3720.99577 4.10524e-18
3721.99775 4.43160e-18
3722.99973 3.89420e-18
3724.00171 3.76000e-18
3725.00369 3.88575e-18
3725.99554 4.36850e-18
3726.99752 4.36984e-18
3727.99950 4.66060e-18
3729.00148 3.94230e-18
3730.00346 3.94352e-18
3730.99532 4.50994e-18
3731.99730 4.26744e-18
3732.99928 4.31377e-18
3734.00126 4.20718e-18
3735.00324 4.67458e-18
3735.99509 4.05943e-18
3736.99707 4.29458e-18
3737.99905 4.21557e-18
3739.00103 4.00041e-18
3740.00301 4.12072e-18
3741.00499 3.79694e-18
3741.99685 4.82039e-18
3742.99883 4.65743e-18
3744.00080 4.59986e-18
3745.00278 4.34180e-18
3746.00476 4.36878e-18
3746.99662 4.16365e-18
3747.99860 4.03251e-18
3749.00058 4.71378e-18
3750.00256 4.79727e-18
3751.00454 4.68153e-18
3751.99639 4.36780e-18
3752.99837 4.46660e-18
3754.00035 4.46252e-18
3755.00233 4.15104e-18
3756.00431 4.21416e-18
3756.99617 4.72071e-18
3757.99815 4.04243e-18
3759.00013 4.11773e-18
3760.00211 4.79031e-18
3761.00408 5.18321e-18
3761.99594 5.08028e-18
3762.99792 4.69620e-18
3763.99990 4.53870e-18
3765.00188 4.88994e-18
3766.00386 4.58202e-18
3766.99572 4.62524e-18
3767.99770 4.24405e-18
3768.99967 4.05199e-18
3770.00165 4.17440e-18
3771.00363 5.00215e-18
3771.99549 4.80686e-18
3772.99747 4.76300e-18
3773.99945 4.72519e-18
3775.00143 4.60505e-18
3776.00341 4.52285e-18
3776.99526 4.35898e-18
3777.99724 4.50696e-18
3778.99922 4.47501e-18
3780.00120 5.10985e-18
3781.00318 4.38187e-18
3781.99504 4.70127e-18
3782.99702 4.53290e-18
3783.99900 4.78863e-18
3785.00097 4.87331e-18
3786.00295 4.51104e-18
3787.00493 4.59440e-18
3787.99679 4.56908e-18
3788.99877 5.04867e-18
3790.00075 4.72032e-18
3791.00273 4.55972e-18
3792.00471 4.78498e-18
3792.99656 4.36974e-18
3793.99854 4.81713e-18
3795.00052 4.28193e-18
3796.00250 4.74640e-18
3797.00448 4.72537e-18
3797.99634 4.38864e-18
3798.99832 5.27444e-18
3800.00030 4.57260e-18
3801.00228 4.62123e-18
3802.00426 4.63990e-18
3802.99611 4.57588e-18
3803.99809 4.58031e-18
3805.00007 4.96113e-18
3806.00205 5.32014e-18
3807.00403 5.21328e-18
3807.99589 4.52756e-18
3808.99787 5.12747e-18
3809.99984 4.71328e-18
3811.00182 4.57381e-18
3812.00380 5.12789e-18
3812.99566 5.11100e-18
3813.99764 4.87360e-18
3814.99962 5.06743e-18
3816.00160 5.80963e-18
3817.00358 4.86942e-18
3817.99543 4.94091e-18
3818.99741 5.08985e-18
3819.99939 4.89862e-18
3821.00137 4.72533e-18
3822.00335 4.96146e-18
3822.99521 5.37706e-18
3823.99719 5.11059e-18
3824.99917 5.13014e-18
3826.00115 5.06200e-18
3827.00313 5.13857e-18
3828.00510 5.30644e-18
3828.99696 5.08159e-18
3829.99894 5.30254e-18
3831.00092 5.07941e-18
3832.00290 4.98607e-18
3833.00488 5.09931e-18
3833.99674 5.38925e-18
3834.99872 5.20819e-18
3836.00069 5.05695e-18
3837.00267 5.34255e-18
3838.00465 5.69674e-18
3838.99651 5.50885e-18
3839.99849 5.53482e-18
3841.00047 5.37056e-18
3842.00245 5.29242e-18
3843.00443 5.12772e-18
3843.99628 5.32446e-18
3844.99826 5.85913e-18
3846.00024 5.27594e-18
3847.00222 5.82551e-18
3848.00420 5.39502e-18
3848.99606 5.20166e-18
3849.99804 5.51908e-18
3851.00002 5.59183e-18
3852.00199 5.53947e-18
3853.00397 6.18188e-18
3853.99583 5.67545e-18
3854.99781 5.40512e-18
3855.99979 5.44356e-18
3857.00177 5.46404e-18
3858.00375 5.31104e-18
3858.99561 5.32573e-18
3859.99759 5.41667e-18
3860.99956 5.73254e-18
3862.00154 5.82579e-18
3863.00352 5.78043e-18
3863.99538 5.96920e-18
3864.99736 5.95229e-18
3865.99934 5.40885e-18
3867.00132 5.78156e-18
3868.00330 5.79907e-18
3868.99515 5.43154e-18
3869.99713 5.84758e-18
3870.99911 5.99316e-18
3872.00109 6.07863e-18
3873.00307 5.77118e-18
3874.00505 5.99826e-18
3874.99691 5.72087e-18
3875.99889 5.84494e-18
3877.00086 5.89705e-18
3878.00284 6.39766e-18
3879.00482 6.19224e-18
3879.99668 5.82654e-18
3880.99866 5.97715e-18
3882.00064 5.62262e-18
3883.00262 5.87753e-18
3884.00460 6.00771e-18
3884.99645 5.95066e-18
3885.99843 5.72030e-18
3887.00041 6.16686e-18
3888.00239 6.07595e-18
3889.00437 6.46451e-18
3889.99623 6.27080e-18
3890.99821 6.07671e-18
3892.00019 6.43900e-18
3893.00217 6.04039e-18
3894.00414 6.09479e-18
3894.99600 6.17557e-18
3895.99798 6.49993e-18
3896.99996 6.21047e-18
3898.00194 5.96607e-18
3899.00392 6.01139e-18
3899.99578 6.55090e-18
3900.99776 6.56847e-18
3901.99973 6.07585e-18
3903.00171 6.27526e-18
3904.00369 6.41175e-18
3904.99555 6.19967e-18
3905.99753 6.32155e-18
3906.99951 6.45669e-18
3908.00149 6.01672e-18
3909.00347 6.03951e-18
3909.99532 6.24896e-18
3910.99730 6.14949e-18
3911.99928 5.76222e-18
3913.00126 6.61257e-18
3914.00324 6.25054e-18
3914.99510 6.28057e-18
3915.99708 5.99917e-18
3916.99906 6.00261e-18
3918.00104 6.23132e-18
3919.00302 6.75711e-18
3920.00499 6.56606e-18
3920.99685 5.91503e-18
3921.99883 6.58293e-18
3923.00081 6.53447e-18
3924.00279 6.56758e-18
3925.00477 6.32105e-18
3925.99663 6.18426e-18
3926.99861 6.56970e-18
3928.00058 6.22216e-18
3929.00256 6.26883e-18
3930.00454 6.31529e-18
3930.99640 6.37326e-18
3931.99838 5.85784e-18
3933.00036 5.58201e-18
3934.00234 5.45666e-18
3935.00432 6.02151e-18
3935.99617 5.86181e-18
3936.99815 6.18536e-18
3938.00013 6.36503e-18
3939.00211 6.07844e-18
3940.00409 5.95667e-18
3940.99595 5.96844e-18
3941.99793 6.51267e-18
3942.99991 6.53501e-18
3944.00189 6.41868e-18
3945.00386 6.24296e-18
3945.99572 6.24111e-18
3946.99770 6.07907e-18
3947.99968 6.45438e-18
3949.00166 6.70145e-18
3950.00364 6.36278e-18
3950.99550 6.31907e-18
3951.99748 6.70672e-18
3952.99945 6.66459e-18
3954.00143 6.10529e-18
3955.00341 6.75297e-18
3955.99527 6.36081e-18
3956.99725 6.29298e-18
3957.99923 6.08267e-18
3959.00121 6.56932e-18
3960.00319 6.41936e-18
3961.00517 6.36675e-18
3961.99702 6.61033e-18
3962.99900 6.45770e-18
3964.00098 6.31845e-18
3965.00296 6.34858e-18
3966.00494 6.56411e-18
3966.99680 6.38743e-18
3967.99878 6.10734e-18
3969.00076 5.91857e-18
3970.00273 6.11404e-18
3971.00471 6.13495e-18
3971.99657 6.36010e-18
3972.99855 6.43667e-18
3974.00053 6.60710e-18
3975.00251 6.48228e-18
3976.00449 6.21408e-18
3976.99635 5.87327e-18
3977.99832 6.46532e-18
3979.00030 5.79331e-18
3980.00228 5.34503e-18
3981.00426 5.79789e-18
3981.99612 5.88807e-18
3982.99810 6.31591e-18
3984.00008 6.10905e-18
3985.00206 5.82626e-18
3986.00403 6.26623e-18
3986.99589 6.44499e-18
3987.99787 6.15285e-18
3988.99985 6.26104e-18
3990.00183 5.90887e-18
3991.00381 6.18888e-18
3991.99567 6.26770e-18
3992.99765 6.18514e-18
3993.99962 6.08135e-18
3995.00160 6.01859e-18
3996.00358 6.37056e-18
3996.99544 6.34485e-18
3997.99742 6.54502e-18
3998.99940 6.19193e-18
4000.00138 6.43240e-18
4001.00336 6.08897e-18
4001.99521 6.48209e-18
4002.99719 6.18101e-18
4003.99917 6.43474e-18
4005.00115 5.88697e-18
4006.00313 6.16705e-18
4006.99499 6.30724e-18
4007.99697 6.33917e-18
4008.99895 6.70608e-18
4010.00093 6.19552e-18
4011.00291 6.32243e-18
4012.00488 6.28500e-18
4012.99674 6.45408e-18
4013.99872 6.30690e-18
4015.00070 5.79780e-18
4016.00268 5.73047e-18
4017.00466 6.16197e-18
4017.99652 6.29236e-18
4018.99849 6.72256e-18
4020.00047 6.10272e-18
4021.00245 6.62300e-18
4022.00443 6.53859e-18
4022.99629 6.37646e-18
4023.99827 6.41338e-18
4025.00025 6.46845e-18
4026.00223 6.65228e-18
4027.00421 6.04976e-18
4027.99606 5.84214e-18
4028.99804 6.23354e-18
4030.00002 6.46571e-18
4031.00200 6.27803e-18
4032.00398 6.29050e-18
4032.99584 6.24062e-18
4033.99782 6.36686e-18
4034.99980 6.58058e-18
4036.00178 6.56707e-18
4037.00375 6.18496e-18
4037.99561 6.13672e-18
4038.99759 6.34439e-18
4039.99957 6.32435e-18
4041.00155 6.46043e-18
4042.00353 6.55174e-18
4042.99539 6.36326e-18
4043.99737 6.16485e-18
4044.99934 6.23017e-18
4046.00132 6.13425e-18
4047.00330 5.87065e-18
4047.99516 6.49723e-18
4048.99714 6.45899e-18
4049.99912 6.68046e-18
4051.00110 6.14403e-18
4052.00308 6.15584e-18
4053.00506 6.13938e-18
4053.99691 6.16900e-18
4054.99889 6.22582e-18
4056.00087 6.65124e-18
4057.00285 6.58255e-18
4058.00483 6.34674e-18
4058.99669 6.13657e-18
4059.99867 6.30138e-18
4061.00064 6.59698e-18
4062.00262 5.98607e-18
4063.00460 6.09641e-18
4063.99646 6.09139e-18
4064.99844 6.30010e-18
4066.00042 6.86225e-18
4067.00240 6.63953e-18
4068.00438 6.01532e-18
4068.99624 6.30589e-18
4069.99821 6.78580e-18
4071.00019 6.34634e-18
4072.00217 6.92513e-18
4073.00415 6.18987e-18
4073.99601 6.81163e-18
4074.99799 6.60919e-18
4075.99997 6.33500e-18
4077.00195 6.53916e-18
4078.00392 6.70120e-18
4078.99578 6.65447e-18
4079.99776 6.49760e-18
4080.99974 6.52741e-18
4082.00172 6.20800e-18
4083.00370 6.29433e-18
4083.99556 6.14825e-18
4084.99754 6.38889e-18
4085.99951 6.56311e-18
4087.00149 6.02066e-18
4088.00347 6.13839e-18
4088.99533 6.35777e-18
4089.99731 6.22254e-18
4090.99929 6.32150e-18
4092.00127 6.43811e-18
4093.00325 6.42290e-18
4093.99510 6.25625e-18
4094.99708 6.46340e-18
4095.99906 6.44872e-18
4097.00104 6.23743e-18
4098.00302 6.27454e-18
4099.00500 6.63426e-18
4099.99686 6.42121e-18
4100.99884 6.41308e-18
4102.00082 6.62027e-18
4103.00279 6.61100e-18
4104.00477 6.39245e-18
4104.99663 6.41066e-18
4105.99861 6.53768e-18
4107.00059 6.40138e-18
4108.00257 6.43092e-18
4109.00455 6.35435e-18
4109.99641 6.44623e-18
4110.99838 6.26873e-18
4112.00036 6.68991e-18
4113.00234 6.41737e-18
4114.00432 6.52810e-18
4114.99618 6.46456e-18
4115.99816 6.23623e-18
4117.00014 6.57152e-18
4118.00212 6.32782e-18
4119.00410 6.64163e-18
4119.99595 6.75860e-18
4120.99793 6.57433e-18
4121.99991 6.27502e-18
4123.00189 6.82616e-18
4124.00387 6.14235e-18
4124.99573 6.12743e-18
4125.99771 6.44053e-18
4126.99969 6.41851e-18
4128.00166 6.90873e-18
4129.00364 6.62125e-18
4129.99550 6.04147e-18
4130.99748 6.57247e-18
4131.99946 5.98249e-18
4133.00144 6.49395e-18
4134.00342 6.28976e-18
4134.99528 6.08195e-18
4135.99726 5.95229e-18
4136.99923 6.43938e-18
4138.00121 6.25107e-18
4139.00319 6.19378e-18
4139.99505 6.50179e-18
4140.99703 6.36800e-18
4141.99901 6.55918e-18
4143.00099 6.55199e-18
4144.00297 6.57807e-18
4145.00494 6.65337e-18
4145.99680 6.42716e-18
4146.99878 6.86675e-18
4148.00076 6.50004e-18
4149.00274 6.61338e-18
4150.00472 6.39987e-18
4150.99658 6.24337e-18
4151.99856 6.54383e-18
4153.00054 6.11173e-18
4154.00251 6.62619e-18
4155.00449 6.38049e-18
4155.99635 6.34535e-18
4156.99833 6.82814e-18
4158.00031 6.70823e-18
4159.00229 6.76848e-18
4160.00427 6.48931e-18
4160.99612 6.61450e-18
4161.99810 6.68785e-18
4163.00008 6.72244e-18
4164.00206 6.92284e-18
4165.00404 6.60181e-18
4165.99590 6.89379e-18
4166.99788 6.51270e-18
4167.99986 6.68164e-18
4169.00184 6.75160e-18
4170.00382 6.81841e-18
4170.99567 6.56401e-18
4171.99765 6.36867e-18
4172.99963 6.69572e-18
4174.00161 7.35747e-18
4175.00359 6.83250e-18
4175.99545 6.68041e-18
4176.99743 6.68118e-18
4177.99941 6.86490e-18
4179.00138 6.92198e-18
4180.00336 7.25417e-18
4180.99522 6.93827e-18
4181.99720 6.84976e-18
4182.99918 6.91838e-18
4184.00116 6.76482e-18
4185.00314 6.64654e-18
4186.00512 6.88421e-18
4186.99697 6.86771e-18
4187.99895 7.15112e-18
4189.00093 6.72321e-18
4190.00291 6.97101e-18
4191.00489 7.02257e-18
4191.99675 7.20562e-18
4192.99873 7.10058e-18
4194.00071 6.85371e-18
4195.00269 7.00131e-18
4196.00466 6.93534e-18
4196.99652 7.09290e-18
4197.99850 7.11564e-18
4199.00048 7.13884e-18
4200.00246 6.89579e-18
4201.00444 7.34067e-18
4201.99630 7.08305e-18
4202.99827 6.91534e-18
4204.00025 7.02917e-18
4205.00223 7.16803e-18
4206.00421 7.16046e-18
4206.99607 7.20335e-18
4207.99805 7.44739e-18
4209.00003 7.06156e-18
4210.00201 6.96714e-18
4211.00399 7.47136e-18
4211.99584 7.37170e-18
4212.99782 7.14140e-18
4213.99980 7.24089e-18
4215.00178 6.98323e-18
4216.00376 7.43591e-18
4216.99562 7.06625e-18
4217.99760 7.20166e-18
4218.99958 7.26432e-18
4220.00155 6.60495e-18
4221.00353 7.05745e-18
4221.99539 7.05506e-18
4222.99737 7.56529e-18
4223.99935 7.28156e-18
4225.00133 7.49901e-18
4226.00331 7.12503e-18
4226.99517 6.97143e-18
4227.99714 6.83325e-18
4228.99912 6.96544e-18
4230.00110 7.41087e-18
4231.00308 7.46198e-18
4232.00506 7.52842e-18
4232.99692 7.05691e-18
4233.99890 7.50038e-18
4235.00088 7.03570e-18
4236.00286 7.05817e-18
4237.00484 7.01133e-18
4237.99669 6.98045e-18
4238.99867 7.36858e-18
4240.00065 7.36347e-18
4241.00263 7.10177e-18
4242.00461 7.07246e-18
4242.99647 7.19750e-18
4243.99845 7.22535e-18
4245.00043 7.16469e-18
4246.00240 6.73613e-18
4247.00438 7.14923e-18
4247.99624 7.40533e-18
4248.99822 6.76610e-18
4250.00020 6.98216e-18
4251.00218 7.13893e-18
4252.00416 7.31149e-18
4252.99601 7.09311e-18
4253.99799 6.83917e-18
4254.99997 7.28422e-18
4256.00195 7.14336e-18
4257.00393 7.40761e-18
4257.99579 7.17235e-18
4258.99777 7.15123e-18
4259.99975 7.15785e-18
4261.00173 7.19358e-18
4262.00371 7.18161e-18
4262.99556 7.13530e-18
4263.99754 6.81764e-18
4264.99952 6.77655e-18
4266.00150 7.02946e-18
4267.00348 7.35346e-18
4267.99534 7.36482e-18
4268.99732 7.25894e-18
4269.99929 7.08604e-18
4271.00127 7.07522e-18
4272.00325 7.02814e-18
4273.00523 6.98329e-18
4273.99709 7.08529e-18
4274.99907 7.09051e-18
4276.00105 7.42402e-18
4277.00303 6.92252e-18
4277.99489 7.37892e-18
4278.99686 7.32316e-18
4279.99884 7.11456e-18
4281.00082 7.10718e-18
4282.00280 6.87719e-18
4283.00478 7.11367e-18
4283.99664 7.19176e-18
4284.99862 7.39137e-18
4286.00060 6.90527e-18
4287.00258 7.10179e-18
4288.00455 7.06954e-18
4288.99641 7.35803e-18
4289.99839 7.13273e-18
4291.00037 7.20107e-18
4292.00235 7.45299e-18
4293.00433 7.31557e-18
4293.99619 7.07161e-18
4294.99816 7.03069e-18
4296.00014 6.80516e-18
4297.00212 7.10296e-18
4298.00410 7.21477e-18
4298.99596 7.17893e-18
4299.99794 6.39913e-18
4300.99992 7.17470e-18
4302.00190 7.21484e-18
4303.00388 7.06703e-18
4303.99573 7.49181e-18
4304.99771 7.09710e-18
4305.99969 7.11189e-18
4307.00167 7.26119e-18
4308.00365 7.07580e-18
4308.99551 7.39661e-18
4309.99749 7.21226e-18
4310.99947 7.60914e-18
4312.00144 7.12174e-18
4313.00342 7.17532e-18
4313.99528 7.28275e-18
4314.99726 7.34454e-18
4315.99924 7.38701e-18
4317.00122 7.54758e-18
4318.00320 7.28025e-18
4318.99506 7.20450e-18
4319.99704 7.05020e-18
4320.99901 7.46125e-18
4322.00099 7.25753e-18
4323.00297 7.44980e-18
4324.00495 6.82512e-18
4324.99681 7.25102e-18
4325.99879 7.44644e-18
4327.00077 7.27202e-18
4328.00275 7.12092e-18
4329.00472 7.40046e-18
4329.99658 7.11993e-18
4330.99856 7.37070e-18
4332.00054 7.62776e-18
4333.00252 7.74704e-18
4334.00450 7.60002e-18
4334.99636 7.22215e-18
4335.99834 7.17280e-18
4337.00031 7.14860e-18
4338.00229 7.40550e-18
4339.00427 7.20786e-18
4339.99613 7.54848e-18
4340.99811 7.65587e-18
4342.00009 7.45706e-18
4343.00207 7.54379e-18
4344.00405 7.51478e-18
4344.99590 7.50456e-18
4345.99788 7.30813e-18
4346.99986 7.27813e-18
4348.00184 7.43517e-18
4349.00382 7.49889e-18
4349.99568 7.58841e-18
4350.99766 7.61421e-18
4351.99964 7.38859e-18
4353.00162 7.41222e-18
4354.00360 7.57599e-18
4354.99545 7.60688e-18
4355.99743 7.41042e-18
4356.99941 7.78152e-18
4358.00139 7.52429e-18
4359.00337 7.38563e-18
4360.00535 7.63732e-18
4360.99721 7.67478e-18
4361.99919 7.90458e-18
4363.00116 7.81523e-18
4364.00314 7.78138e-18
4364.99500 7.51230e-18
4365.99698 7.73659e-18
4366.99896 7.94117e-18
4368.00094 7.84581e-18
4369.00292 7.90793e-18
4370.00490 7.74892e-18
4370.99675 8.05861e-18
4371.99873 7.87609e-18
4373.00071 7.65949e-18
4374.00269 7.81313e-18
4375.00467 7.72226e-18
4375.99653 8.16686e-18
4376.99851 7.67887e-18
4378.00049 8.13492e-18
4379.00246 8.08262e-18
4380.00444 7.64282e-18
4380.99630 7.89726e-18
4381.99828 8.01149e-18
4383.00026 7.91069e-18
4384.00224 7.83726e-18
4385.00422 8.06349e-18
4385.99608 8.15560e-18
4386.99806 8.48824e-18
4388.00003 7.91848e-18
4389.00201 7.89294e-18
4390.00399 7.92770e-18
4390.99585 7.77804e-18
4391.99783 7.81894e-18
4392.99981 8.14467e-18
4394.00179 8.17395e-18
4395.00377 8.21719e-18
4395.99562 8.16690e-18
4396.99760 8.22913e-18
4397.99958 8.50813e-18
4399.00156 8.12148e-18
4400.00354 7.99996e-18
4400.99540 7.93116e-18
4401.99738 8.40406e-18
4402.99936 8.09697e-18
4404.00133 7.94814e-18
4405.00331 8.63663e-18
4405.99517 8.07450e-18
4406.99715 8.21283e-18
4407.99913 8.11178e-18
4409.00111 8.06831e-18
4410.00309 8.19818e-18
4411.00507 8.65881e-18
4411.99693 8.26262e-18
4412.99890 8.15919e-18
4414.00088 8.41655e-18
4415.00286 8.72833e-18
4416.00484 8.68643e-18
4416.99670 8.40608e-18
4417.99868 8.22743e-18
4419.00066 8.42049e-18
4420.00264 8.20549e-18
4421.00461 8.52283e-18
4421.99647 8.83358e-18
4422.99845 8.58805e-18
4424.00043 8.87621e-18
4425.00241 8.90180e-18
4426.00439 8.85438e-18
4426.99625 8.83657e-18
4427.99823 8.72757e-18
4429.00021 8.96805e-18
4430.00218 8.67643e-18
4431.00416 8.79939e-18
4431.99602 8.74237e-18
4432.99800 9.22377e-18
4433.99998 8.97821e-18
4435.00196 9.00564e-18
4436.00394 9.24581e-18
4436.99579 9.30630e-18
4437.99777 9.39564e-18
4438.99975 9.46121e-18
4440.00173 9.18894e-18
4441.00371 9.06682e-18
4441.99557 9.30174e-18
4442.99755 9.49139e-18
4443.99953 9.27704e-18
4445.00151 9.38643e-18
4446.00349 9.66162e-18
4446.99534 9.63994e-18
4447.99732 9.53457e-18
4448.99930 9.71019e-18
4450.00128 9.62941e-18
4451.00326 9.79594e-18
4451.99512 9.93555e-18
4452.99710 9.66931e-18
4453.99907 9.74924e-18
4455.00105 1.00789e-17
4456.00303 9.67045e-18
4457.00501 9.83882e-18
4457.99687 9.58034e-18
4458.99885 9.91806e-18
4460.00083 1.01986e-17
4461.00281 9.87218e-18
4462.00479 9.93411e-18
4462.99664 1.00646e-17
4463.99862 1.00278e-17
4465.00060 1.01574e-17
4466.00258 1.00746e-17
4467.00456 9.88428e-18
4467.99642 1.01766e-17
4468.99840 1.03601e-17
4470.00038 1.01352e-17
4471.00236 1.02230e-17
4472.00433 9.99140e-18
4472.99619 1.00110e-17
4473.99817 9.95787e-18
4475.00015 1.02417e-17
4476.00213 1.00111e-17
4477.00411 9.82297e-18
4477.99597 9.47998e-18
4478.99795 9.97315e-18
4479.99992 1.00061e-17
4481.00190 9.58071e-18
4482.00388 1.01889e-17
4482.99574 1.05745e-17
4483.99772 1.04321e-17
4484.99970 1.05335e-17
4486.00168 1.06536e-17
4487.00366 1.02844e-17
4487.99551 1.03796e-17
4488.99749 1.04496e-17
4489.99947 1.06408e-17
4491.00145 1.14088e-17
4492.00343 1.10387e-17
4492.99529 1.09590e-17
4493.99727 1.11833e-17
4494.99925 1.13405e-17
4496.00122 1.13176e-17
4497.00320 1.17088e-17
4498.00518 1.18646e-17
4498.99704 1.12467e-17
4499.99902 1.14600e-17
4501.00100 1.12798e-17
4502.00298 1.15510e-17
4503.00496 1.17150e-17
4503.99681 1.16651e-17
4504.99879 1.15955e-17
4506.00077 1.08986e-17
4507.00275 1.16746e-17
4508.00473 1.13107e-17
4508.99659 1.13648e-17
4509.99857 1.13777e-17
4511.00055 1.17881e-17
4512.00253 1.21841e-17
4513.00450 1.21458e-17
4513.99636 1.21615e-17
4514.99834 1.18417e-17
4516.00032 1.18939e-17
4517.00230 1.19560e-17
4518.00428 1.20002e-17
4518.99614 1.20303e-17
4519.99812 1.19415e-17
4521.00009 1.23732e-17
4522.00207 1.19469e-17
4523.00405 1.23993e-17
4523.99591 1.21784e-17
4524.99789 1.19966e-17
4525.99987 1.19606e-17
4527.00185 1.19336e-17
4528.00383 1.20016e-17
4528.99569 1.20829e-17
4529.99766 1.21688e-17
4530.99964 1.21159e-17
4532.00162 1.22819e-17
4533.00360 1.18936e-17
4533.99546 1.22938e-17
4534.99744 1.20801e-17
4535.99942 1.20193e-17
4537.00140 1.19268e-17
4538.00338 1.22868e-17
4538.99523 1.19268e-17
4539.99721 1.21759e-17
4540.99919 1.19685e-17
4542.00117 1.22345e-17
4543.00315 1.17661e-17
4543.99501 1.17548e-17
4544.99699 1.20656e-17
4545.99896 1.20014e-17
4547.00094 1.20295e-17
4548.00292 1.19957e-17
4549.00490 1.17802e-17
4549.99676 1.18029e-17
4550.99874 1.18422e-17
4552.00072 1.18444e-17
4553.00270 1.14489e-17
4554.00468 1.19250e-17
4554.99653 1.21344e-17
4555.99851 1.17197e-17
4557.00049 1.17734e-17
4558.00247 1.15369e-17
4559.00445 1.18283e-17
4559.99631 1.17621e-17
4560.99829 1.14990e-17
4562.00027 1.15573e-17
4563.00224 1.15522e-17
4564.00422 1.13378e-17
4564.99608 1.11317e-17
4565.99806 1.13296e-17
4567.00004 1.13735e-17
4568.00202 1.16055e-17
4569.00400 1.14685e-17
4569.99586 1.19007e-17
4570.99784 1.16090e-17
4571.99981 1.11580e-17
4573.00179 1.12215e-17
4574.00377 1.15227e-17
4574.99563 1.11920e-17
4575.99761 1.18211e-17
4576.99959 1.18237e-17
4578.00157 1.11164e-17
4579.00355 1.12914e-17
4579.99540 1.14252e-17
4580.99738 1.10639e-17
4581.99936 1.10321e-17
4583.00134 1.10305e-17
4584.00332 1.14878e-17
4585.00530 1.12468e-17
4585.99716 1.14572e-17
4586.99914 1.14800e-17
4588.00112 1.13474e-17
4589.00309 1.13536e-17
4589.99495 1.10352e-17
4590.99693 1.12105e-17
4591.99891 1.09815e-17
4593.00089 1.13800e-17
4594.00287 1.13614e-17
4595.00485 1.12357e-17
4595.99671 1.12133e-17
4596.99868 1.06510e-17
4598.00066 1.10404e-17
4599.00264 1.16552e-17
4600.00462 1.15104e-17
4600.99648 1.10135e-17
4601.99846 1.09815e-17
4603.00044 1.12127e-17
4604.00242 1.13274e-17
4605.00439 1.11865e-17
4605.99625 1.15325e-17
4606.99823 1.12808e-17
4608.00021 1.11364e-17
4609.00219 1.10837e-17
4610.00417 1.15351e-17
4610.99603 1.16504e-17
4611.99801 1.14212e-17
4612.99999 1.10424e-17
4614.00196 1.13481e-17
4615.00394 1.10453e-17
4615.99580 1.10136e-17
4616.99778 1.12040e-17
4617.99976 1.11950e-17
4619.00174 1.14403e-17
4620.00372 1.16091e-17
4620.99557 1.12767e-17
4621.99755 1.11273e-17
4622.99953 1.09981e-17
4624.00151 1.07744e-17
4625.00349 1.10590e-17
4625.99535 1.09188e-17
4626.99733 1.09514e-17
4627.99931 1.10180e-17
4629.00129 1.12271e-17
4630.00326 1.10261e-17
4630.99512 1.11382e-17
4631.99710 1.11465e-17
4632.99908 1.04473e-17
4634.00106 1.06788e-17
4635.00304 1.04270e-17
4636.00502 1.08233e-17
4636.99688 1.08637e-17
4637.99885 1.03655e-17
4639.00083 1.07749e-17
4640.00281 1.04692e-17
4641.00479 1.09711e-17
4641.99665 1.07004e-17
4642.99863 1.04710e-17
4644.00061 1.03192e-17
4645.00259 1.05258e-17
4646.00457 1.05596e-17
4646.99642 1.07741e-17
4647.99840 1.04659e-17
4649.00038 1.04935e-17
4650.00236 1.05142e-17
4651.00434 1.07725e-17
4651.99620 1.03617e-17
4652.99818 1.02417e-17
4654.00016 1.06528e-17
4655.00214 1.06818e-17
4656.00411 1.02358e-17
4656.99597 1.05924e-17
4657.99795 1.06204e-17
4658.99993 1.02615e-17
4660.00191 1.05383e-17
4661.00389 1.05946e-17
4661.99575 1.04346e-17
4662.99773 1.04697e-17
4663.99970 1.02202e-17
4665.00168 1.01667e-17
4666.00366 1.04858e-17
4666.99552 1.03081e-17
4667.99750 1.05343e-17
4668.99948 1.04004e-17
4670.00146 1.06596e-17
4671.00344 1.08054e-17
4671.99529 1.03911e-17
4672.99727 1.04278e-17
4673.99925 1.00364e-17
4675.00123 1.04040e-17
4676.00321 1.05258e-17
4676.99507 1.05657e-17
4677.99705 1.06442e-17
4678.99903 1.05871e-17
4680.00101 1.05177e-17
4681.00298 1.05137e-17
4682.00496 1.07086e-17
4682.99682 1.07983e-17
4683.99880 1.08399e-17
4685.00078 1.04024e-17
4686.00276 1.03904e-17
4687.00474 1.04528e-17
4687.99659 1.05310e-17
4688.99857 1.07779e-17
4690.00055 1.08162e-17
4691.00253 1.07403e-17
4692.00451 1.07230e-17
4692.99637 1.07290e-17
4693.99835 1.07143e-17
4695.00033 1.02953e-17
4696.00231 1.05446e-17
4697.00428 1.03378e-17
4697.99614 1.04438e-17
4698.99812 1.03946e-17
4700.00010 1.04830e-17
4701.00208 1.06981e-17
4702.00406 1.08773e-17
4702.99592 1.06003e-17
4703.99790 1.06079e-17
4704.99988 1.05311e-17
4706.00185 1.00773e-17
4707.00383 1.03111e-17
4707.99569 1.01352e-17
4708.99767 1.03189e-17
4709.99965 1.02153e-17
4711.00163 1.00492e-17
4712.00361 1.02062e-17
4712.99546 1.04059e-17
4713.99744 1.02419e-17
4714.99942 1.03978e-17
4716.00140 1.01352e-17
4717.00338 1.00189e-17
4717.99524 1.05158e-17
4718.99722 1.03603e-17
4719.99920 1.01950e-17
4721.00118 1.02766e-17
4722.00316 1.02499e-17
4723.00513 1.02273e-17
4723.99699 1.03062e-17
4724.99897 1.03911e-17
4726.00095 1.03691e-17
4727.00293 1.04268e-17
4728.00491 1.02898e-17
4728.99677 1.03597e-17
4729.99874 1.00365e-17
4731.00072 9.46842e-18
4732.00270 1.02461e-17
4733.00468 1.02567e-17
4733.99654 9.88428e-18
4734.99852 9.58105e-18
4736.00050 1.01589e-17
4737.00248 1.01234e-17
4738.00446 1.01356e-17
4738.99631 1.05208e-17
4739.99829 1.00547e-17
4741.00027 1.00816e-17
4742.00225 1.00964e-17
4743.00423 1.00013e-17
4743.99609 9.94907e-18
4744.99807 9.93345e-18
4746.00005 9.82683e-18
4747.00202 1.02129e-17
4748.00400 9.88954e-18
4748.99586 1.01160e-17
4749.99784 9.89046e-18
4750.99982 9.74549e-18
4752.00180 9.83372e-18
4753.00378 9.75779e-18
4753.99564 9.91379e-18
4754.99761 1.00198e-17
4755.99959 9.92572e-18
4757.00157 1.04060e-17
4758.00355 1.02821e-17
4758.99541 1.03656e-17
4759.99739 1.03357e-17
4760.99937 1.02491e-17
4762.00135 1.00151e-17
4763.00333 1.02350e-17
4763.99518 1.02655e-17
4764.99716 1.02282e-17
4765.99914 1.00826e-17
4767.00112 1.02925e-17
4768.00310 1.03358e-17
4768.99496 1.06300e-17
4769.99694 1.05280e-17
4770.99892 1.04496e-17
4772.00090 1.04146e-17
4773.00287 1.04049e-17
4774.00485 9.92537e-18
4774.99671 1.04141e-17
4775.99869 1.06002e-17
4777.00067 1.06868e-17
4778.00265 1.03955e-17
4779.00463 1.06511e-17
4779.99649 1.04576e-17
4780.99846 1.03444e-17
4782.00044 1.02772e-17
4783.00242 1.01924e-17
4784.00440 1.01903e-17
4784.99626 1.06163e-17
4785.99824 1.05392e-17
4787.00022 1.03883e-17
4788.00220 1.05094e-17
4789.00418 1.06263e-17
4789.99603 1.07930e-17
4790.99801 1.07241e-17
4791.99999 1.08051e-17
4793.00197 1.08450e-17
4794.00395 1.05525e-17
4794.99581 1.06877e-17
4795.99779 1.08700e-17
4796.99976 1.11276e-17
4798.00174 1.11093e-17
4799.00372 1.08708e-17
4799.99558 1.06081e-17
4800.99756 1.05357e-17
4801.99954 1.05472e-17
4803.00152 1.03745e-17
4804.00350 1.06316e-17
4804.99536 1.03953e-17
4805.99733 1.07995e-17
4806.99931 1.09943e-17
4808.00129 1.10566e-17
4809.00327 1.04011e-17
4810.00525 1.08052e-17
4810.99711 1.05843e-17
4811.99909 1.08247e-17
4813.00107 1.08744e-17
4814.00304 1.09491e-17
4815.00502 1.10893e-17
4815.99688 1.06655e-17
4816.99886 1.07060e-17
4818.00084 1.01795e-17
4819.00282 1.07022e-17
4820.00480 1.05227e-17
4820.99666 1.06282e-17
4821.99863 1.09613e-17
4823.00061 1.04959e-17
4824.00259 1.05299e-17
4825.00457 1.06882e-17
4825.99643 1.08480e-17
4826.99841 1.10630e-17
4828.00039 1.10953e-17
4829.00237 1.05991e-17
4830.00435 1.07782e-17
4830.99620 1.13643e-17
4831.99818 1.08725e-17
4833.00016 1.08166e-17
4834.00214 1.06045e-17
4835.00412 1.07902e-17
4835.99598 1.05242e-17
4836.99796 1.09746e-17
4837.99994 1.09023e-17
4839.00191 1.04427e-17
4840.00389 1.03491e-17
4840.99575 1.06045e-17
4841.99773 1.05279e-17
4842.99971 1.07444e-17
4844.00169 1.09433e-17
4845.00367 1.07909e-17
4845.99553 1.05669e-17
4846.99751 1.05288e-17
4847.99948 1.04221e-17
4849.00146 1.05783e-17
4850.00344 1.03243e-17
4850.99530 1.05183e-17
4851.99728 1.05230e-17
4852.99926 1.04504e-17
4854.00124 1.02744e-17
4855.00322 1.01985e-17
4855.99507 1.05622e-17
4856.99705 1.04897e-17
4857.99903 1.07683e-17
4859.00101 1.05251e-17
4860.00299 1.06810e-17
4861.00497 1.01825e-17
4861.99683 1.07008e-17
4862.99881 1.03135e-17
4864.00079 1.03304e-17
4865.00276 1.04278e-17
4866.00474 1.00876e-17
4866.99660 1.05094e-17
4867.99858 1.04406e-17
4869.00056 9.93100e-18
4870.00254 1.00969e-17
4871.00452 1.01286e-17
4871.99637 1.05655e-17
4872.99835 1.02919e-17
4874.00033 1.00294e-17
4875.00231 1.02952e-17
4876.00429 1.01547e-17
4876.99615 1.03036e-17
4877.99813 1.02278e-17
4879.00011 1.02261e-17
4880.00209 1.00187e-17
4881.00407 1.02767e-17
4881.99592 1.02035e-17
4882.99790 1.00363e-17
4883.99988 1.03403e-17
4885.00186 9.78674e-18
4886.00384 1.00788e-17
4886.99570 1.01810e-17
4887.99768 1.00374e-17
4888.99966 9.69789e-18
4890.00163 9.78244e-18
4891.00361 1.00702e-17
4891.99547 1.00227e-17
4892.99745 1.03520e-17
4893.99943 9.78221e-18
4895.00141 9.85471e-18
4896.00339 9.70187e-18
4896.99525 1.02265e-17
4897.99722 1.01588e-17
4898.99920 1.01313e-17
4900.00118 1.00798e-17
4901.00316 9.75493e-18
4902.00514 9.96630e-18
4902.99700 1.00750e-17
4903.99898 1.00227e-17
4905.00096 1.01856e-17
4906.00294 9.98343e-18
4907.00491 9.88709e-18
4907.99677 9.86230e-18
4908.99875 1.01433e-17
4910.00073 9.98296e-18
4911.00271 9.79952e-18
4912.00469 9.91156e-18
4912.99655 1.00494e-17
4913.99852 9.96365e-18
4915.00050 9.69170e-18
4916.00248 1.00817e-17
4917.00446 1.03791e-17
4917.99632 1.03613e-17
4918.99830 1.00216e-17
4920.00028 1.01324e-17
4921.00226 1.00527e-17
4922.00424 1.03351e-17
4922.99609 1.01488e-17
4923.99807 9.67048e-18
4925.00005 1.01373e-17
4926.00203 1.00166e-17
4927.00401 1.01920e-17
4927.99587 1.01405e-17
4928.99785 1.00381e-17
4929.99983 1.01390e-17
4931.00180 9.92017e-18
4932.00378 1.03120e-17
4932.99564 1.00817e-17
4933.99762 9.93666e-18
4934.99960 1.00039e-17
4936.00158 9.90255e-18
4937.00356 9.99230e-18
4937.99542 9.95623e-18
4938.99739 1.02311e-17
4939.99937 9.95110e-18
4941.00135 1.00785e-17
4942.00333 9.92326e-18
4942.99519 1.02210e-17
4943.99717 9.90838e-18
4944.99915 1.00198e-17
4946.00113 1.06475e-17
4947.00311 1.04732e-17
4948.00509 1.03709e-17
4948.99694 1.03594e-17
4949.99892 1.04883e-17
4951.00090 1.05061e-17
4952.00288 1.04338e-17
4953.00486 1.04630e-17
4953.99672 1.06236e-17
4954.99870 1.06505e-17
4956.00068 1.05785e-17
4957.00265 1.05808e-17
4958.00463 1.06547e-17
4958.99649 1.06122e-17
4959.99847 1.07528e-17
4961.00045 1.07859e-17
4962.00243 1.07951e-17
4963.00441 1.05598e-17
4963.99626 1.06207e-17
4964.99824 1.07547e-17
4966.00022 1.07228e-17
4967.00220 1.10184e-17
4968.00418 1.07084e-17
4968.99604 1.10323e-17
4969.99802 1.11641e-17
4971.00000 1.07487e-17
4972.00198 1.09322e-17
4973.00396 1.10246e-17
4973.99581 1.07088e-17
4974.99779 1.08844e-17
4975.99977 1.07435e-17
4977.00175 1.08737e-17
4978.00373 1.07531e-17
4978.99559 1.06472e-17
4979.99757 1.05531e-17
4980.99954 1.07445e-17
4982.00152 1.09510e-17
4983.00350 1.09216e-17
4983.99536 1.08926e-17
4984.99734 1.04504e-17
4985.99932 1.09864e-17
4987.00130 1.12627e-17
4988.00328 1.10527e-17
4988.99514 1.08431e-17
4989.99711 1.11151e-17
4990.99909 1.06508e-17
4992.00107 1.11292e-17
4993.00305 1.06156e-17
4993.99491 1.07247e-17
4994.99689 1.12344e-17
4995.99887 1.09525e-17
4997.00085 1.08698e-17
4998.00282 1.12593e-17
4999.00480 1.10747e-17
4999.99666 1.08706e-17
5000.99864 1.10252e-17
5002.00062 1.11579e-17
5003.00260 1.13755e-17
5004.00458 1.11840e-17
5004.99644 1.08813e-17
5005.99842 1.13418e-17
5007.00039 1.07348e-17
5008.00237 1.08636e-17
5009.00435 1.10347e-17
5009.99621 1.10997e-17
5010.99819 1.07734e-17
5012.00017 1.11347e-17
5013.00215 1.10972e-17
5014.00413 1.10864e-17
5014.99598 1.13169e-17
5015.99796 1.15000e-17
5016.99994 1.10304e-17
5018.00192 1.11724e-17
5019.00390 1.12048e-17
5019.99576 1.05709e-17
5020.99774 1.10031e-17
5021.99972 1.08687e-17
5023.00169 1.10413e-17
5024.00367 1.13143e-17
5024.99553 1.14428e-17
5025.99751 1.16287e-17
5026.99949 1.12111e-17
5028.00147 1.09108e-17
5029.00345 1.07430e-17
5029.99531 1.11143e-17
5030.99729 1.12717e-17
5031.99926 1.12258e-17
5033.00124 1.14570e-17
5034.00322 1.10588e-17
5035.00520 1.09446e-17
5035.99706 1.12964e-17
5036.99904 1.11956e-17
5038.00102 1.11166e-17
5039.00300 1.12124e-17
5040.00497 1.12525e-17
5040.99683 1.10510e-17
5041.99881 1.11793e-17
5043.00079 1.11109e-17
5044.00277 1.11882e-17
5045.00475 1.13549e-17
5045.99661 1.12092e-17
5046.99859 1.13907e-17
5048.00056 1.16944e-17
5049.00254 1.13844e-17
5050.00452 1.15236e-17
5050.99638 1.17864e-17
5051.99836 1.18322e-17
5053.00034 1.18903e-17
5054.00232 1.13741e-17
5055.00430 1.13268e-17
5055.99615 1.16723e-17
5056.99813 1.19973e-17
5058.00011 1.22514e-17
5059.00209 1.20527e-17
5060.00407 1.21096e-17
5060.99593 1.21063e-17
5061.99791 1.19365e-17
5062.99989 1.17837e-17
5064.00187 1.21893e-17
5065.00385 1.22450e-17
5065.99570 1.21082e-17
5066.99768 1.21679e-17
5067.99966 1.17339e-17
5069.00164 1.19962e-17
5070.00362 1.24172e-17
5070.99548 1.20907e-17
5071.99746 1.23544e-17
5072.99944 1.22212e-17
5074.00141 1.25829e-17
5075.00339 1.25832e-17
5075.99525 1.26623e-17
5076.99723 1.25281e-17
5077.99921 1.27436e-17
5079.00119 1.26144e-17
5080.00317 1.25740e-17
5080.99503 1.25503e-17
5081.99700 1.30508e-17
5082.99898 1.30983e-17
5084.00096 1.33478e-17
5085.00294 1.31736e-17
5086.00492 1.32240e-17
5086.99678 1.31806e-17
5087.99876 1.29033e-17
5089.00074 1.30827e-17
5090.00271 1.27026e-17
5091.00469 1.29518e-17
5091.99655 1.29456e-17
5092.99853 1.35591e-17
5094.00051 1.35269e-17
5095.00249 1.31527e-17
5096.00447 1.30797e-17
5096.99633 1.36497e-17
5097.99831 1.39516e-17
5099.00028 1.35905e-17
5100.00226 1.38435e-17
5101.00424 1.34975e-17
5101.99610 1.41640e-17
5102.99808 1.44161e-17
5104.00006 1.40124e-17
5105.00204 1.35766e-17
5106.00402 1.43107e-17
5106.99587 1.41587e-17
5107.99785 1.39115e-17
5108.99983 1.38868e-17
5110.00181 1.37860e-17
5111.00379 1.42804e-17
5111.99565 1.42235e-17
5112.99763 1.39999e-17
5113.99961 1.40122e-17
5115.00158 1.41671e-17
5116.00356 1.42888e-17
5116.99542 1.42981e-17
5117.99740 1.43429e-17
5118.99938 1.44032e-17
5120.00136 1.45071e-17
5121.00334 1.48779e-17
5121.99520 1.43836e-17
5122.99718 1.45395e-17
5123.99915 1.42400e-17
5125.00113 1.45048e-17
5126.00311 1.45614e-17
5127.00509 1.51841e-17
5127.99695 1.45403e-17
5128.99893 1.47552e-17
5130.00091 1.46822e-17
5131.00289 1.44589e-17
5132.00486 1.47338e-17
5132.99672 1.49766e-17
5133.99870 1.49931e-17
5135.00068 1.45413e-17
5136.00266 1.54241e-17
5137.00464 1.50957e-17
5137.99650 1.50349e-17
5138.99848 1.49301e-17
5140.00046 1.51770e-17
5141.00243 1.50712e-17
5142.00441 1.47701e-17
5142.99627 1.47055e-17
5143.99825 1.51550e-17
5145.00023 1.51731e-17
5146.00221 1.56218e-17
5147.00419 1.51595e-17
5147.99604 1.51795e-17
5148.99802 1.53899e-17
5150.00000 1.50002e-17
5151.00198 1.57691e-17
5152.00396 1.53324e-17
5152.99582 1.50304e-17
5153.99780 1.55370e-17
5154.99978 1.55085e-17
5156.00176 1.57922e-17
5157.00374 1.56609e-17
5157.99559 1.55490e-17
5158.99757 1.53671e-17
5159.99955 1.49838e-17
5161.00153 1.56997e-17
5162.00351 1.56350e-17
5162.99537 1.55477e-17
5163.99735 1.55206e-17
5164.99932 1.52750e-17
5166.00130 1.50995e-17
5167.00328 1.49243e-17
5167.99514 1.56385e-17
5168.99712 1.52703e-17
5169.99910 1.52951e-17
5171.00108 1.58146e-17
5172.00306 1.56928e-17
5173.00504 1.47226e-17
5173.99689 1.53289e-17
5174.99887 1.51361e-17
5176.00085 1.52319e-17
5177.00283 1.58491e-17
5178.00481 1.54698e-17
5178.99667 1.59778e-17
5179.99865 1.56658e-17
5181.00063 1.50871e-17
5182.00261 1.57776e-17
5183.00458 1.60484e-17
5183.99644 1.56950e-17
5184.99842 1.56176e-17
5186.00040 1.55370e-17
5187.00238 1.55800e-17
5188.00436 1.57958e-17
5188.99622 1.61099e-17
5189.99820 1.58663e-17
5191.00017 1.61426e-17
5192.00215 1.56973e-17
5193.00413 1.59247e-17
5193.99599 1.62258e-17
5194.99797 1.64947e-17
5195.99995 1.57904e-17
5197.00193 1.57681e-17
5198.00391 1.57539e-17
5198.99576 1.60831e-17
5199.99774 1.62103e-17
5200.99972 1.60939e-17
5202.00170 1.63445e-17
5203.00368 1.65232e-17
5203.99554 1.60176e-17
5204.99752 1.59018e-17
5205.99950 1.57787e-17
5207.00148 1.63220e-17
5208.00345 1.64376e-17
5208.99531 1.65500e-17
5209.99729 1.66262e-17
5210.99927 1.64501e-17
5212.00125 1.63332e-17
5213.00323 1.61841e-17
5214.00521 1.67690e-17
5214.99706 1.64029e-17
5215.99904 1.58825e-17
5217.00102 1.63420e-17
5218.00300 1.65892e-17
5218.99486 1.68711e-17
5219.99684 1.66231e-17
5220.99882 1.68744e-17
5222.00080 1.66435e-17
5223.00278 1.62851e-17
5224.00475 1.66164e-17
5224.99661 1.65317e-17
5225.99859 1.63146e-17
5227.00057 1.63836e-17
5228.00255 1.63011e-17
5229.00453 1.66905e-17
5229.99639 1.65391e-17
5230.99837 1.64909e-17
5232.00034 1.67174e-17
5233.00232 1.63645e-17
5234.00430 1.65154e-17
5234.99616 1.65761e-17
5235.99814 1.66268e-17
5237.00012 1.66899e-17
5238.00210 1.69219e-17
5239.00408 1.64691e-17
5239.99593 1.64331e-17
5240.99791 1.65163e-17
5241.99989 1.63735e-17
5243.00187 1.64983e-17
5244.00385 1.62009e-17
5244.99571 1.69132e-17
5245.99769 1.64168e-17
5246.99967 1.66482e-17
5248.00165 1.65342e-17
5249.00363 1.68936e-17
5249.99548 1.62507e-17
5250.99746 1.63583e-17
5251.99944 1.66882e-17
5253.00142 1.66379e-17
5254.00340 1.68462e-17
5254.99526 1.66713e-17
5255.99724 1.66998e-17
5256.99921 1.64199e-17
5258.00119 1.72455e-17
5259.00317 1.67125e-17
5260.00515 1.69114e-17
5260.99701 1.65936e-17
5261.99899 1.71847e-17
5263.00097 1.63790e-17
5264.00295 1.63739e-17
5265.00493 1.69859e-17
5265.99678 1.65709e-17
5266.99876 1.65833e-17
5268.00074 1.68310e-17
5269.00272 1.65912e-17
5270.00470 1.67984e-17
5270.99656 1.69239e-17
5271.99854 1.71199e-17
5273.00052 1.65738e-17
5274.00249 1.68619e-17
5275.00447 1.63607e-17
5275.99633 1.67864e-17
5276.99831 1.67611e-17
5278.00029 1.65208e-17
5279.00227 1.69100e-17
5280.00425 1.68365e-17
5280.99611 1.71869e-17
5281.99809 1.69431e-17
5283.00006 1.67086e-17
5284.00204 1.69289e-17
5285.00402 1.69528e-17
5285.99588 1.67795e-17
5286.99786 1.66412e-17
5287.99984 1.65570e-17
5289.00182 1.71126e-17
5290.00380 1.71084e-17
5290.99565 1.72317e-17
5291.99763 1.75149e-17
5292.99961 1.72195e-17
5294.00159 1.71933e-17
5295.00357 1.71054e-17
5295.99543 1.69944e-17
5296.99741 1.72869e-17
5297.99939 1.74847e-17
5299.00137 1.74272e-17
5300.00334 1.71826e-17
5300.99520 1.73541e-17
5301.99718 1.73355e-17
5302.99916 1.75634e-17
5304.00114 1.69362e-17
5305.00312 1.77948e-17
5305.99498 1.76976e-17
5306.99696 1.72400e-17
5307.99893 1.73742e-17
5309.00091 1.78061e-17
5310.00289 1.76384e-17
5311.00487 1.75313e-17
5311.99673 1.69981e-17
5312.99871 1.76338e-17
5314.00069 1.75942e-17
5315.00267 1.77269e-17
5316.00464 1.74047e-17
5316.99650 1.75536e-17
5317.99848 1.79354e-17
5319.00046 1.71378e-17
5320.00244 1.73212e-17
5321.00442 1.72494e-17
5321.99628 1.77450e-17
5322.99826 1.79204e-17
5324.00024 1.74776e-17
5325.00221 1.74930e-17
5326.00419 1.74939e-17
5326.99605 1.74495e-17
5327.99803 1.74744e-17
5329.00001 1.75882e-17
5330.00199 1.76576e-17
5331.00397 1.76441e-17
5331.99582 1.75670e-17
5332.99780 1.80817e-17
5333.99978 1.80400e-17
5335.00176 1.80850e-17
5336.00374 1.77819e-17
5336.99560 1.80005e-17
5337.99758 1.75725e-17
5338.99956 1.79128e-17
5340.00154 1.76398e-17
5341.00351 1.79211e-17
5341.99537 1.76105e-17
5342.99735 1.77224e-17
5343.99933 1.80344e-17
5345.00131 1.80324e-17
5346.00329 1.77448e-17
5346.99515 1.75838e-17
5347.99713 1.77959e-17
5348.99910 1.77511e-17
5350.00108 1.75129e-17
5351.00306 1.78909e-17
5352.00504 1.81261e-17
5352.99690 1.77211e-17
5353.99888 1.77160e-17
5355.00086 1.82676e-17
5356.00284 1.79909e-17
5357.00482 1.75086e-17
5357.99667 1.76442e-17
5358.99865 1.77689e-17
5360.00063 1.75160e-17
5361.00261 1.77798e-17
5362.00459 1.74501e-17
5362.99645 1.74424e-17
5363.99843 1.74452e-17
5365.00041 1.77569e-17
5366.00239 1.80149e-17
5367.00436 1.81347e-17
5367.99622 1.80481e-17
5368.99820 1.78541e-17
5370.00018 1.76644e-17
5371.00216 1.80245e-17
5372.00414 1.82424e-17
5372.99600 1.77595e-17
5373.99798 1.78147e-17
5374.99995 1.77434e-17
5376.00193 1.80760e-17
5377.00391 1.78331e-17
5377.99577 1.80869e-17
5378.99775 1.75782e-17
5379.99973 1.74763e-17
5381.00171 1.77003e-17
5382.00369 1.79091e-17
5382.99554 1.75142e-17
5383.99752 1.71681e-17
5384.99950 1.80380e-17
5386.00148 1.78062e-17
5387.00346 1.78658e-17
5387.99532 1.76343e-17
5388.99730 1.76211e-17
5389.99928 1.77642e-17
5391.00126 1.81797e-17
5392.00323 1.76663e-17
5392.99509 1.72018e-17
5393.99707 1.71631e-17
5394.99905 1.80460e-17
5396.00103 1.76594e-17
5397.00301 1.77361e-17
5398.00499 1.72452e-17
5398.99684 1.69921e-17
5399.99882 1.73801e-17
5401.00080 1.71908e-17
5402.00278 1.72367e-17
5403.00476 1.76352e-17
5403.99662 1.70686e-17
5404.99860 1.71954e-17
5406.00058 1.72229e-17
5407.00256 1.74669e-17
5408.00454 1.72068e-17
5408.99639 1.68340e-17
5409.99837 1.76035e-17
5411.00035 1.73098e-17
5412.00233 1.69859e-17
5413.00431 1.76046e-17
5413.99617 1.72488e-17
5414.99815 1.70586e-17
5416.00012 1.70658e-17
5417.00210 1.72606e-17
5418.00408 1.71338e-17
5418.99594 1.71282e-17
5419.99792 1.71021e-17
5420.99990 1.71324e-17
5422.00188 1.72752e-17
5423.00386 1.76431e-17
5423.99572 1.74480e-17
5424.99769 1.72262e-17
5425.99967 1.72206e-17
5427.00165 1.65364e-17
5428.00363 1.71274e-17
5428.99549 1.65541e-17
5429.99747 1.70170e-17
5430.99945 1.65242e-17
5432.00143 1.67542e-17
5433.00341 1.68627e-17
5433.99526 1.71809e-17
5434.99724 1.70178e-17
5435.99922 1.66873e-17
5437.00120 1.67111e-17
5438.00318 1.68121e-17
5439.00516 1.68847e-17
5439.99702 1.68879e-17
5440.99899 1.62690e-17
5442.00097 1.64700e-17
5443.00295 1.70005e-17
5444.00493 1.67671e-17
5444.99679 1.66778e-17
5445.99877 1.64885e-17
5447.00075 1.64281e-17
5448.00273 1.64398e-17
5449.00471 1.65135e-17
5449.99656 1.68385e-17
5450.99854 1.66730e-17
5452.00052 1.66888e-17
5453.00250 1.67750e-17
5454.00448 1.61065e-17
5454.99634 1.62630e-17
5455.99832 1.62282e-17
5457.00030 1.61502e-17
5458.00227 1.70756e-17
5459.00425 1.72873e-17
5459.99611 1.61527e-17
5460.99809 1.65747e-17
5462.00007 1.66526e-17
5463.00205 1.61961e-17
5464.00403 1.65051e-17
5464.99589 1.62359e-17
5465.99786 1.65287e-17
5466.99984 1.66150e-17
5468.00182 1.62897e-17
5469.00380 1.60984e-17
5469.99566 1.60065e-17
5470.99764 1.63098e-17
5471.99962 1.65507e-17
5473.00160 1.58868e-17
5474.00358 1.67296e-17
5474.99543 1.58675e-17
5475.99741 1.59573e-17
5476.99939 1.61731e-17
5478.00137 1.63644e-17
5479.00335 1.66080e-17
5479.99521 1.60008e-17
5480.99719 1.59731e-17
5481.99917 1.59610e-17
5483.00115 1.58506e-17
5484.00312 1.59716e-17
5485.00510 1.55606e-17
5485.99696 1.53240e-17
5486.99894 1.55816e-17
5488.00092 1.60301e-17
5489.00290 1.58605e-17
5490.00488 1.59396e-17
5490.99674 1.60072e-17
5491.99871 1.63988e-17
5493.00069 1.59343e-17
5494.00267 1.58796e-17
5495.00465 1.59810e-17
5495.99651 1.60839e-17
5496.99849 1.57091e-17
5498.00047 1.62202e-17
5499.00245 1.57502e-17
5500.00443 1.61749e-17
5500.99628 1.60933e-17
5501.99826 1.61080e-17
5503.00024 1.61996e-17
5504.00222 1.59081e-17
5505.00420 1.61975e-17
5505.99606 1.61199e-17
5506.99804 1.58814e-17
5508.00001 1.57518e-17
5509.00199 1.60494e-17
5510.00397 1.61359e-17
5510.99583 1.59431e-17
5511.99781 1.59690e-17
5512.99979 1.63375e-17
5514.00177 1.58561e-17
5515.00375 1.58200e-17
5515.99561 1.62674e-17
5516.99758 1.53463e-17
5517.99956 1.59663e-17
5519.00154 1.57439e-17
5520.00352 1.57920e-17
5520.99538 1.59774e-17
5521.99736 1.57755e-17
5522.99934 1.56662e-17
5524.00132 1.63784e-17
5525.00329 1.58073e-17
5526.00527 1.55572e-17
5526.99713 1.56990e-17
5527.99911 1.63427e-17
5529.00109 1.58719e-17
5530.00307 1.57479e-17
5531.00505 1.63148e-17
5531.99691 1.58161e-17
5532.99888 1.59721e-17
5534.00086 1.57346e-17
5535.00284 1.53257e-17
5536.00482 1.56699e-17
5536.99668 1.63672e-17
5537.99866 1.55332e-17
5539.00064 1.61300e-17
5540.00262 1.59225e-17
5541.00460 1.52836e-17
5541.99645 1.58203e-17
5542.99843 1.55652e-17
5544.00041 1.54832e-17
5545.00239 1.53751e-17
5546.00437 1.56588e-17
5546.99623 1.54509e-17
5547.99821 1.50607e-17
5549.00019 1.46074e-17
5550.00216 1.47842e-17
5551.00414 1.50878e-17
5551.99600 1.51933e-17
5552.99798 1.48687e-17
5553.99996 1.49905e-17
5555.00194 1.50046e-17
5556.00392 1.47984e-17
5556.99578 1.52624e-17
5557.99776 1.55110e-17
5558.99973 1.50557e-17
5560.00171 1.50271e-17
5561.00369 1.55280e-17
5561.99555 1.51943e-17
5562.99753 1.52076e-17
5563.99951 1.50932e-17
5565.00149 1.51107e-17
5566.00347 1.51832e-17
5566.99532 1.48639e-17
5567.99730 1.52030e-17
5568.99928 1.50808e-17
5570.00126 1.50103e-17
5571.00324 1.46329e-17
5571.99510 1.45833e-17
5572.99708 1.45255e-17
5573.99906 1.43617e-17
5575.00104 1.44790e-17
5576.00301 1.46628e-17
5577.00499 1.50098e-17
5577.99685 1.53993e-17
5578.99883 1.56137e-17
5580.00081 1.45765e-17
5581.00279 1.46883e-17
5582.00477 1.41233e-17
5582.99662 1.40902e-17
5583.99860 1.46257e-17
5585.00058 1.47854e-17
5586.00256 1.47851e-17
5587.00454 1.44992e-17
5587.99640 1.48168e-17
5588.99838 1.48618e-17
5590.00036 1.45252e-17
5591.00234 1.46891e-17
5592.00431 1.43858e-17
5592.99617 1.46742e-17
5593.99815 1.44850e-17
5595.00013 1.48638e-17
5596.00211 1.48868e-17
5597.00409 1.47234e-17
5597.99595 1.50966e-17
5598.99793 1.48790e-17
5599.99991 1.46564e-17
5601.00188 1.40489e-17
5602.00386 1.43135e-17
5602.99572 1.49396e-17
5603.99770 1.53144e-17
5604.99968 1.47175e-17
5606.00166 1.47013e-17
5607.00364 1.41499e-17
5607.99550 1.36767e-17
5608.99747 1.39039e-17
5609.99945 1.45554e-17
5611.00143 1.46925e-17
5612.00341 1.38605e-17
5613.00539 1.38371e-17
5613.99725 1.41363e-17
5614.99923 1.44124e-17
5616.00121 1.45024e-17
5617.00319 1.46102e-17
5617.99504 1.49959e-17
5618.99702 1.43461e-17
5619.99900 1.43018e-17
5621.00098 1.45461e-17
5622.00296 1.48417e-17
5623.00494 1.48472e-17
5623.99680 1.44259e-17
5624.99878 1.43925e-17
5626.00075 1.44709e-17
5627.00273 1.45342e-17
5628.00471 1.48283e-17
5628.99657 1.47536e-17
5629.99855 1.41050e-17
5631.00053 1.42121e-17
5632.00251 1.41569e-17
5633.00449 1.39974e-17
5633.99634 1.42006e-17
5634.99832 1.48625e-17
5636.00030 1.51072e-17
5637.00228 1.40536e-17
5638.00426 1.35995e-17
5638.99612 1.37992e-17
5639.99810 1.40756e-17
5641.00008 1.44616e-17
5642.00205 1.47888e-17
5643.00403 1.48064e-17
5643.99589 1.47526e-17
5644.99787 1.44904e-17
5645.99985 1.45696e-17
5647.00183 1.45656e-17
5648.00381 1.46764e-17
5648.99567 1.49473e-17
5649.99764 1.48054e-17
5650.99962 1.46386e-17
5652.00160 1.46888e-17
5653.00358 1.50617e-17
5653.99544 1.51285e-17
5654.99742 1.48905e-17
5655.99940 1.48789e-17
5657.00138 1.47485e-17
5658.00336 1.47313e-17
5658.99521 1.47959e-17
5659.99719 1.47054e-17
5660.99917 1.48317e-17
5662.00115 1.52628e-17
5663.00313 1.51638e-17
5664.00511 1.50887e-17
5664.99697 1.51745e-17
5665.99895 1.49057e-17
5667.00093 1.48490e-17
5668.00290 1.52169e-17
5669.00488 1.52928e-17
5669.99674 1.45553e-17
5670.99872 1.46437e-17
5672.00070 1.49488e-17
5673.00268 1.52448e-17
5674.00466 1.50699e-17
5674.99651 1.44445e-17
5675.99849 1.45045e-17
5677.00047 1.46051e-17
5678.00245 1.46784e-17
5679.00443 1.47153e-17
5679.99629 1.46538e-17
5680.99827 1.46609e-17
5682.00025 1.50192e-17
5683.00223 1.52226e-17
5684.00421 1.51349e-17
5684.99606 1.53194e-17
5685.99804 1.54718e-17
5687.00002 1.54442e-17
5688.00200 1.53465e-17
5689.00398 1.49373e-17
5689.99584 1.47497e-17
5690.99782 1.51127e-17
5691.99979 1.53099e-17
5693.00177 1.51054e-17
5694.00375 1.50106e-17
5694.99561 1.55584e-17
5695.99759 1.52958e-17
5696.99957 1.51696e-17
5698.00155 1.48026e-17
5699.00353 1.47877e-17
5699.99539 1.49642e-17
5700.99736 1.46948e-17
5701.99934 1.53165e-17
5703.00132 1.52805e-17
5704.00330 1.53783e-17
5704.99516 1.53204e-17
5705.99714 1.51677e-17
5706.99912 1.51878e-17
5708.00110 1.52574e-17
5709.00307 1.55033e-17
5710.00505 1.53046e-17
5710.99691 1.54220e-17
5711.99889 1.55523e-17
5713.00087 1.54559e-17
5714.00285 1.55562e-17
5715.00483 1.57774e-17
5715.99669 1.54916e-17
5716.99867 1.53214e-17
5718.00064 1.54612e-17
5719.00262 1.57566e-17
5720.00460 1.58685e-17
5720.99646 1.55430e-17
5721.99844 1.54896e-17
5723.00042 1.58565e-17
5724.00240 1.57821e-17
5725.00438 1.55006e-17
5725.99623 1.56362e-17
5726.99821 1.61165e-17
5728.00019 1.61704e-17
5729.00217 1.61059e-17
5730.00415 1.59871e-17
5730.99601 1.58536e-17
5731.99799 1.55524e-17
5732.99997 1.51509e-17
5734.00194 1.55677e-17
5735.00392 1.58647e-17
5735.99578 1.61467e-17
5736.99776 1.62258e-17
5737.99974 1.59627e-17
5739.00172 1.55958e-17
5740.00370 1.57001e-17
5740.99556 1.61810e-17
5741.99754 1.61892e-17
5742.99951 1.60827e-17
5744.00149 1.60896e-17
5745.00347 1.61209e-17
5745.99533 1.59925e-17
5746.99731 1.59066e-17
5747.99929 1.64150e-17
5749.00127 1.58880e-17
5750.00325 1.55568e-17
5751.00522 1.58758e-17
5751.99708 1.61036e-17
5752.99906 1.58548e-17
5754.00104 1.62303e-17
5755.00302 1.66161e-17
5756.00500 1.64599e-17
5756.99686 1.61221e-17
5757.99884 1.60647e-17
5759.00081 1.61801e-17
5760.00279 1.62805e-17
5761.00477 1.62386e-17
5761.99663 1.62318e-17
5762.99861 1.62201e-17
5764.00059 1.60914e-17
5765.00257 1.59363e-17
5766.00455 1.61994e-17
5766.99640 1.64215e-17
5767.99838 1.62849e-17
5769.00036 1.60141e-17
5770.00234 1.60592e-17
5771.00432 1.63043e-17
5771.99618 1.60445e-17
5772.99816 1.62585e-17
5774.00014 1.59716e-17
5775.00212 1.59225e-17
5776.00410 1.61137e-17
5776.99595 1.62434e-17
5777.99793 1.61940e-17
5778.99991 1.61539e-17
5780.00189 1.62754e-17
5781.00387 1.62482e-17
5781.99573 1.61077e-17
5782.99771 1.60181e-17
5783.99969 1.60187e-17
5785.00166 1.59544e-17
5786.00364 1.62015e-17
5786.99550 1.61903e-17
5787.99748 1.59962e-17
5788.99946 1.60872e-17
5790.00144 1.63693e-17
5791.00342 1.62465e-17
5791.99528 1.63030e-17
5792.99725 1.64034e-17
5793.99923 1.61681e-17
5795.00121 1.58740e-17
5796.00319 1.60104e-17
5796.99505 1.65090e-17
5797.99703 1.63787e-17
5798.99901 1.61309e-17
5800.00099 1.60978e-17
5801.00296 1.61768e-17
5802.00494 1.61356e-17
5802.99680 1.60084e-17
5803.99878 1.60937e-17
5805.00076 1.60797e-17
5806.00274 1.63275e-17
5807.00472 1.64248e-17
5807.99658 1.62740e-17
5808.99856 1.60677e-17
5810.00053 1.60765e-17
5811.00251 1.63865e-17
5812.00449 1.63007e-17
5812.99635 1.61385e-17
5813.99833 1.62590e-17
5815.00031 1.64702e-17
5816.00229 1.63404e-17
5817.00427 1.58541e-17
5817.99612 1.59588e-17
5818.99810 1.61111e-17
5820.00008 1.63645e-17
5821.00206 1.62900e-17
5822.00404 1.60724e-17
5822.99590 1.63151e-17
5823.99788 1.61078e-17
5824.99986 1.61544e-17
5826.00184 1.62156e-17
5827.00381 1.63033e-17
5827.99567 1.62934e-17
5828.99765 1.60978e-17
5829.99963 1.59820e-17
5831.00161 1.64046e-17
5832.00359 1.64094e-17
5832.99545 1.64092e-17
5833.99742 1.63741e-17
5834.99940 1.63807e-17
5836.00138 1.67346e-17
5837.00336 1.65003e-17
5837.99522 1.61207e-17
5838.99720 1.61426e-17
5839.99918 1.62808e-17
5841.00116 1.63132e-17
5842.00314 1.63055e-17
5843.00511 1.62061e-17
5843.99697 1.60197e-17
5844.99895 1.60851e-17
5846.00093 1.61496e-17
5847.00291 1.59007e-17
5848.00489 1.54071e-17
5848.99675 1.51042e-17
5849.99873 1.47967e-17
5851.00071 1.48660e-17
5852.00268 1.50289e-17
5853.00466 1.49903e-17
5853.99652 1.50487e-17
5854.99850 1.55218e-17
5856.00048 1.52673e-17
5857.00246 1.58278e-17
5858.00444 1.62263e-17
5858.99629 1.63398e-17
5859.99827 1.62319e-17
5861.00025 1.61511e-17
5862.00223 1.64880e-17
5863.00421 1.64825e-17
5863.99607 1.63853e-17
5864.99805 1.64633e-17
5866.00003 1.62664e-17
5867.00201 1.57440e-17
5868.00399 1.56061e-17
5868.99584 1.61027e-17
5869.99782 1.64850e-17
5870.99980 1.63013e-17
5872.00178 1.61126e-17
5873.00376 1.61345e-17
5873.99562 1.61861e-17
5874.99760 1.64250e-17
5875.99957 1.63863e-17
5877.00155 1.63264e-17
5878.00353 1.65058e-17
5878.99539 1.67173e-17
5879.99737 1.66201e-17
5880.99935 1.62313e-17
5882.00133 1.61576e-17
5883.00331 1.63818e-17
5883.99516 1.64560e-17
5884.99714 1.64411e-17
5885.99912 1.63574e-17
5887.00110 1.60341e-17
5888.00308 1.54491e-17
5889.00506 1.55586e-17
5889.99692 1.56818e-17
5890.99890 1.54788e-17
5892.00088 1.52133e-17
5893.00286 1.52009e-17
5894.00483 1.52750e-17
5894.99669 1.55055e-17
5895.99867 1.55218e-17
5897.00065 1.57503e-17
5898.00263 1.58979e-17
5899.00461 1.58368e-17
5899.99647 1.58618e-17
5900.99845 1.57591e-17
5902.00042 1.61624e-17
5903.00240 1.63964e-17
5904.00438 1.64016e-17
5904.99624 1.63121e-17
5905.99822 1.62532e-17
5907.00020 1.62765e-17
5908.00218 1.62933e-17
5909.00416 1.63326e-17
5909.99601 1.62480e-17
5910.99799 1.62241e-17
5911.99997 1.62332e-17
5913.00195 1.59737e-17
5914.00393 1.60416e-17
5914.99579 1.58875e-17
5915.99777 1.58558e-17
5916.99975 1.60450e-17
5918.00173 1.61781e-17
5919.00370 1.61039e-17
5919.99556 1.64011e-17
5920.99754 1.61788e-17
5921.99952 1.61951e-17
5923.00150 1.61769e-17
5924.00348 1.59293e-17
5924.99534 1.56352e-17
5925.99731 1.56767e-17
5926.99929 1.59867e-17
5928.00127 1.63733e-17
5929.00325 1.63395e-17
5929.99511 1.62261e-17
5930.99709 1.62363e-17
5931.99907 1.61727e-17
5933.00105 1.61866e-17
5934.00303 1.61138e-17
5934.99488 1.59653e-17
5935.99686 1.61367e-17
5936.99884 1.64108e-17
5938.00082 1.64476e-17
5939.00280 1.65140e-17
5940.00478 1.63154e-17
5940.99664 1.60015e-17
5941.99862 1.58989e-17
5943.00059 1.59152e-17
5944.00257 1.60166e-17
5945.00455 1.63429e-17
5945.99641 1.65057e-17
5946.99839 1.64631e-17
5948.00037 1.65964e-17
5949.00235 1.65403e-17
5950.00433 1.62978e-17
5950.99618 1.62794e-17
5951.99816 1.66078e-17
5953.00014 1.66874e-17
5954.00212 1.65901e-17
5955.00410 1.65583e-17
5955.99596 1.65242e-17
5956.99794 1.62883e-17
5957.99992 1.58327e-17
5959.00190 1.54366e-17
5960.00388 1.52386e-17
5960.99573 1.50569e-17
5961.99771 1.49185e-17
5962.99969 1.47928e-17
5964.00167 1.46642e-17
5965.00365 1.48422e-17
5965.99551 1.46433e-17
5966.99749 1.46585e-17
5967.99946 1.48340e-17
5969.00144 1.49669e-17
5970.00342 1.51226e-17
5970.99528 1.55938e-17
5971.99726 1.54141e-17
5972.99924 1.54607e-17
5974.00122 1.58432e-17
5975.00320 1.60725e-17
5976.00518 1.60371e-17
5976.99703 1.60971e-17
5977.99901 1.59190e-17
5979.00099 1.59247e-17
5980.00297 1.63664e-17
5981.00495 1.64944e-17
5981.99681 1.63172e-17
5982.99879 1.62751e-17
5984.00077 1.61257e-17
5985.00274 1.62053e-17
5986.00472 1.60747e-17
5986.99658 1.59545e-17
5987.99856 1.59675e-17
5989.00054 1.59596e-17
5990.00252 1.57828e-17
5991.00450 1.61547e-17
5991.99636 1.61854e-17
5992.99834 1.60766e-17
5994.00031 1.58020e-17
5995.00229 1.56319e-17
5996.00427 1.58212e-17
5996.99613 1.59156e-17
5997.99811 1.57939e-17
5999.00009 1.55146e-17
6000.00207 1.53246e-17
6001.00405 1.53798e-17
6001.99590 1.55069e-17
6002.99788 1.53763e-17
6003.99986 1.56094e-17
6005.00184 1.54023e-17
6006.00382 1.52725e-17
6006.99568 1.51911e-17
6007.99766 1.50950e-17
6008.99964 1.50832e-17
6010.00161 1.50656e-17
6011.00359 1.53812e-17
6011.99545 1.56134e-17
6012.99743 1.56270e-17
6013.99941 1.55083e-17
6015.00139 1.53231e-17
6016.00337 1.49915e-17
6016.99523 1.50813e-17
6017.99721 1.50836e-17
6018.99918 1.50637e-17
6020.00116 1.48857e-17
6021.00314 1.45769e-17
6021.99500 1.44419e-17
6022.99698 1.46182e-17
6023.99896 1.46153e-17
6025.00094 1.47317e-17
6026.00292 1.46743e-17
6027.00490 1.44314e-17
6027.99675 1.43085e-17
6028.99873 1.44147e-17
6030.00071 1.43924e-17
6031.00269 1.43097e-17
6032.00467 1.42897e-17
6032.99653 1.44465e-17
6033.99851 1.45967e-17
6035.00049 1.43936e-17
6036.00246 1.43534e-17
6037.00444 1.43998e-17
6037.99630 1.42588e-17
6038.99828 1.40714e-17
6040.00026 1.40160e-17
6041.00224 1.40882e-17
6042.00422 1.41707e-17
6042.99608 1.41795e-17
6043.99805 1.40379e-17
6045.00003 1.39294e-17
6046.00201 1.40610e-17
6047.00399 1.42294e-17
6047.99585 1.38910e-17
6048.99783 1.38900e-17
6049.99981 1.41704e-17
6051.00179 1.42362e-17
6052.00376 1.41069e-17
6052.99562 1.41869e-17
6053.99760 1.45576e-17
6054.99958 1.40443e-17
6056.00156 1.38099e-17
6057.00354 1.38688e-17
6057.99540 1.39588e-17
6058.99738 1.40072e-17
6059.99935 1.40097e-17
6061.00133 1.37366e-17
6062.00331 1.34520e-17
6062.99517 1.37502e-17
6063.99715 1.36779e-17
6064.99913 1.34262e-17
6066.00111 1.33723e-17
6067.00309 1.32873e-17
6068.00507 1.33214e-17
6068.99692 1.36335e-17
6069.99890 1.36773e-17
6071.00088 1.34926e-17
6072.00286 1.33473e-17
6073.00484 1.33857e-17
6073.99670 1.34656e-17
6074.99868 1.31823e-17
6076.00066 1.34781e-17
6077.00264 1.35649e-17
6078.00461 1.34860e-17
6078.99647 1.35512e-17
6079.99845 1.34907e-17
6081.00043 1.35523e-17
6082.00241 1.35127e-17
6083.00439 1.33476e-17
6083.99625 1.31006e-17
6084.99823 1.29804e-17
6086.00020 1.31368e-17
6087.00218 1.32351e-17
6088.00416 1.32003e-17
6088.99602 1.35713e-17
6089.99800 1.37374e-17
6090.99998 1.34811e-17
6092.00196 1.32200e-17
6093.00394 1.33862e-17
6093.99579 1.31011e-17
6094.99777 1.29542e-17
6095.99975 1.31720e-17
6097.00173 1.34154e-17
6098.00371 1.33768e-17
6098.99557 1.31837e-17
6099.99755 1.31598e-17
6100.99953 1.32955e-17
6102.00151 1.31633e-17
6103.00348 1.31669e-17
6103.99534 1.33646e-17
6104.99732 1.34194e-17
6105.99930 1.32750e-17
6107.00128 1.32282e-17
6108.00326 1.31375e-17
6108.99512 1.30670e-17
6109.99709 1.32485e-17
6110.99907 1.34957e-17
6112.00105 1.32316e-17
6113.00303 1.29483e-17
6114.00501 1.33598e-17
6114.99687 1.33795e-17
6115.99885 1.31350e-17
6117.00083 1.29164e-17
6118.00281 1.27546e-17
6119.00479 1.28263e-17
6119.99664 1.31520e-17
6120.99862 1.32230e-17
6122.00060 1.32676e-17
6123.00258 1.32597e-17
6124.00456 1.31985e-17
6124.99642 1.34157e-17
6125.99840 1.34425e-17
6127.00037 1.33841e-17
6128.00235 1.32289e-17
6129.00433 1.33417e-17
6129.99619 1.35977e-17
6130.99817 1.34887e-17
6132.00015 1.34730e-17
6133.00213 1.33896e-17
6134.00411 1.32191e-17
6134.99597 1.30327e-17
6135.99794 1.31701e-17
6136.99992 1.36081e-17
6138.00190 1.35297e-17
6139.00388 1.36200e-17
6139.99574 1.33365e-17
6140.99772 1.33480e-17
6141.99970 1.33505e-17
6143.00168 1.31474e-17
6144.00366 1.32491e-17
6144.99551 1.34414e-17
6145.99749 1.37412e-17
6146.99947 1.35295e-17
6148.00145 1.34562e-17
6149.00343 1.35963e-17
6149.99529 1.34675e-17
6150.99727 1.33768e-17
6151.99924 1.36589e-17
6153.00122 1.36651e-17
6154.00320 1.36120e-17
6155.00518 1.35729e-17
6155.99704 1.36244e-17
6156.99902 1.39429e-17
6158.00100 1.38496e-17
6159.00298 1.37707e-17
6159.99484 1.36450e-17
6160.99681 1.35718e-17
6161.99879 1.35321e-17
6163.00077 1.34536e-17
6164.00275 1.36176e-17
6165.00473 1.40055e-17
6165.99659 1.42028e-17
6166.99857 1.41415e-17
6168.00055 1.38864e-17
6169.00252 1.36754e-17
6170.00450 1.38460e-17
6170.99636 1.39536e-17
6171.99834 1.38499e-17
6173.00032 1.38883e-17
6174.00230 1.41733e-17
6175.00428 1.43862e-17
6175.99614 1.41781e-17
6176.99811 1.40462e-17
6178.00009 1.41412e-17
6179.00207 1.41731e-17
6180.00405 1.42487e-17
6180.99591 1.43306e-17
6181.99789 1.42923e-17
6182.99987 1.42668e-17
6184.00185 1.43609e-17
6185.00383 1.44586e-17
6185.99568 1.44993e-17
6186.99766 1.43885e-17
6187.99964 1.42365e-17
6189.00162 1.43634e-17
6190.00360 1.47762e-17
6190.99546 1.47492e-17
6191.99744 1.46406e-17
6192.99942 1.44070e-17
6194.00140 1.42190e-17
6195.00337 1.43467e-17
6195.99523 1.44785e-17
6196.99721 1.44984e-17
6197.99919 1.45012e-17
6199.00117 1.42663e-17
6200.00315 1.41700e-17
6201.00513 1.44586e-17
6201.99699 1.45790e-17
6202.99896 1.44726e-17
6204.00094 1.45576e-17
6205.00292 1.45943e-17
6206.00490 1.47840e-17
6206.99676 1.49199e-17
6207.99874 1.45247e-17
6209.00072 1.42735e-17
6210.00270 1.43429e-17
6211.00468 1.43636e-17
6211.99653 1.44251e-17
6212.99851 1.46026e-17
6214.00049 1.48044e-17
6215.00247 1.48534e-17
6216.00445 1.45969e-17
6216.99631 1.45523e-17
6217.99829 1.45380e-17
6219.00026 1.45418e-17
6220.00224 1.46253e-17
6221.00422 1.47457e-17
6221.99608 1.47836e-17
6222.99806 1.47255e-17
6224.00004 1.46320e-17
6225.00202 1.47035e-17
6226.00400 1.47832e-17
6226.99586 1.46319e-17
6227.99783 1.45701e-17
6228.99981 1.44882e-17
6230.00179 1.45777e-17
6231.00377 1.45978e-17
6231.99563 1.46234e-17
6232.99761 1.47092e-17
6233.99959 1.46108e-17
6235.00157 1.44680e-17
6236.00354 1.47974e-17
6236.99540 1.50413e-17
6237.99738 1.47855e-17
6238.99936 1.43788e-17
6240.00134 1.43750e-17
6241.00332 1.41316e-17
6242.00530 1.45174e-17
6242.99716 1.45436e-17
6243.99914 1.43963e-17
6245.00111 1.43806e-17
6246.00309 1.44927e-17
6246.99495 1.44780e-17
6247.99693 1.45154e-17
6248.99891 1.44130e-17
6250.00089 1.44247e-17
6251.00287 1.45053e-17
6252.00485 1.44670e-17
6252.99670 1.42866e-17
6253.99868 1.43332e-17
6255.00066 1.42751e-17
6256.00264 1.44437e-17
6257.00462 1.45814e-17
6257.99648 1.46422e-17
6258.99846 1.47115e-17
6260.00044 1.45335e-17
6261.00241 1.43127e-17
6262.00439 1.44500e-17
6262.99625 1.43918e-17
6263.99823 1.43233e-17
6265.00021 1.44660e-17
6266.00219 1.44850e-17
6267.00417 1.44335e-17
6267.99603 1.45553e-17
6268.99801 1.45537e-17
6269.99998 1.44646e-17
6271.00196 1.45159e-17
6272.00394 1.46960e-17
6272.99580 1.43954e-17
6273.99778 1.45897e-17
6274.99976 1.46145e-17
6276.00174 1.44278e-17
6277.00372 1.42628e-17
6277.99557 1.42191e-17
6278.99755 1.40989e-17
6279.99953 1.41023e-17
6281.00151 1.44168e-17
6282.00349 1.42860e-17
6282.99535 1.40391e-17
6283.99733 1.41374e-17
6284.99931 1.44658e-17
6286.00129 1.45947e-17
6287.00326 1.46107e-17
6287.99512 1.46051e-17
6288.99710 1.46477e-17
6289.99908 1.44573e-17
6291.00106 1.40865e-17
6292.00304 1.44448e-17
6293.00502 1.48478e-17
6293.99687 1.47109e-17
6294.99885 1.46231e-17
6296.00083 1.46604e-17
6297.00281 1.47094e-17
6298.00479 1.48100e-17
6298.99665 1.47555e-17
6299.99863 1.46500e-17
6301.00061 1.49888e-17
6302.00259 1.49658e-17
6303.00456 1.45207e-17
6303.99642 1.44646e-17
6304.99840 1.50426e-17
6306.00038 1.48329e-17
6307.00236 1.45870e-17
6308.00434 1.46555e-17
6308.99620 1.48642e-17
6309.99818 1.49356e-17
6311.00016 1.48964e-17
6312.00213 1.47805e-17
6313.00411 1.50320e-17
6313.99597 1.50134e-17
6314.99795 1.49264e-17
6315.99993 1.49196e-17
6317.00191 1.48472e-17
6318.00389 1.49355e-17
6318.99575 1.49953e-17
6319.99772 1.50762e-17
6320.99970 1.48845e-17
6322.00168 1.47286e-17
6323.00366 1.49004e-17
6323.99552 1.49157e-17
6324.99750 1.47454e-17
6325.99948 1.47346e-17
6327.00146 1.48618e-17
6328.00344 1.50222e-17
6328.99529 1.50102e-17
6329.99727 1.47840e-17
6330.99925 1.50975e-17
6332.00123 1.49859e-17
6333.00321 1.47929e-17
6333.99507 1.48689e-17
6334.99705 1.50892e-17
6335.99903 1.51245e-17
6337.00100 1.50587e-17
6338.00298 1.50744e-17
6339.00496 1.50943e-17
6339.99682 1.49925e-17
6340.99880 1.48953e-17
6342.00078 1.48795e-17
6343.00276 1.48169e-17
6344.00474 1.48548e-17
6344.99659 1.50372e-17
6345.99857 1.49352e-17
6347.00055 1.47972e-17
6348.00253 1.47884e-17
6349.00451 1.47881e-17
6349.99637 1.48004e-17
6350.99835 1.46601e-17
6352.00033 1.47493e-17
6353.00230 1.46920e-17
6354.00428 1.45402e-17
6354.99614 1.45671e-17
6355.99812 1.46620e-17
6357.00010 1.40657e-17
6358.00208 1.35837e-17
6359.00406 1.33204e-17
6359.99592 1.32664e-17
6360.99789 1.32280e-17
6361.99987 1.30890e-17
6363.00185 1.33601e-17
6364.00383 1.36702e-17
6364.99569 1.38634e-17
6365.99767 1.42214e-17
6366.99965 1.45468e-17
6368.00163 1.46281e-17
6369.00361 1.49570e-17
6369.99546 1.51285e-17
6370.99744 1.49771e-17
6371.99942 1.50412e-17
6373.00140 1.52100e-17
6374.00338 1.52653e-17
6374.99524 1.52921e-17
6375.99722 1.50786e-17
6376.99920 1.52565e-17
6378.00118 1.51843e-17
6379.00315 1.50868e-17
6380.00513 1.51684e-17
6380.99699 1.52428e-17
6381.99897 1.49914e-17
6383.00095 1.51513e-17
6384.00293 1.51320e-17
6385.00491 1.48787e-17
6385.99676 1.48228e-17
6386.99874 1.50844e-17
6388.00072 1.51190e-17
6389.00270 1.49994e-17
6390.00468 1.49345e-17
6390.99654 1.50118e-17
6391.99852 1.51894e-17
6393.00050 1.51829e-17
6394.00248 1.48510e-17
6395.00446 1.48424e-17
6395.99631 1.51028e-17
6396.99829 1.51362e-17
6398.00027 1.52160e-17
6399.00225 1.52998e-17
6400.00423 1.52440e-17
6400.99609 1.52913e-17
6401.99807 1.53684e-17
6403.00004 1.52701e-17
6404.00202 1.53027e-17
6405.00400 1.52627e-17
6405.99586 1.52030e-17
6406.99784 1.54910e-17
6407.99982 1.55494e-17
6409.00180 1.54188e-17
6410.00378 1.52244e-17
6410.99564 1.51016e-17
6411.99761 1.50388e-17
6412.99959 1.50358e-17
6414.00157 1.53065e-17
6415.00355 1.55767e-17
6415.99541 1.54498e-17
6416.99739 1.51573e-17
6417.99937 1.49870e-17
6419.00135 1.50332e-17
6420.00332 1.51482e-17
6420.99518 1.50932e-17
6421.99716 1.50358e-17
6422.99914 1.51576e-17
6424.00112 1.53263e-17
6425.00310 1.53099e-17
6426.00508 1.51115e-17
6426.99694 1.51641e-17
6427.99891 1.51777e-17
6429.00089 1.51425e-17
6430.00287 1.50870e-17
6431.00485 1.49844e-17
6431.99671 1.49366e-17
6432.99869 1.51647e-17
6434.00067 1.50899e-17
6435.00265 1.50561e-17
6436.00463 1.52305e-17
6436.99648 1.54053e-17
6437.99846 1.53838e-17
6439.00044 1.52280e-17
6440.00242 1.51366e-17
6441.00440 1.51460e-17
6441.99626 1.51863e-17
6442.99824 1.49977e-17
6444.00022 1.48758e-17
6445.00220 1.50864e-17
6446.00417 1.51037e-17
6446.99603 1.51657e-17
6447.99801 1.53436e-17
6448.99999 1.52666e-17
6450.00197 1.50447e-17
6451.00395 1.50211e-17
6451.99581 1.52736e-17
6452.99779 1.52289e-17
6453.99976 1.53190e-17
6455.00174 1.51578e-17
6456.00372 1.50033e-17
6456.99558 1.49923e-17
6457.99756 1.50053e-17
6458.99954 1.50411e-17
6460.00152 1.51726e-17
6461.00350 1.51735e-17
6461.99535 1.51172e-17
6462.99733 1.51073e-17
6463.99931 1.51701e-17
6465.00129 1.52157e-17
6466.00327 1.49715e-17
6467.00525 1.52017e-17
6467.99711 1.51694e-17
6468.99909 1.51538e-17
6470.00106 1.51248e-17
6471.00304 1.47449e-17
6471.99490 1.48125e-17
6472.99688 1.49851e-17
6473.99886 1.51094e-17
6475.00084 1.51172e-17
6476.00282 1.50559e-17
6477.00480 1.50299e-17
6477.99665 1.50748e-17
6478.99863 1.48399e-17
6480.00061 1.51244e-17
6481.00259 1.52863e-17
6482.00457 1.50433e-17
6482.99643 1.47652e-17
6483.99841 1.49728e-17
6485.00039 1.52667e-17
6486.00237 1.53438e-17
6487.00434 1.51696e-17
6487.99620 1.50982e-17
6488.99818 1.50961e-17
6490.00016 1.49870e-17
6491.00214 1.50909e-17
6492.00412 1.51949e-17
6492.99598 1.50877e-17
6493.99796 1.50250e-17
6494.99994 1.51128e-17
6496.00191 1.53705e-17
6497.00389 1.57052e-17
6497.99575 1.52501e-17
6498.99773 1.53077e-17
6499.99971 1.54556e-17
6501.00169 1.54886e-17
6502.00367 1.53769e-17
6502.99553 1.52415e-17
6503.99750 1.53172e-17
6504.99948 1.50622e-17
6506.00146 1.52980e-17
6507.00344 1.56016e-17
6507.99530 1.55818e-17
6508.99728 1.53042e-17
6509.99926 1.51735e-17
6511.00124 1.53726e-17
6512.00321 1.54985e-17
6512.99507 1.54505e-17
6513.99705 1.52601e-17
6514.99903 1.51619e-17
6516.00101 1.53213e-17
6517.00299 1.53042e-17
6518.00497 1.50712e-17
6518.99683 1.51665e-17
6519.99881 1.51731e-17
6521.00078 1.50348e-17
6522.00276 1.50762e-17
6523.00474 1.53462e-17
6523.99660 1.51793e-17
6524.99858 1.52856e-17
6526.00056 1.54566e-17
6527.00254 1.54441e-17
6528.00452 1.53678e-17
6528.99637 1.55135e-17
6529.99835 1.52859e-17
6531.00033 1.53156e-17
6532.00231 1.52470e-17
6533.00429 1.52691e-17
6533.99615 1.53162e-17
6534.99813 1.52430e-17
6536.00011 1.54771e-17
6537.00209 1.54068e-17
6538.00406 1.53670e-17
6538.99592 1.53775e-17
6539.99790 1.53663e-17
6540.99988 1.52819e-17
6542.00186 1.51800e-17
6543.00384 1.53137e-17
6543.99570 1.51834e-17
6544.99767 1.52059e-17
6545.99965 1.53949e-17
6547.00163 1.55367e-17
6548.00361 1.54984e-17
6548.99547 1.54382e-17
6549.99745 1.53634e-17
6550.99943 1.55713e-17
6552.00141 1.55439e-17
6553.00339 1.53006e-17
6554.00536 1.52250e-17
6554.99722 1.53560e-17
6555.99920 1.53419e-17
6557.00118 1.56416e-17
6558.00316 1.58110e-17
6558.99502 1.57387e-17
6559.99700 1.56869e-17
6560.99898 1.58662e-17
6562.00096 1.57475e-17
6563.00293 1.58525e-17
6564.00491 1.58585e-17
6564.99677 1.56674e-17
6565.99875 1.55603e-17
6567.00073 1.56790e-17
6568.00271 1.55047e-17
6569.00469 1.55127e-17
6569.99654 1.53763e-17
6570.99852 1.51412e-17
6572.00050 1.51545e-17
6573.00248 1.53963e-17
6574.00446 1.53797e-17
6574.99632 1.54305e-17
6575.99830 1.55518e-17
6577.00028 1.55191e-17
6578.00226 1.55374e-17
6579.00424 1.56706e-17
6579.99609 1.57416e-17
6580.99807 1.57092e-17
6582.00005 1.59297e-17
6583.00203 1.60982e-17
6584.00401 1.58547e-17
6584.99587 1.54760e-17
6585.99785 1.53895e-17
6586.99982 1.55450e-17
6588.00180 1.57931e-17
6589.00378 1.57138e-17
6589.99564 1.56716e-17
6590.99762 1.57546e-17
6591.99960 1.58863e-17
6593.00158 1.59729e-17
6594.00356 1.59152e-17
6594.99541 1.55029e-17
6595.99739 1.55917e-17
6596.99937 1.57720e-17
6598.00135 1.56291e-17
6599.00333 1.53641e-17
6599.99519 1.56165e-17
6600.99717 1.57645e-17
6601.99915 1.57560e-17
6603.00113 1.57888e-17
6604.00310 1.56061e-17
6605.00508 1.52754e-17
6605.99694 1.53404e-17
6606.99892 1.55264e-17
6608.00090 1.54003e-17
6609.00288 1.52752e-17
6610.00486 1.51898e-17
6610.99672 1.51565e-17
6611.99870 1.52302e-17
6613.00067 1.54132e-17
6614.00265 1.53442e-17
6615.00463 1.53443e-17
6615.99649 1.53802e-17
6616.99847 1.53553e-17
6618.00045 1.52356e-17
6619.00243 1.51148e-17
6620.00441 1.52660e-17
6620.99626 1.53110e-17
6621.99824 1.53528e-17
6623.00022 1.54204e-17
6624.00220 1.53777e-17
6625.00418 1.52068e-17
6625.99604 1.54644e-17
6626.99802 1.55617e-17
6628.00000 1.54109e-17
6629.00198 1.57037e-17
6630.00395 1.59885e-17
6630.99581 1.56181e-17
6631.99779 1.52137e-17
6632.99977 1.55445e-17
6634.00175 1.55365e-17
6635.00373 1.53354e-17
6635.99559 1.53512e-17
6636.99756 1.55419e-17
6637.99954 1.54826e-17
6639.00152 1.54512e-17
6640.00350 1.55958e-17
6640.99536 1.58851e-17
6641.99734 1.58630e-17
6642.99932 1.56381e-17
6644.00130 1.56482e-17
6645.00328 1.58243e-17
6645.99513 1.58391e-17
6646.99711 1.55487e-17
6647.99909 1.54833e-17
6649.00107 1.55291e-17
6650.00305 1.54500e-17
6651.00503 1.53746e-17
6651.99689 1.51877e-17
6652.99887 1.52710e-17
6654.00084 1.52933e-17
6655.00282 1.53851e-17
6656.00480 1.55250e-17
6656.99666 1.55048e-17
6657.99864 1.54006e-17
6659.00062 1.52457e-17
6660.00260 1.51256e-17
6661.00458 1.51116e-17
6661.99644 1.52984e-17
6662.99841 1.55168e-17
6664.00039 1.53583e-17
6665.00237 1.53658e-17
6666.00435 1.55312e-17
6666.99621 1.54540e-17
6667.99819 1.53612e-17
6669.00017 1.53653e-17
6670.00215 1.52419e-17
6671.00413 1.50800e-17
6671.99598 1.48933e-17
6672.99796 1.51569e-17
6673.99994 1.51535e-17
6675.00192 1.50571e-17
6676.00390 1.53137e-17
6676.99576 1.52957e-17
6677.99774 1.51688e-17
6678.99971 1.52681e-17
6680.00169 1.52153e-17
6681.00367 1.50784e-17
6681.99553 1.51091e-17
6682.99751 1.53059e-17
6683.99949 1.52421e-17
6685.00147 1.52170e-17
6686.00345 1.54095e-17
6686.99531 1.53469e-17
6687.99728 1.51803e-17
6688.99926 1.52486e-17
6690.00124 1.48451e-17
6691.00322 1.49160e-17
6692.00520 1.51646e-17
6692.99706 1.49178e-17
6693.99904 1.46243e-17
6695.00102 1.47242e-17
6696.00299 1.47416e-17
6697.00497 1.49978e-17
6697.99683 1.48052e-17
6698.99881 1.48480e-17
6700.00079 1.50697e-17
6701.00277 1.51272e-17
6702.00475 1.49453e-17
6702.99661 1.49538e-17
6703.99859 1.50620e-17
6705.00056 1.52156e-17
6706.00254 1.52101e-17
6707.00452 1.51419e-17
6707.99638 1.51413e-17
6708.99836 1.50492e-17
6710.00034 1.50472e-17
6711.00232 1.49621e-17
6712.00430 1.49671e-17
6712.99615 1.50248e-17
6713.99813 1.48886e-17
6715.00011 1.45500e-17
6716.00209 1.50578e-17
6717.00407 1.50871e-17
6717.99593 1.51338e-17
6718.99791 1.50993e-17
6719.99989 1.49347e-17
6721.00186 1.48688e-17
6722.00384 1.52017e-17
6722.99570 1.49959e-17
6723.99768 1.48328e-17
6724.99966 1.46452e-17
6726.00164 1.45674e-17
6727.00362 1.47037e-17
6727.99548 1.48882e-17
6728.99746 1.48640e-17
6729.99943 1.48756e-17
6731.00141 1.49297e-17
6732.00339 1.49160e-17
6732.99525 1.48786e-17
6733.99723 1.49081e-17
6734.99921 1.47997e-17
6736.00119 1.48162e-17
6737.00317 1.50902e-17
6737.99502 1.51196e-17
6738.99700 1.49171e-17
6739.99898 1.47752e-17
6741.00096 1.47311e-17
6742.00294 1.48017e-17
6743.00492 1.49320e-17
6743.99678 1.50208e-17
6744.99876 1.50219e-17
6746.00074 1.49458e-17
6747.00271 1.48636e-17
6748.00469 1.49242e-17
6748.99655 1.49973e-17
6749.99853 1.51414e-17
6751.00051 1.50605e-17
6752.00249 1.47753e-17
6753.00447 1.46537e-17
6753.99633 1.49615e-17
6754.99830 1.47810e-17
6756.00028 1.47932e-17
6757.00226 1.48555e-17
6758.00424 1.49398e-17
6758.99610 1.50434e-17
6759.99808 1.50842e-17
6761.00006 1.50250e-17
6762.00204 1.50501e-17
6763.00401 1.50580e-17
6763.99587 1.48918e-17
6764.99785 1.48291e-17
6765.99983 1.50567e-17
6767.00181 1.48527e-17
6768.00379 1.45778e-17
6768.99565 1.45063e-17
6769.99763 1.45252e-17
6770.99960 1.46308e-17
6772.00158 1.47317e-17
6773.00356 1.46005e-17
6773.99542 1.46515e-17
6774.99740 1.46900e-17
6775.99938 1.46892e-17
6777.00136 1.46158e-17
6778.00334 1.45665e-17
6779.00532 1.46489e-17
6779.99717 1.46832e-17
6780.99915 1.46100e-17
6782.00113 1.46053e-17
6783.00311 1.46585e-17
6784.00509 1.46671e-17
6784.99695 1.45851e-17
6785.99893 1.45234e-17
6787.00091 1.46897e-17
6788.00289 1.47977e-17
6789.00486 1.46606e-17
6789.99672 1.45631e-17
6790.99870 1.47065e-17
6792.00068 1.48865e-17
6793.00266 1.47721e-17
6794.00464 1.47153e-17
6794.99650 1.47559e-17
6795.99848 1.46493e-17
6797.00045 1.45423e-17
6798.00243 1.47149e-17
6799.00441 1.49469e-17
6799.99627 1.49944e-17
6800.99825 1.49724e-17
6802.00023 1.48424e-17
6803.00221 1.47883e-17
6804.00419 1.47788e-17
6804.99604 1.45133e-17
6805.99802 1.44116e-17
6807.00000 1.48239e-17
6808.00198 1.48238e-17
6809.00396 1.45533e-17
6809.99582 1.44937e-17
6810.99780 1.47416e-17
6811.99978 1.47629e-17
6813.00176 1.47125e-17
6814.00373 1.46399e-17
6814.99559 1.45156e-17
6815.99757 1.45103e-17
6816.99955 1.46908e-17
6818.00153 1.47909e-17
6819.00351 1.47135e-17
6819.99537 1.47441e-17
6820.99734 1.47173e-17
6821.99932 1.45965e-17
6823.00130 1.45316e-17
6824.00328 1.45975e-17
6824.99514 1.43453e-17
6825.99712 1.43847e-17
6826.99910 1.46846e-17
6828.00108 1.46969e-17
6829.00306 1.44605e-17
6830.00504 1.44020e-17
6830.99689 1.45686e-17
6831.99887 1.45683e-17
6833.00085 1.45903e-17
6834.00283 1.46710e-17
6835.00481 1.46888e-17
6835.99667 1.45866e-17
6836.99865 1.45034e-17
6838.00062 1.46673e-17
6839.00260 1.46978e-17
6840.00458 1.46633e-17
6840.99644 1.47259e-17
6841.99842 1.46992e-17
6843.00040 1.44147e-17
6844.00238 1.43753e-17
6845.00436 1.45352e-17
6845.99621 1.46171e-17
6846.99819 1.46308e-17
6848.00017 1.45631e-17
6849.00215 1.44578e-17
6850.00413 1.44516e-17
6850.99599 1.44738e-17
6851.99797 1.46730e-17
6852.99995 1.46867e-17
6854.00193 1.45985e-17
6855.00391 1.45376e-17
6855.99576 1.45263e-17
6856.99774 1.46888e-17
6857.99972 1.47532e-17
6859.00170 1.46816e-17
6860.00368 1.46140e-17
6860.99554 1.45775e-17
6861.99752 1.45858e-17
6862.99950 1.47489e-17
6864.00147 1.47493e-17
6865.00345 1.47144e-17
6865.99531 1.47145e-17
6866.99729 1.48098e-17
6867.99927 1.48574e-17
6869.00125 1.46543e-17
6870.00323 1.44753e-17
6870.99509 1.43434e-17
6871.99706 1.43606e-17
6872.99904 1.43934e-17
6874.00102 1.44507e-17
6875.00300 1.45503e-17
6876.00498 1.44538e-17
6876.99684 1.45263e-17
6877.99882 1.46084e-17
6879.00080 1.46017e-17
6880.00277 1.45511e-17
6881.00475 1.44776e-17
6881.99661 1.43662e-17
6882.99859 1.46386e-17
6884.00057 1.46468e-17
6885.00255 1.45783e-17
6886.00453 1.46554e-17
6886.99639 1.47778e-17
6887.99836 1.47105e-17
6889.00034 1.46106e-17
6890.00232 1.45393e-17
6891.00430 1.45626e-17
6891.99616 1.45293e-17
6892.99814 1.44152e-17
6894.00012 1.42923e-17
6895.00210 1.42030e-17
6896.00408 1.42049e-17
6896.99593 1.43554e-17
6897.99791 1.44406e-17
6898.99989 1.44491e-17
6900.00187 1.45494e-17
6901.00385 1.47807e-17
6901.99571 1.46341e-17
6902.99769 1.42359e-17
6903.99967 1.42037e-17
6905.00164 1.44272e-17
6906.00362 1.46241e-17
6906.99548 1.46346e-17
6907.99746 1.44958e-17
6908.99944 1.43977e-17
6910.00142 1.44997e-17
6911.00340 1.45290e-17
6911.99526 1.44665e-17
6912.99724 1.44300e-17
6913.99921 1.44482e-17
6915.00119 1.43593e-17
6916.00317 1.43454e-17
6917.00515 1.44626e-17
6917.99701 1.45029e-17
6918.99899 1.43621e-17
6920.00097 1.42319e-17
6921.00295 1.44707e-17
6922.00493 1.44538e-17
6922.99678 1.41752e-17
6923.99876 1.40891e-17
6925.00074 1.41594e-17
6926.00272 1.41296e-17
6927.00470 1.40146e-17
6927.99656 1.41507e-17
6928.99854 1.42727e-17
6930.00051 1.42912e-17
6931.00249 1.42599e-17
6932.00447 1.42179e-17
6932.99633 1.42016e-17
6933.99831 1.44106e-17
6935.00029 1.44210e-17
6936.00227 1.42588e-17
6937.00425 1.42032e-17
6937.99611 1.41611e-17
6938.99808 1.40486e-17
6940.00006 1.41946e-17
6941.00204 1.42850e-17
6942.00402 1.41637e-17
6942.99588 1.40870e-17
6943.99786 1.42204e-17
6944.99984 1.44582e-17
6946.00182 1.44999e-17
6947.00379 1.41291e-17
6947.99565 1.40261e-17
6948.99763 1.41177e-17
6949.99961 1.42087e-17
6951.00159 1.42773e-17
6952.00357 1.43446e-17
6952.99543 1.42168e-17
6953.99741 1.41405e-17
6954.99939 1.42517e-17
6956.00136 1.43448e-17
6957.00334 1.43340e-17
6957.99520 1.42348e-17
6958.99718 1.40950e-17
6959.99916 1.40982e-17
6961.00114 1.40875e-17
6962.00312 1.41392e-17
6962.99497 1.42321e-17
6963.99695 1.43323e-17
6964.99893 1.43830e-17
6966.00091 1.42467e-17
6967.00289 1.42252e-17
6968.00487 1.42228e-17
6968.99673 1.41644e-17
6969.99871 1.42083e-17
6971.00069 1.43965e-17
6972.00266 1.44508e-17
6973.00464 1.45329e-17
6973.99650 1.44411e-17
6974.99848 1.43177e-17
6976.00046 1.43412e-17
6977.00244 1.45037e-17
6978.00442 1.46376e-17
6978.99628 1.47071e-17
6979.99826 1.43726e-17
6981.00023 1.41422e-17
6982.00221 1.40961e-17
6983.00419 1.41963e-17
6983.99605 1.44140e-17
6984.99803 1.47085e-17
6986.00001 1.46368e-17
6987.00199 1.45080e-17
6988.00397 1.46245e-17
6988.99582 1.47714e-17
6989.99780 1.46837e-17
6990.99978 1.44370e-17
6992.00176 1.42637e-17
6993.00374 1.45007e-17
6993.99560 1.46395e-17
6994.99758 1.44453e-17
6995.99956 1.42699e-17
6997.00154 1.44599e-17
6998.00351 1.45240e-17
6998.99537 1.44124e-17
6999.99735 1.44183e-17
7000.99933 1.45853e-17
7002.00131 1.46454e-17
7003.00329 1.45300e-17
7004.00527 1.45379e-17
7004.99712 1.43172e-17
7005.99910 1.41709e-17
7007.00108 1.42963e-17
7008.00306 1.44583e-17
7009.00504 1.44758e-17
7009.99690 1.44247e-17
7010.99888 1.44155e-17
7012.00086 1.43448e-17
7013.00284 1.43750e-17
7014.00481 1.43970e-17
7014.99667 1.43555e-17
7015.99865 1.42693e-17
7017.00063 1.41632e-17
7018.00261 1.42156e-17
7019.00459 1.42899e-17
7019.99645 1.42203e-17
7020.99843 1.42225e-17
7022.00040 1.43289e-17
7023.00238 1.42725e-17
7024.00436 1.41530e-17
7024.99622 1.41466e-17
7025.99820 1.41897e-17
7027.00018 1.42211e-17
7028.00216 1.42625e-17
7029.00414 1.42498e-17
7029.99600 1.39238e-17
7030.99797 1.39684e-17
7031.99995 1.39607e-17
7033.00193 1.39059e-17
7034.00391 1.38956e-17
7034.99577 1.39686e-17
7035.99775 1.40673e-17
7036.99973 1.41404e-17
7038.00171 1.41251e-17
7039.00369 1.42349e-17
7039.99554 1.43874e-17
7040.99752 1.43492e-17
7041.99950 1.41217e-17
7043.00148 1.42353e-17
7044.00346 1.44072e-17
7044.99532 1.42672e-17
7045.99730 1.42513e-17
7046.99928 1.43780e-17
7048.00125 1.43806e-17
7049.00323 1.42152e-17
7049.99509 1.41741e-17
7050.99707 1.42062e-17
7051.99905 1.42689e-17
7053.00103 1.42980e-17
7054.00301 1.42136e-17
7055.00499 1.40447e-17
7055.99684 1.41189e-17
7056.99882 1.40661e-17
7058.00080 1.41629e-17
7059.00278 1.40723e-17
7060.00476 1.39258e-17
7060.99662 1.40873e-17
7061.99860 1.44329e-17
7063.00058 1.43016e-17
7064.00256 1.43522e-17
7065.00453 1.42695e-17
7065.99639 1.40878e-17
7066.99837 1.40150e-17
7068.00035 1.40898e-17
7069.00233 1.40532e-17
7070.00431 1.40807e-17
7070.99617 1.42188e-17
7071.99814 1.42560e-17
7073.00012 1.42049e-17
7074.00210 1.42209e-17
7075.00408 1.42015e-17
7075.99594 1.41607e-17
7076.99792 1.42135e-17
7077.99990 1.41665e-17
7079.00188 1.40253e-17
7080.00386 1.39927e-17
7080.99571 1.41880e-17
7081.99769 1.41108e-17
7082.99967 1.41657e-17
7084.00165 1.41610e-17
7085.00363 1.39862e-17
7085.99549 1.40172e-17
7086.99747 1.45246e-17
7087.99945 1.45277e-17
7089.00143 1.42103e-17
7090.00340 1.40105e-17
7090.99526 1.40909e-17
7091.99724 1.42251e-17
7092.99922 1.42920e-17
7094.00120 1.45749e-17
7095.00318 1.45228e-17
7096.00516 1.42724e-17
7096.99701 1.41097e-17
7097.99899 1.41621e-17
7099.00097 1.43137e-17
7100.00295 1.43217e-17
7101.00493 1.40565e-17
7101.99679 1.40706e-17
7102.99877 1.41856e-17
7104.00075 1.42581e-17
7105.00273 1.43189e-17
7106.00471 1.43621e-17
7106.99656 1.41171e-17
7107.99854 1.38763e-17
7109.00052 1.42390e-17
7110.00250 1.44136e-17
7111.00448 1.42285e-17
7111.99634 1.41084e-17
7112.99832 1.43718e-17
7114.00029 1.43602e-17
7115.00227 1.42565e-17
7116.00425 1.41742e-17
7116.99611 1.41723e-17
7117.99809 1.42080e-17
7119.00007 1.41983e-17
7120.00205 1.41412e-17
7121.00403 1.42744e-17
7121.99589 1.40868e-17
7122.99786 1.39981e-17
7123.99984 1.41092e-17
7125.00182 1.42836e-17
7126.00380 1.44890e-17
7126.99566 1.44598e-17
7127.99764 1.43322e-17
7128.99962 1.42329e-17
7130.00160 1.43342e-17
7131.00357 1.44454e-17
7131.99543 1.42710e-17
7132.99741 1.42834e-17
7133.99939 1.42340e-17
7135.00137 1.42090e-17
7136.00335 1.42396e-17
7136.99521 1.42733e-17
7137.99719 1.42789e-17
7138.99916 1.43392e-17
7140.00114 1.44258e-17
7141.00312 1.44576e-17
7142.00510 1.43787e-17
7142.99696 1.43449e-17
7143.99894 1.43837e-17
7145.00092 1.42735e-17
7146.00290 1.38726e-17
7147.00488 1.40430e-17
7147.99673 1.43072e-17
7148.99871 1.42681e-17
7150.00069 1.40146e-17
7151.00267 1.39420e-17
7152.00465 1.41795e-17
7152.99651 1.40827e-17
7153.99849 1.41488e-17
7155.00047 1.43051e-17
7156.00245 1.44056e-17
7157.00442 1.44166e-17
7157.99628 1.44138e-17
7158.99826 1.43069e-17
7160.00024 1.42200e-17
7161.00222 1.41020e-17
7162.00420 1.41953e-17
7162.99606 1.43903e-17
7163.99804 1.43719e-17
7165.00001 1.44363e-17
7166.00199 1.41786e-17
7167.00397 1.42131e-17
7167.99583 1.41692e-17
7168.99781 1.40960e-17
7169.99979 1.42168e-17
7171.00177 1.43099e-17
7172.00375 1.41283e-17
7172.99560 1.40525e-17
7173.99758 1.40042e-17
7174.99956 1.40897e-17
7176.00154 1.42742e-17
7177.00352 1.42799e-17
7177.99538 1.38909e-17
7178.99736 1.41185e-17
7179.99934 1.42252e-17
7181.00131 1.41242e-17
7182.00329 1.41101e-17
7182.99515 1.42835e-17
7183.99713 1.41853e-17
7184.99911 1.43046e-17
7186.00109 1.42050e-17
7187.00307 1.41245e-17
7187.99493 1.40231e-17
7188.99690 1.40063e-17
7189.99888 1.43262e-17
7191.00086 1.40296e-17
7192.00284 1.40143e-17
7193.00482 1.42640e-17
7193.99668 1.42732e-17
7194.99866 1.41159e-17
7196.00064 1.42280e-17
7197.00262 1.42961e-17
7198.00459 1.41641e-17
7198.99645 1.41729e-17
7199.99843 1.41449e-17
7201.00041 1.41858e-17
7202.00239 1.43355e-17
7203.00437 1.42471e-17
7203.99623 1.39388e-17
7204.99821 1.39146e-17
7206.00019 1.41365e-17
7207.00216 1.41958e-17
7208.00414 1.40294e-17
7208.99600 1.39405e-17
7209.99798 1.37966e-17
7210.99996 1.38681e-17
7212.00194 1.39727e-17
7213.00392 1.40909e-17
7213.99578 1.39759e-17
7214.99775 1.36809e-17
7215.99973 1.39119e-17
7217.00171 1.39674e-17
7218.00369 1.40079e-17
7218.99555 1.39708e-17
7219.99753 1.38992e-17
7220.99951 1.38730e-17
7222.00149 1.39098e-17
7223.00346 1.39412e-17
7223.99532 1.39583e-17
7224.99730 1.39156e-17
7225.99928 1.38414e-17
7227.00126 1.38228e-17
7228.00324 1.38949e-17
7229.00522 1.39469e-17
7229.99708 1.40145e-17
7230.99906 1.41069e-17
7232.00103 1.39929e-17
7233.00301 1.39357e-17
7234.00499 1.41171e-17
7234.99685 1.41890e-17
7235.99883 1.39246e-17
7237.00081 1.37316e-17
7238.00279 1.37500e-17
7239.00477 1.38304e-17
7239.99662 1.38526e-17
7240.99860 1.38060e-17
7242.00058 1.35961e-17
7243.00256 1.37882e-17
7244.00454 1.40005e-17
7244.99640 1.38641e-17
7245.99838 1.36859e-17
7247.00036 1.37996e-17
7248.00234 1.38460e-17
7249.00431 1.36414e-17
7249.99617 1.35802e-17
7250.99815 1.37390e-17
7252.00013 1.38166e-17
7253.00211 1.37198e-17
7254.00409 1.37063e-17
7254.99595 1.38028e-17
7255.99792 1.36617e-17
7256.99990 1.34968e-17
7258.00188 1.34290e-17
7259.00386 1.34933e-17
7259.99572 1.35754e-17
7260.99770 1.34509e-17
7261.99968 1.34795e-17
7263.00166 1.36431e-17
7264.00364 1.35921e-17
7264.99549 1.34556e-17
7265.99747 1.34539e-17
7266.99945 1.35232e-17
7268.00143 1.35697e-17
7269.00341 1.36148e-17
7269.99527 1.35443e-17
7270.99725 1.35039e-17
7271.99923 1.35211e-17
7273.00121 1.34926e-17
7274.00318 1.34692e-17
7274.99504 1.35972e-17
7275.99702 1.34906e-17
7276.99900 1.33910e-17
7278.00098 1.33901e-17
7279.00296 1.33845e-17
7280.00494 1.32837e-17
7280.99680 1.31624e-17
7281.99877 1.30522e-17
7283.00075 1.31099e-17
7284.00273 1.31920e-17
7285.00471 1.31891e-17
7285.99657 1.31685e-17
7286.99855 1.31786e-17
7288.00053 1.30548e-17
7289.00251 1.28791e-17
7290.00449 1.29226e-17
7290.99634 1.30694e-17
7291.99832 1.30486e-17
7293.00030 1.29269e-17
7294.00228 1.29964e-17
7295.00426 1.30846e-17
7295.99612 1.31195e-17
7296.99810 1.30221e-17
7298.00007 1.29496e-17
7299.00205 1.31282e-17
7300.00403 1.30764e-17
7300.99589 1.27458e-17
7301.99787 1.27785e-17
7302.99985 1.29207e-17
7304.00183 1.28592e-17
7305.00381 1.26954e-17
7305.99566 1.28536e-17
7306.99764 1.28953e-17
7307.99962 1.27053e-17
7309.00160 1.25445e-17
7310.00358 1.24251e-17
7310.99544 1.23444e-17
7311.99742 1.24682e-17
7312.99940 1.26412e-17
7314.00138 1.25766e-17
7315.00335 1.25620e-17
7315.99521 1.25480e-17
7316.99719 1.24331e-17
7317.99917 1.23339e-17
7319.00115 1.26303e-17
7320.00313 1.25876e-17
7321.00511 1.26319e-17
7321.99697 1.27255e-17
7322.99894 1.27329e-17
7324.00092 1.26187e-17
7325.00290 1.24939e-17
7326.00488 1.23808e-17
7326.99674 1.22771e-17
7327.99872 1.24695e-17
7329.00070 1.26447e-17
7330.00268 1.25351e-17
7331.00466 1.23088e-17
7331.99651 1.22371e-17
7332.99849 1.23916e-17
7334.00047 1.24928e-17
7335.00245 1.24189e-17
7336.00443 1.23124e-17
7336.99629 1.23150e-17
7337.99827 1.22712e-17
7339.00025 1.23296e-17
7340.00223 1.20686e-17
7341.00420 1.20188e-17
7341.99606 1.21856e-17
7342.99804 1.22765e-17
7344.00002 1.21888e-17
7345.00200 1.21587e-17
7346.00398 1.18798e-17
7346.99584 1.20254e-17
7347.99781 1.22010e-17
7348.99979 1.20803e-17
7350.00177 1.18864e-17
7351.00375 1.20213e-17
7351.99561 1.17973e-17
7352.99759 1.20638e-17
7353.99957 1.21138e-17
7355.00155 1.20323e-17
7356.00353 1.20692e-17
7356.99538 1.18177e-17
7357.99736 1.16284e-17
7358.99934 1.15871e-17
7360.00132 1.16775e-17
7361.00330 1.16640e-17
7361.99516 1.16145e-17
7362.99714 1.17543e-17
7363.99912 1.16434e-17
7365.00109 1.14237e-17
7366.00307 1.15892e-17
7367.00505 1.16194e-17
7367.99691 1.15136e-17
7368.99889 1.15334e-17
7370.00087 1.14446e-17
7371.00285 1.15986e-17
7372.00483 1.14281e-17
7372.99669 1.13860e-17
7373.99866 1.13406e-17
7375.00064 1.12226e-17
7376.00262 1.13076e-17
7377.00460 1.13275e-17
7377.99646 1.15368e-17
7378.99844 1.16222e-17
7380.00042 1.14849e-17
7381.00240 1.12953e-17
7382.00438 1.12198e-17
7382.99623 1.11075e-17
7383.99821 1.12574e-17
7385.00019 1.12303e-17
7386.00217 1.11611e-17
7387.00415 1.11102e-17
7387.99601 1.11687e-17
7388.99799 1.14447e-17
7389.99996 1.13387e-17
7391.00194 1.12522e-17
7392.00392 1.12173e-17
7392.99578 1.10438e-17
7393.99776 1.08701e-17
7394.99974 1.09618e-17
7396.00172 1.09371e-17
7397.00370 1.09683e-17
7397.99556 1.09068e-17
7398.99753 1.08348e-17
7399.99951 1.08147e-17
7401.00149 1.08000e-17
7402.00347 1.07120e-17
7402.99533 1.08366e-17
7403.99731 1.10016e-17
7404.99929 1.09856e-17
7406.00127 1.08396e-17
7407.00324 1.07282e-17
7408.00522 1.07420e-17
7408.99708 1.08541e-17
7409.99906 1.08225e-17
7411.00104 1.06268e-17
7412.00302 1.05576e-17
7413.00500 1.07449e-17
7413.99686 1.09744e-17
7414.99884 1.08714e-17
7416.00081 1.07415e-17
7417.00279 1.06504e-17
7418.00477 1.08236e-17
7418.99663 1.08930e-17
7419.99861 1.06867e-17
7421.00059 1.05932e-17
7422.00257 1.04984e-17
7423.00455 1.04132e-17
7423.99640 1.07135e-17
7424.99838 1.09275e-17
7426.00036 1.08325e-17
7427.00234 1.06603e-17
7428.00432 1.04907e-17
7428.99618 1.05282e-17
7429.99816 1.07606e-17
7431.00014 1.08073e-17
7432.00211 1.06680e-17
7433.00409 1.05769e-17
7433.99595 1.06200e-17
7434.99793 1.06787e-17
7435.99991 1.05666e-17
7437.00189 1.04735e-17
7438.00387 1.05228e-17
7438.99573 1.05816e-17
7439.99770 1.04716e-17
7440.99968 1.04740e-17
7442.00166 1.04258e-17
7443.00364 1.04899e-17
7443.99550 1.05050e-17
7444.99748 1.04238e-17
7445.99946 1.03536e-17
7447.00144 1.03753e-17
7448.00342 1.02945e-17
7448.99527 1.04267e-17
7449.99725 1.04856e-17
7450.99923 1.04509e-17
7452.00121 1.04378e-17
7453.00319 1.04662e-17
7454.00517 1.03983e-17
7454.99703 1.02729e-17
7455.99901 1.02813e-17
7457.00099 1.03874e-17
7458.00296 1.04726e-17
7459.00494 1.04324e-17
7459.99680 1.02314e-17
7460.99878 1.03162e-17
7462.00076 1.03244e-17
7463.00274 1.01716e-17
7464.00472 1.00328e-17
7464.99658 1.00599e-17
7465.99855 1.01645e-17
7467.00053 1.01698e-17
7468.00251 1.00823e-17
7469.00449 1.00648e-17
7469.99635 1.00922e-17
7470.99833 1.01447e-17
7472.00031 1.01881e-17
7473.00229 9.98112e-18
7474.00426 9.95855e-18
7474.99612 1.00169e-17
7475.99810 1.00696e-17
7477.00008 1.00664e-17
7478.00206 1.00589e-17
7479.00404 1.01591e-17
7479.99590 1.01812e-17
7480.99788 1.00342e-17
7481.99986 9.98795e-18
7483.00183 1.01178e-17
7484.00381 1.01708e-17
7484.99567 9.91279e-18
7485.99765 9.84597e-18
7486.99963 9.82201e-18
7488.00161 9.84543e-18
7489.00359 9.84097e-18
7489.99544 9.83593e-18
7490.99742 9.88573e-18
7491.99940 9.91932e-18
7493.00138 9.89396e-18
7494.00336 9.91982e-18
7495.00534 9.82319e-18
7495.99720 9.74705e-18
7496.99918 9.80990e-18
7498.00116 9.86447e-18
7499.00313 9.83840e-18
7499.99499 9.80875e-18
7500.99697 9.76354e-18
7501.99895 9.78758e-18
7503.00093 9.84518e-18
7504.00291 9.80238e-18
7505.00489 9.63690e-18
7505.99675 9.65242e-18
7506.99873 9.71277e-18
7508.00070 9.72906e-18
7509.00268 9.67654e-18
7510.00466 9.53815e-18
7510.99652 9.33770e-18
7511.99850 9.59820e-18
7513.00048 9.64847e-18
7514.00246 9.59838e-18
7515.00444 9.55159e-18
7515.99629 9.54341e-18
7516.99827 9.55487e-18
7518.00025 9.57508e-18
7519.00223 9.52811e-18
7520.00421 9.45831e-18
7520.99607 9.42105e-18
7521.99805 9.38798e-18
7523.00003 9.39406e-18
7524.00201 9.60123e-18
7525.00398 9.48037e-18
7525.99584 9.51971e-18
7526.99782 9.44206e-18
7527.99980 9.41645e-18
7529.00178 9.52644e-18
7530.00376 9.50919e-18
7530.99562 9.33093e-18
7531.99759 9.36222e-18
7532.99957 9.53680e-18
7534.00155 9.58025e-18
7535.00353 9.52770e-18
7535.99539 9.58306e-18
7536.99737 9.64055e-18
7537.99935 9.74114e-18
7539.00133 9.58922e-18
7540.00331 9.44329e-18
7540.99516 9.43168e-18
7541.99714 9.49312e-18
7542.99912 9.51022e-18
7544.00110 9.41166e-18
7545.00308 9.55888e-18
7546.00506 9.65710e-18
7546.99692 9.68282e-18
7547.99890 9.65372e-18
7549.00087 9.58444e-18
7550.00285 9.63968e-18
7551.00483 9.57886e-18
7551.99669 9.41328e-18
7552.99867 9.33719e-18
7554.00065 9.37644e-18
7555.00263 9.39354e-18
7556.00461 9.29644e-18
7556.99646 9.35524e-18
7557.99844 9.56285e-18
7559.00042 9.56844e-18
7560.00240 9.44445e-18
7561.00438 9.39341e-18
7561.99624 9.43067e-18
7562.99822 9.33438e-18
7564.00020 9.21883e-18
7565.00218 9.22053e-18
7566.00416 9.42991e-18
7566.99601 9.59971e-18
7567.99799 9.50799e-18
7568.99997 9.41841e-18
7570.00195 9.37561e-18
7571.00393 9.29857e-18
7571.99579 9.45433e-18
7572.99777 9.61839e-18
7573.99975 9.56738e-18
7575.00172 9.46885e-18
7576.00370 9.51143e-18
7576.99556 9.41651e-18
7577.99754 9.39150e-18
7578.99952 9.35250e-18
7580.00150 9.30076e-18
7581.00348 9.37144e-18
7581.99534 9.58777e-18
7582.99731 9.49359e-18
7583.99929 9.46467e-18
7585.00127 9.48364e-18
7586.00325 9.46641e-18
7586.99511 9.40494e-18
7587.99709 9.39006e-18
7588.99907 9.46414e-18
7590.00105 9.56204e-18
7591.00302 9.41082e-18
7592.00500 9.27682e-18
7592.99686 9.36464e-18
7593.99884 9.57447e-18
7595.00082 9.86137e-18
7596.00280 9.81412e-18
7597.00478 9.72407e-18
7597.99664 9.66771e-18
7598.99861 9.56834e-18
7600.00059 9.47987e-18
7601.00257 9.68452e-18
7602.00455 9.55526e-18
7602.99641 9.57259e-18
7603.99839 9.59441e-18
7605.00037 9.53413e-18
7606.00235 9.57855e-18
7607.00433 9.86104e-18
7607.99618 9.47569e-18
7608.99816 9.66893e-18
7610.00014 9.55124e-18
7611.00212 9.32221e-18
7612.00410 9.24729e-18
7612.99596 9.36876e-18
7613.99794 9.71926e-18
7614.99992 9.83321e-18
7616.00189 9.45664e-18
7617.00387 9.18680e-18
7617.99573 9.19579e-18
7618.99771 9.30556e-18
7619.99969 9.37421e-18
7621.00167 9.36814e-18
7622.00365 9.73379e-18
7622.99551 9.83098e-18
7623.99749 9.70210e-18
7624.99946 9.54025e-18
7626.00144 9.48608e-18
7627.00342 9.84097e-18
7627.99528 9.79903e-18
7628.99726 9.49631e-18
7629.99924 9.37343e-18
7631.00122 9.48547e-18
7632.00320 9.61551e-18
7633.00518 9.63349e-18
7633.99703 9.25519e-18
7634.99901 9.69588e-18
7636.00099 9.84766e-18
7637.00297 9.53355e-18
7638.00495 9.30720e-18
7638.99681 9.59082e-18
7639.99879 9.84876e-18
7641.00076 9.73711e-18
7642.00274 9.56575e-18
7643.00472 9.62341e-18
7643.99658 9.77201e-18
7644.99856 9.73371e-18
7646.00054 9.59744e-18
7647.00252 9.37081e-18
7648.00450 9.62385e-18
7648.99636 9.72174e-18
7649.99833 9.59485e-18
7651.00031 9.42089e-18
7652.00229 9.24599e-18
7653.00427 9.41914e-18
7653.99613 9.49580e-18
7654.99811 9.62535e-18
7656.00009 9.67585e-18
7657.00207 9.63022e-18
7658.00404 9.65534e-18
7658.99590 9.86329e-18
7659.99788 9.92981e-18
7660.99986 9.72250e-18
7662.00184 9.56654e-18
7663.00382 9.60203e-18
7663.99568 9.71339e-18
7664.99766 9.72417e-18
7665.99964 9.63201e-18
7667.00161 9.70250e-18
7668.00359 9.75028e-18
7668.99545 9.70842e-18
7669.99743 9.69918e-18
7670.99941 9.81966e-18
7672.00139 9.77720e-18
7673.00337 9.72245e-18
7673.99522 9.62795e-18
7674.99720 9.65770e-18
7675.99918 9.79182e-18
7677.00116 9.88225e-18
7678.00314 9.87554e-18
7679.00512 9.82223e-18
7679.99698 9.74356e-18
7680.99896 9.60594e-18
7682.00094 9.59824e-18
7683.00292 9.76033e-18
7684.00489 9.87020e-18
7684.99675 9.86965e-18
7685.99873 9.91751e-18
7687.00071 9.82431e-18
7688.00269 9.80429e-18
7689.00467 9.84805e-18
7689.99653 9.76363e-18
7690.99851 9.60958e-18
7692.00048 9.64469e-18
7693.00246 9.77670e-18
7694.00444 9.87000e-18
7694.99630 9.84457e-18
7695.99828 9.79290e-18
7697.00026 9.87000e-18
7698.00224 9.74940e-18
7699.00422 9.75533e-18
7699.99607 9.83045e-18
7700.99805 9.75754e-18
7702.00003 9.64085e-18
7703.00201 9.73538e-18
7704.00399 9.79028e-18
7704.99585 9.66575e-18
7705.99783 9.68328e-18
7706.99981 9.68994e-18
7708.00179 9.65813e-18
7709.00376 9.70902e-18
7709.99562 9.89055e-18
7710.99760 9.91395e-18
7711.99958 9.92838e-18
7713.00156 9.85231e-18
7714.00354 9.69990e-18
7714.99540 9.62100e-18
7715.99737 9.71926e-18
7716.99935 9.71238e-18
7718.00133 9.84772e-18
7719.00331 9.78313e-18
7720.00529 9.69659e-18
7720.99715 9.73788e-18
7721.99913 9.82701e-18
7723.00111 9.76665e-18
7724.00309 9.67997e-18
7725.00506 9.52153e-18
7725.99692 9.63901e-18
7726.99890 9.72278e-18
7728.00088 9.66419e-18
7729.00286 9.83929e-18
7730.00484 9.59969e-18
7730.99670 9.76491e-18
7731.99868 9.68788e-18
7733.00065 9.63691e-18
7734.00263 9.74944e-18
7735.00461 9.77308e-18
7735.99647 9.56217e-18
7736.99845 9.57080e-18
7738.00043 9.64769e-18
7739.00241 9.67231e-18
7740.00439 9.58929e-18
7740.99624 9.49887e-18
7741.99822 9.57951e-18
7743.00020 9.62817e-18
7744.00218 9.75320e-18
7745.00416 9.74891e-18
7745.99602 9.51347e-18
7746.99800 9.36919e-18
7747.99998 9.66571e-18
7749.00196 9.87370e-18
7750.00394 9.86543e-18
7750.99579 9.78966e-18
7751.99777 9.74716e-18
7752.99975 9.73803e-18
7754.00173 9.68227e-18
7755.00371 9.52156e-18
7755.99557 9.47835e-18
7756.99755 9.32500e-18
7757.99953 9.24994e-18
7759.00150 9.35444e-18
7760.00348 9.49130e-18
7760.99534 9.45669e-18
7761.99732 9.54665e-18
7762.99930 9.57638e-18
7764.00128 9.45735e-18
7765.00326 9.33528e-18
7765.99511 9.41023e-18
7766.99709 9.63961e-18
7767.99907 9.61650e-18
7769.00105 9.52960e-18
7770.00303 9.49159e-18
7771.00501 9.66380e-18
7771.99687 9.79726e-18
7772.99885 9.77953e-18
7774.00083 9.88293e-18
7775.00281 9.80057e-18
7776.00478 9.56155e-18
7776.99664 9.59274e-18
7777.99862 9.67448e-18
7779.00060 9.58647e-18
7780.00258 9.41617e-18
7781.00456 9.34672e-18
7781.99642 9.37522e-18
7782.99839 9.45132e-18
7784.00037 9.56080e-18
7785.00235 9.64536e-18
7786.00433 9.66955e-18
7786.99619 9.68553e-18
7787.99817 9.75293e-18
7789.00015 9.64710e-18
7790.00213 9.57927e-18
7791.00411 9.62272e-18
7791.99596 9.66973e-18
7792.99794 9.61759e-18
7793.99992 9.68602e-18
7795.00190 9.65641e-18
7796.00388 9.57647e-18
7796.99574 9.64522e-18
7797.99772 9.74322e-18
7798.99970 9.66570e-18
7800.00168 9.57574e-18
7801.00365 9.63641e-18
7801.99551 9.72145e-18
7802.99749 9.76075e-18
7803.99947 9.68956e-18
7805.00145 9.60490e-18
7806.00343 9.68796e-18
7807.00541 9.70198e-18
7807.99726 9.82154e-18
7808.99924 9.81956e-18
7810.00122 9.73229e-18
7811.00320 9.70257e-18
7811.99506 9.78419e-18
7812.99704 9.83966e-18
7813.99902 9.96165e-18
7815.00100 9.78864e-18
7816.00298 9.62897e-18
7817.00496 9.66464e-18
7817.99681 9.82922e-18
7818.99879 9.93099e-18
7820.00077 9.69373e-18
7821.00275 9.74385e-18
7822.00473 9.93697e-18
7822.99659 1.00085e-17
7823.99857 1.00037e-17
7825.00054 1.01081e-17
7826.00252 9.95792e-18
7827.00450 9.87923e-18
7827.99636 1.00042e-17
7828.99834 1.01230e-17
7830.00032 1.00400e-17
7831.00230 9.85820e-18
7832.00428 9.95324e-18
7832.99614 1.01627e-17
7833.99811 1.02134e-17
7835.00009 1.01877e-17
7836.00207 1.00981e-17
7837.00405 9.96694e-18
7837.99591 9.86262e-18
7838.99789 9.74346e-18
7839.99987 1.00992e-17
7841.00185 1.00466e-17
7842.00382 9.80181e-18
7842.99568 9.80648e-18
7843.99766 1.00814e-17
7844.99964 1.01238e-17
7846.00162 1.02378e-17
7847.00360 1.02194e-17
7847.99546 1.01363e-17
7848.99744 1.01043e-17
7849.99941 1.01416e-17
7851.00139 1.01484e-17
7852.00337 1.00997e-17
7852.99523 1.00596e-17
7853.99721 1.01652e-17
7854.99919 1.01655e-17
7856.00117 1.00170e-17
7857.00315 9.94307e-18
7858.00513 9.96274e-18
7858.99698 1.01095e-17
7859.99896 9.97097e-18
7861.00094 9.91211e-18
7862.00292 1.00108e-17
7863.00490 1.00979e-17
7863.99676 1.01334e-17
7864.99874 1.01647e-17
7866.00072 1.02716e-17
7867.00270 1.02011e-17
7868.00467 1.02117e-17
7868.99653 1.03016e-17
7869.99851 1.01589e-17
7871.00049 1.01896e-17
7872.00247 1.02858e-17
7873.00445 1.01373e-17
7873.99631 1.01245e-17
7874.99829 1.02363e-17
7876.00026 1.02068e-17
7877.00224 1.01583e-17
7878.00422 1.02384e-17
7878.99608 1.02135e-17
7879.99806 1.01896e-17
7881.00004 1.01864e-17
7882.00202 1.02132e-17
7883.00400 1.03041e-17
7883.99585 1.03110e-17
7884.99783 1.03122e-17
7885.99981 1.02519e-17
7887.00179 1.03323e-17
7888.00377 1.04677e-17
7888.99563 1.04268e-17
7889.99761 1.03940e-17
7890.99959 1.05956e-17
7892.00156 1.05089e-17
7893.00354 1.03735e-17
7893.99540 1.02928e-17
7894.99738 1.02595e-17
7895.99936 1.03199e-17
7897.00134 1.03109e-17
7898.00332 1.04064e-17
7898.99518 1.04343e-17
7899.99716 1.03661e-17
7900.99913 1.03376e-17
7902.00111 1.03978e-17
7903.00309 1.01452e-17
7904.00507 1.02554e-17
7904.99693 1.03944e-17
7905.99891 1.03961e-17
7907.00089 1.04000e-17
7908.00287 1.05512e-17
7909.00484 1.06707e-17
7909.99670 1.05924e-17
7910.99868 1.05958e-17
7912.00066 1.06273e-17
7913.00264 1.05340e-17
7914.00462 1.03785e-17
7914.99648 1.03799e-17
7915.99846 1.03199e-17
7917.00043 1.03877e-17
7918.00241 1.04238e-17
7919.00439 1.04187e-17
7919.99625 1.04637e-17
7920.99823 1.05523e-17
7922.00021 1.04463e-17
7923.00219 1.03754e-17
7924.00417 1.03437e-17
7924.99603 1.02825e-17
7925.99800 1.02297e-17
7926.99998 1.02500e-17
7928.00196 1.03334e-17
7929.00394 1.04293e-17
7929.99580 1.03761e-17
7930.99778 1.02929e-17
7931.99976 1.01942e-17
7933.00174 1.01256e-17
7934.00371 1.01301e-17
7934.99557 1.00903e-17
7935.99755 1.00676e-17
7936.99953 1.01476e-17
7938.00151 1.01433e-17
7939.00349 1.00882e-17
7939.99535 1.01034e-17
7940.99733 1.01446e-17
7941.99931 1.01644e-17
7943.00128 1.02339e-17
7944.00326 1.01337e-17
7945.00524 1.00273e-17
7945.99710 9.99744e-18
7946.99908 9.93678e-18
7948.00106 1.00538e-17
7949.00304 1.00855e-17
7950.00502 9.97030e-18
7950.99687 9.89147e-18
7951.99885 9.82585e-18
7953.00083 9.74828e-18
7954.00281 9.93517e-18
7955.00479 9.86131e-18
7955.99665 9.78401e-18
7956.99863 9.72972e-18
7958.00061 9.76797e-18
7959.00259 9.86145e-18
7960.00456 9.84426e-18
7960.99642 9.70400e-18
7961.99840 9.64474e-18
7963.00038 9.68728e-18
7964.00236 9.54894e-18
7965.00434 9.35727e-18
7965.99620 9.42320e-18
7966.99817 9.47655e-18
7968.00015 9.55348e-18
7969.00213 9.57629e-18
7970.00411 9.45851e-18
7970.99597 9.31279e-18
7971.99795 9.28324e-18
7972.99993 9.36161e-18
7974.00191 9.52262e-18
7975.00389 9.38717e-18
7975.99574 9.25064e-18
7976.99772 9.27202e-18
7977.99970 9.32431e-18
7979.00168 9.25144e-18
7980.00366 9.36176e-18
7980.99552 9.47568e-18
7981.99750 9.34103e-18
7982.99948 9.21139e-18
7984.00146 9.19466e-18
7985.00343 9.17067e-18
7985.99529 9.03876e-18
7986.99727 9.09421e-18
7987.99925 9.10717e-18
7989.00123 8.94724e-18
7990.00321 8.76033e-18
7990.99507 8.71599e-18
7991.99705 8.80248e-18
7992.99902 8.88328e-18
7994.00100 8.90556e-18
7995.00298 8.90786e-18
7996.00496 8.83501e-18
7996.99682 8.76088e-18
7997.99880 8.75901e-18
7999.00078 8.67911e-18
8000.00276 8.75016e-18
8001.00474 8.78529e-18
8001.99659 8.70206e-18
8002.99857 8.54688e-18
8004.00055 8.46621e-18
8005.00253 8.57864e-18
8006.00451 8.76763e-18
8006.99637 8.70346e-18
8007.99835 8.65516e-18
8009.00032 8.62729e-18
8010.00230 8.66478e-18
8011.00428 8.77259e-18
8011.99614 8.57059e-18
8012.99812 8.35063e-18
8014.00010 8.39564e-18
8015.00208 8.38583e-18
8016.00406 8.32192e-18
8016.99591 8.40672e-18
8017.99789 8.60569e-18
8018.99987 8.50815e-18
8020.00185 8.30750e-18
8021.00383 8.41619e-18
8021.99569 8.47683e-18
8022.99767 8.36212e-18
8023.99965 8.39717e-18
8025.00163 8.31525e-18
8026.00360 8.22857e-18
8026.99546 8.26614e-18
8027.99744 8.29085e-18
8028.99942 8.35126e-18
8030.00140 8.49294e-18
8031.00338 8.44072e-18
8031.99524 8.33104e-18
8032.99722 8.28829e-18
8033.99919 8.31217e-18
8035.00117 8.26088e-18
8036.00315 8.20158e-18
8037.00513 8.37629e-18
8037.99699 8.42494e-18
8038.99897 8.38574e-18
8040.00095 8.27890e-18
8041.00293 8.28613e-18
8042.00491 8.39431e-18
8042.99676 8.40993e-18
8043.99874 8.26054e-18
8045.00072 8.20642e-18
8046.00270 8.24131e-18
8047.00468 8.37604e-18
8047.99654 8.41532e-18
8048.99852 8.30774e-18
8050.00050 8.32958e-18
8051.00248 8.49036e-18
8052.00445 8.42746e-18
8052.99631 8.41282e-18
8053.99829 8.48064e-18
8055.00027 8.46216e-18
8056.00225 8.29159e-18
8057.00423 8.36659e-18
8057.99609 8.53781e-18
8058.99806 8.42900e-18
8060.00004 8.28439e-18
8061.00202 8.27224e-18
8062.00400 8.34776e-18
8062.99586 8.40433e-18
8063.99784 8.32941e-18
8064.99982 8.32298e-18
8066.00180 8.32679e-18
8067.00378 8.35359e-18
8067.99563 8.42456e-18
8068.99761 8.48355e-18
8069.99959 8.35348e-18
8071.00157 8.49038e-18
8072.00355 8.56470e-18
8072.99541 8.39932e-18
8073.99739 8.21866e-18
8074.99937 8.32433e-18
8076.00134 8.56617e-18
8077.00332 8.53318e-18
8077.99518 8.44391e-18
8078.99716 8.42969e-18
8079.99914 8.45835e-18
8081.00112 8.48398e-18
8082.00310 8.52141e-18
8083.00508 8.36825e-18
8083.99694 8.28556e-18
8084.99891 8.31469e-18
8086.00089 8.37425e-18
8087.00287 8.42152e-18
8088.00485 8.45771e-18
8088.99671 8.39661e-18
8089.99869 8.25289e-18
8091.00067 8.38580e-18
8092.00265 8.50504e-18
8093.00462 8.55867e-18
8093.99648 8.57057e-18
8094.99846 8.38416e-18
8096.00044 8.42188e-18
8097.00242 8.52731e-18
8098.00440 8.44045e-18
8098.99626 8.35310e-18
8099.99824 8.30851e-18
8101.00022 8.15051e-18
8102.00219 8.28593e-18
8103.00417 8.41626e-18
8103.99603 8.31993e-18
8104.99801 8.34395e-18
8105.99999 8.46473e-18
8107.00197 8.42134e-18
8108.00395 8.30394e-18
8108.99581 8.40080e-18
8109.99778 8.32137e-18
8110.99976 8.22346e-18
8112.00174 8.22556e-18
8113.00372 8.35181e-18
8113.99558 8.50577e-18
8114.99756 8.30392e-18
8115.99954 8.26149e-18
8117.00152 8.35698e-18
8118.00349 8.45054e-18
8118.99535 8.41438e-18
8119.99733 8.30141e-18
8120.99931 8.38603e-18
8122.00129 8.39342e-18
8123.00327 8.45774e-18
8124.00525 8.38486e-18
8124.99711 8.28362e-18
8125.99909 8.33192e-18
8127.00106 8.43091e-18
8128.00304 8.23450e-18
8129.00502 8.15741e-18
8129.99688 8.25536e-18
8130.99886 8.27204e-18
8132.00084 8.22532e-18
8133.00282 8.32686e-18
8134.00480 8.24884e-18
8134.99665 8.18743e-18
8135.99863 8.21376e-18
8137.00061 8.20841e-18
8138.00259 8.19458e-18
8139.00457 8.24847e-18
8139.99643 8.30552e-18
8140.99841 8.33674e-18
8142.00039 8.31634e-18
8143.00236 8.31177e-18
8144.00434 8.31045e-18
8144.99620 8.27711e-18
8145.99818 8.22224e-18
8147.00016 8.21404e-18
8148.00214 8.23551e-18
8149.00412 8.13202e-18
8149.99598 8.14278e-18
8150.99795 8.26845e-18
8151.99993 8.33122e-18
8153.00191 8.39553e-18
8154.00389 8.48627e-18
8154.99575 8.27121e-18
8155.99773 8.15253e-18
8156.99971 8.21393e-18
8158.00169 8.31066e-18
8159.00367 8.35335e-18
8159.99552 8.29582e-18
8160.99750 8.33838e-18
8161.99948 8.49576e-18
8163.00146 8.51688e-18
8164.00344 8.43035e-18
8164.99530 8.49155e-18
8165.99728 8.62855e-18
8166.99926 8.49484e-18
8168.00124 8.46728e-18
8169.00321 8.45366e-18
8170.00519 8.42077e-18
8170.99705 8.43312e-18
8171.99903 8.50916e-18
8173.00101 8.45295e-18
8174.00299 8.49803e-18
8175.00497 8.46702e-18
8175.99683 8.36825e-18
8176.99880 8.36587e-18
8178.00078 8.55940e-18
8179.00276 8.71723e-18
8180.00474 8.67968e-18
8180.99660 8.63184e-18
8181.99858 8.57851e-18
8183.00056 8.51851e-18
8184.00254 8.46440e-18
8185.00451 8.40673e-18
8185.99637 8.43153e-18
8186.99835 8.49539e-18
8188.00033 8.62957e-18
8189.00231 8.58451e-18
8190.00429 8.38898e-18
8190.99615 8.44350e-18
8191.99813 8.57953e-18
8193.00011 8.60699e-18
8194.00208 8.60234e-18
8195.00406 8.47836e-18
8195.99592 8.41655e-18
8196.99790 8.59198e-18
8197.99988 8.60940e-18
8199.00186 8.64338e-18
8200.00384 8.65154e-18
8200.99569 8.66886e-18
8201.99767 8.65384e-18
8202.99965 8.61808e-18
8204.00163 8.68079e-18
8205.00361 8.76121e-18
8205.99547 8.63256e-18
8206.99745 8.51821e-18
8207.99943 8.54311e-18
8209.00141 8.59637e-18
8210.00338 8.52016e-18
8210.99524 8.49879e-18
8211.99722 8.59832e-18
8212.99920 8.67180e-18
8214.00118 8.79788e-18
8215.00316 8.84123e-18
8215.99502 8.72419e-18
8216.99700 8.73327e-18
8217.99898 8.87134e-18
8219.00095 8.87532e-18
8220.00293 8.75724e-18
8221.00491 8.72424e-18
8221.99677 8.81999e-18
8222.99875 8.84348e-18
8224.00073 8.72404e-18
8225.00271 8.74039e-18
8226.00469 8.85482e-18
8226.99654 8.98883e-18
8227.99852 9.08962e-18
8229.00050 9.13573e-18
8230.00248 9.10227e-18
8231.00446 9.03586e-18
8231.99632 9.08173e-18
8232.99830 9.11503e-18
8234.00028 9.09877e-18
8235.00225 9.05250e-18
8236.00423 8.98105e-18
8236.99609 8.93617e-18
8237.99807 8.96653e-18
8239.00005 8.95402e-18
8240.00203 8.95404e-18
8241.00401 9.00268e-18
8241.99587 9.03741e-18
8242.99784 8.97515e-18
8243.99982 8.89057e-18
8245.00180 9.10857e-18
8246.00378 9.29888e-18
8246.99564 9.25816e-18
8247.99762 9.14354e-18
8248.99960 9.25103e-18
8250.00158 9.19464e-18
8251.00356 9.16325e-18
8251.99541 9.12226e-18
8252.99739 9.13459e-18
8253.99937 9.21964e-18
8255.00135 9.30007e-18
8256.00333 9.31351e-18
8256.99519 9.32005e-18
8257.99717 9.36749e-18
8258.99915 9.31441e-18
8260.00113 9.20561e-18
8261.00310 9.19075e-18
8262.00508 9.26611e-18
8262.99694 9.40876e-18
8263.99892 9.50296e-18
8265.00090 9.38556e-18
8266.00288 9.26886e-18
8267.00486 9.35525e-18
8267.99671 9.51313e-18
8268.99869 9.37115e-18
8270.00067 9.60789e-18
8271.00265 9.53864e-18
8272.00463 9.48523e-18
8272.99649 9.59263e-18
8273.99847 9.64570e-18
8275.00045 9.65988e-18
8276.00243 9.45734e-18
8277.00440 9.51901e-18
8277.99626 9.67381e-18
8278.99824 9.66745e-18
8280.00022 9.50983e-18
8281.00220 9.49464e-18
8282.00418 9.66918e-18
8282.99604 9.67803e-18
8283.99802 9.75774e-18
8285.00000 9.89987e-18
8286.00197 9.90610e-18
8287.00395 9.76616e-18
8287.99581 1.00898e-17
8288.99779 9.88779e-18
8289.99977 9.90650e-18
8291.00175 9.84744e-18
8292.00373 9.72511e-18
8292.99559 9.78468e-18
8293.99756 9.94518e-18
8294.99954 9.79192e-18
8296.00152 9.86162e-18
8297.00350 9.92487e-18
8297.99536 9.93505e-18
8298.99734 9.86071e-18
8299.99932 9.66598e-18
8301.00130 9.69302e-18
8302.00327 9.71050e-18
8303.00525 9.72250e-18
8303.99711 9.82741e-18
8304.99909 9.99326e-18
8306.00107 1.00764e-17
8307.00305 1.00112e-17
8307.99491 1.00487e-17
8308.99689 9.96002e-18
8309.99886 9.92045e-18
8311.00084 1.00465e-17
8312.00282 1.01985e-17
8313.00480 1.01171e-17
8313.99666 1.00227e-17
8314.99864 1.00045e-17
8316.00062 1.00349e-17
8317.00260 1.00786e-17
8318.00458 1.00400e-17
8318.99643 9.90727e-18
8319.99841 9.95387e-18
8321.00039 1.00993e-17
8322.00237 1.02161e-17
8323.00435 1.02835e-17
8323.99621 1.01814e-17
8324.99819 1.00323e-17
8326.00017 1.02723e-17
8327.00215 1.04223e-17
8328.00412 1.03521e-17
8328.99598 1.03830e-17
8329.99796 1.03565e-17
8330.99994 1.02645e-17
8332.00192 1.03284e-17
8333.00390 1.02404e-17
8333.99576 1.03414e-17
8334.99774 1.05237e-17
8335.99971 1.05369e-17
8337.00169 1.05119e-17
8338.00367 1.06449e-17
8338.99553 1.06872e-17
8339.99751 1.05553e-17
8340.99949 1.05983e-17
8342.00147 1.05692e-17
8343.00345 1.05475e-17
8344.00542 1.05743e-17
8344.99728 1.05011e-17
8345.99926 1.06191e-17
8347.00124 1.07392e-17
8348.00322 1.07085e-17
8348.99508 1.05851e-17
8349.99706 1.05984e-17
8350.99904 1.07977e-17
8352.00101 1.07541e-17
8353.00299 1.08440e-17
8353.99485 1.06564e-17
8354.99683 1.06755e-17
8355.99881 1.08817e-17
8357.00079 1.10028e-17
8358.00277 1.10056e-17
8359.00475 1.08203e-17
8359.99660 1.08181e-17
8360.99858 1.09924e-17
8362.00056 1.09812e-17
8363.00254 1.08919e-17
8364.00452 1.11081e-17
8364.99638 1.11738e-17
8365.99836 1.10105e-17
8367.00034 1.09825e-17
8368.00232 1.10971e-17
8369.00430 1.12221e-17
8369.99615 1.12349e-17
8370.99813 1.11351e-17
8372.00011 1.11837e-17
8373.00209 1.12082e-17
8374.00407 1.12766e-17
8374.99593 1.12861e-17
8375.99791 1.12385e-17
8376.99989 1.12828e-17
8378.00186 1.13255e-17
8379.00384 1.12279e-17
8379.99570 1.12772e-17
8380.99768 1.12569e-17
8381.99966 1.11937e-17
8383.00164 1.13241e-17
8384.00362 1.16130e-17
8384.99547 1.15797e-17
8385.99745 1.14842e-17
8386.99943 1.14285e-17
8388.00141 1.14615e-17
8389.00339 1.15711e-17
8390.00537 1.16658e-17
8390.99723 1.15019e-17
8391.99921 1.14073e-17
8393.00119 1.14174e-17
8394.00317 1.15323e-17
8394.99502 1.16977e-17
8395.99700 1.17836e-17
8396.99898 1.15944e-17
8398.00096 1.14267e-17
8399.00294 1.15088e-17
8400.00492 1.16924e-17
8400.99678 1.17837e-17
8401.99875 1.17435e-17
8403.00073 1.16971e-17
8404.00271 1.16222e-17
8405.00469 1.14894e-17
8405.99655 1.15328e-17
8406.99853 1.17014e-17
8408.00051 1.17480e-17
8409.00249 1.15882e-17
8410.00447 1.17265e-17
8410.99632 1.17222e-17
8411.99830 1.17816e-17
8413.00028 1.17720e-17
8414.00226 1.16291e-17
8415.00424 1.15546e-17
8415.99610 1.18635e-17
8416.99808 1.17549e-17
8418.00006 1.18074e-17
8419.00203 1.17453e-17
8420.00401 1.16702e-17
8420.99587 1.17174e-17
8421.99785 1.17708e-17
8422.99983 1.17902e-17
8424.00181 1.16808e-17
8425.00379 1.19463e-17
8425.99565 1.20855e-17
8426.99762 1.20487e-17
8427.99960 1.21621e-17
8429.00158 1.20860e-17
8430.00356 1.19107e-17
8431.00554 1.20884e-17
8431.99740 1.21687e-17
8432.99938 1.19926e-17
8434.00136 1.18517e-17
8435.00334 1.20476e-17
8435.99519 1.18611e-17
8436.99717 1.19739e-17
8437.99915 1.22743e-17
8439.00113 1.23967e-17
8440.00311 1.22484e-17
8440.99497 1.20950e-17
8441.99695 1.21403e-17
8442.99893 1.22198e-17
8444.00090 1.22070e-17
8445.00288 1.21065e-17
8446.00486 1.21132e-17
8446.99672 1.22904e-17
8447.99870 1.23539e-17
8449.00068 1.23017e-17
8450.00266 1.23541e-17
8451.00464 1.22654e-17
8451.99650 1.22523e-17
8452.99847 1.23699e-17
8454.00045 1.23546e-17
8455.00243 1.24276e-17
8456.00441 1.24497e-17
8456.99627 1.25069e-17
8457.99825 1.24930e-17
8459.00023 1.24337e-17
8460.00221 1.24464e-17
8461.00418 1.25134e-17
8461.99604 1.25127e-17
8462.99802 1.23932e-17
8464.00000 1.24178e-17
8465.00198 1.25236e-17
8466.00396 1.25803e-17
8466.99582 1.26072e-17
8467.99780 1.23836e-17
8468.99978 1.23824e-17
8470.00175 1.24989e-17
8471.00373 1.26156e-17
8471.99559 1.26761e-17
8472.99757 1.26609e-17
8473.99955 1.25095e-17
8475.00153 1.27301e-17
8476.00351 1.28325e-17
8476.99536 1.27599e-17
8477.99734 1.26466e-17
8478.99932 1.25773e-17
8480.00130 1.25003e-17
8481.00328 1.26856e-17
8481.99514 1.27211e-17
8482.99712 1.26288e-17
8483.99910 1.26625e-17
8485.00108 1.28376e-17
8486.00305 1.28839e-17
8487.00503 1.27305e-17
8487.99689 1.29091e-17
8488.99887 1.30424e-17
8490.00085 1.29885e-17
8491.00283 1.28831e-17
8492.00481 1.29101e-17
8492.99667 1.30175e-17
8493.99865 1.30250e-17
8495.00062 1.28358e-17
8496.00260 1.29350e-17
8497.00458 1.30209e-17
8497.99644 1.28711e-17
8498.99842 1.28473e-17
8500.00040 1.30320e-17
8501.00238 1.29650e-17
8502.00436 1.29198e-17
8502.99621 1.29228e-17
8503.99819 1.30022e-17
8505.00017 1.30990e-17
8506.00215 1.28969e-17
8507.00413 1.31116e-17
8507.99599 1.31309e-17
8508.99797 1.28910e-17
8509.99995 1.27818e-17
8511.00193 1.29842e-17
8512.00390 1.31062e-17
8512.99576 1.29297e-17
8513.99774 1.29111e-17
8514.99972 1.29835e-17
8516.00170 1.31742e-17
8517.00368 1.32967e-17
8518.00566 1.31914e-17
8518.99751 1.33668e-17
8519.99949 1.34597e-17
8521.00147 1.33637e-17
8522.00345 1.32952e-17
8522.99531 1.33511e-17
8523.99729 1.33739e-17
8524.99927 1.31433e-17
8526.00125 1.31156e-17
8527.00323 1.32549e-17
8527.99508 1.33033e-17
8528.99706 1.32780e-17
8529.99904 1.32885e-17
8531.00102 1.33528e-17
8532.00300 1.34362e-17
8533.00498 1.33597e-17
8533.99684 1.33215e-17
8534.99882 1.32701e-17
8536.00079 1.33435e-17
8537.00277 1.36045e-17
8538.00475 1.36278e-17
8538.99661 1.35294e-17
8539.99859 1.35796e-17
8541.00057 1.35365e-17
8542.00255 1.34018e-17
8543.00453 1.33956e-17
8543.99639 1.36246e-17
8544.99836 1.36000e-17
8546.00034 1.34630e-17
8547.00232 1.34503e-17
8548.00430 1.35106e-17
8548.99616 1.36012e-17
8549.99814 1.36861e-17
8551.00012 1.35169e-17
8552.00210 1.35304e-17
8553.00408 1.37016e-17
8553.99593 1.37349e-17
8554.99791 1.36428e-17
8555.99989 1.35888e-17
8557.00187 1.35647e-17
8558.00385 1.34625e-17
8558.99571 1.35236e-17
8559.99769 1.37454e-17
8560.99966 1.37873e-17
8562.00164 1.36417e-17
8563.00362 1.36521e-17
8563.99548 1.37131e-17
8564.99746 1.37847e-17
8565.99944 1.38775e-17
8567.00142 1.37510e-17
8568.00340 1.35782e-17
8568.99525 1.36078e-17
8569.99723 1.36099e-17
8570.99921 1.36801e-17
8572.00119 1.37750e-17
8573.00317 1.38680e-17
8574.00515 1.38273e-17
8574.99701 1.37006e-17
8575.99899 1.37198e-17
8577.00097 1.37644e-17
8578.00295 1.39038e-17
8579.00492 1.38479e-17
8579.99678 1.37155e-17
8580.99876 1.36604e-17
8582.00074 1.36809e-17
8583.00272 1.36695e-17
8584.00470 1.37002e-17
8584.99656 1.38075e-17
8585.99854 1.39861e-17
8587.00051 1.40239e-17
8588.00249 1.38351e-17
8589.00447 1.36765e-17
8589.99633 1.38121e-17
8590.99831 1.39098e-17
8592.00029 1.37677e-17
8593.00227 1.36140e-17
8594.00425 1.36278e-17
8594.99610 1.36877e-17
8595.99808 1.35364e-17
8597.00006 1.34800e-17
8598.00204 1.37587e-17
8599.00402 1.37690e-17
8599.99588 1.35646e-17
8600.99786 1.35602e-17
8601.99984 1.37141e-17
8603.00181 1.38644e-17
8604.00379 1.37933e-17
8604.99565 1.36943e-17
8605.99763 1.36300e-17
8606.99961 1.36191e-17
8608.00159 1.36842e-17
8609.00357 1.37262e-17
8609.99543 1.37043e-17
8610.99741 1.35862e-17
8611.99938 1.36346e-17
8613.00136 1.37640e-17
8614.00334 1.37362e-17
8614.99520 1.36975e-17
8615.99718 1.36974e-17
8616.99916 1.36817e-17
8618.00114 1.37571e-17
8619.00312 1.37321e-17
8620.00510 1.35889e-17
8620.99695 1.36454e-17
8621.99893 1.37097e-17
8623.00091 1.36935e-17
8624.00289 1.36400e-17
8625.00487 1.37096e-17
8625.99673 1.37517e-17
8626.99871 1.35872e-17
8628.00069 1.36723e-17
8629.00266 1.36788e-17
8630.00464 1.36333e-17
8630.99650 1.36550e-17
8631.99848 1.36838e-17
8633.00046 1.36793e-17
8634.00244 1.37667e-17
8635.00442 1.37035e-17
8635.99627 1.35787e-17
8636.99825 1.34966e-17
8638.00023 1.35703e-17
8639.00221 1.36912e-17
8640.00419 1.36445e-17
8640.99605 1.35613e-17
8641.99803 1.35728e-17
8643.00001 1.35466e-17
8644.00199 1.35993e-17
8645.00396 1.36347e-17
8645.99582 1.35835e-17
8646.99780 1.37132e-17
8647.99978 1.36434e-17
8649.00176 1.36029e-17
8650.00374 1.36949e-17
8650.99560 1.37466e-17
8651.99758 1.37039e-17
8652.99955 1.37341e-17
8654.00153 1.36609e-17
8655.00351 1.35984e-17
8655.99537 1.34791e-17
8656.99735 1.34431e-17
8657.99933 1.35118e-17
8659.00131 1.35493e-17
8660.00329 1.34623e-17
8661.00527 1.34624e-17
8661.99712 1.33299e-17
8662.99910 1.33575e-17
8664.00108 1.35732e-17
8665.00306 1.37154e-17
8666.00504 1.35665e-17
8666.99690 1.35162e-17
8667.99888 1.34367e-17
8669.00086 1.35682e-17
8670.00284 1.37112e-17
8670.99469 1.36875e-17
8671.99667 1.35571e-17
8672.99865 1.34312e-17
8674.00063 1.36342e-17
8675.00261 1.36238e-17
8676.00459 1.35802e-17
8676.99645 1.36295e-17
8677.99842 1.37079e-17
8679.00040 1.37333e-17
8680.00238 1.38371e-17
8681.00436 1.37344e-17
8681.99622 1.35757e-17
8682.99820 1.34923e-17
8684.00018 1.34959e-17
8685.00216 1.35258e-17
8686.00414 1.36252e-17
8686.99599 1.36231e-17
8687.99797 1.35582e-17
8688.99995 1.35538e-17
8690.00193 1.35831e-17
8691.00391 1.35515e-17
8691.99577 1.35109e-17
8692.99775 1.34932e-17
8693.99973 1.34273e-17
8695.00170 1.34280e-17
8696.00368 1.34397e-17
8696.99554 1.34698e-17
8697.99752 1.36492e-17
8698.99950 1.37007e-17
8700.00148 1.35532e-17
8701.00346 1.34784e-17
8701.99532 1.35027e-17
8702.99730 1.35279e-17
8703.99927 1.35224e-17
8705.00125 1.36391e-17
8706.00323 1.36769e-17
8707.00521 1.37468e-17
8707.99707 1.37681e-17
8708.99905 1.37020e-17
8710.00103 1.36136e-17
8711.00301 1.36021e-17
8712.00498 1.35488e-17
8712.99684 1.36145e-17
8713.99882 1.36422e-17
8715.00080 1.35495e-17
8716.00278 1.34641e-17
8717.00476 1.35525e-17
8717.99662 1.36227e-17
8718.99860 1.34329e-17
8720.00058 1.34036e-17
8721.00255 1.34886e-17
8722.00453 1.34376e-17
8722.99639 1.32181e-17
8723.99837 1.31926e-17
8725.00035 1.30588e-17
8726.00233 1.30467e-17
8727.00431 1.29916e-17
8727.99617 1.28969e-17
8728.99814 1.29549e-17
8730.00012 1.32324e-17
8731.00210 1.30206e-17
8732.00408 1.32693e-17
8732.99594 1.34019e-17
8733.99792 1.33963e-17
8734.99990 1.33501e-17
8736.00188 1.32766e-17
8737.00385 1.31511e-17
8737.99571 1.33689e-17
8738.99769 1.32114e-17
8739.99967 1.30965e-17
8741.00165 1.31189e-17
8742.00363 1.31549e-17
8742.99549 1.32127e-17
8743.99747 1.32696e-17
8744.99945 1.31305e-17
8746.00142 1.31729e-17
8747.00340 1.31003e-17
8748.00538 1.29110e-17
8748.99724 1.29290e-17
8749.99922 1.28622e-17
8751.00120 1.29208e-17
8752.00318 1.31291e-17
8753.00516 1.31843e-17
8753.99701 1.30602e-17
8754.99899 1.29170e-17
8756.00097 1.28233e-17
8757.00295 1.30855e-17
8757.99481 1.31793e-17
8758.99679 1.31069e-17
8759.99877 1.29054e-17
8761.00075 1.28052e-17
8762.00273 1.30140e-17
8763.00470 1.30280e-17
8763.99656 1.30967e-17
8764.99854 1.31381e-17
8766.00052 1.30614e-17
8767.00250 1.30484e-17
8768.00448 1.32117e-17
8768.99634 1.31812e-17
8769.99831 1.32892e-17
8771.00029 1.30731e-17
8772.00227 1.30470e-17
8773.00425 1.31568e-17
8773.99611 1.31485e-17
8774.99809 1.30502e-17
8776.00007 1.28973e-17
8777.00205 1.30923e-17
8778.00403 1.31366e-17
8778.99588 1.29221e-17
8779.99786 1.27102e-17
8780.99984 1.27565e-17
8782.00182 1.28730e-17
8783.00380 1.30174e-17
8783.99566 1.29610e-17
8784.99764 1.28570e-17
8785.99962 1.28672e-17
8787.00160 1.29607e-17
8788.00357 1.29479e-17
8788.99543 1.29057e-17
8789.99741 1.29131e-17
8790.99939 1.27907e-17
8792.00137 1.27446e-17
8793.00335 1.28561e-17
8794.00533 1.29390e-17
8794.99719 1.29715e-17
8795.99916 1.30664e-17
8797.00114 1.30090e-17
8798.00312 1.29484e-17
8798.99498 1.29520e-17
8799.99696 1.29412e-17
8800.99894 1.28601e-17
8802.00092 1.29447e-17
8803.00290 1.31597e-17
8804.00488 1.32311e-17
8804.99673 1.32151e-17
8805.99871 1.32045e-17
8807.00069 1.31271e-17
8808.00267 1.30045e-17
8809.00465 1.29284e-17
8809.99651 1.30106e-17
8810.99849 1.30465e-17
8812.00046 1.29105e-17
8813.00244 1.27650e-17
8814.00442 1.29430e-17
8814.99628 1.28451e-17
8815.99826 1.27658e-17
8817.00024 1.28079e-17
8818.00222 1.29077e-17
8819.00420 1.29776e-17
8819.99605 1.30330e-17
8820.99803 1.31448e-17
8822.00001 1.30705e-17
8823.00199 1.29926e-17
8824.00397 1.29207e-17
8824.99583 1.29067e-17
8825.99781 1.30329e-17
8826.99979 1.31729e-17
8828.00177 1.29305e-17
8829.00374 1.26051e-17
8829.99560 1.26587e-17
8830.99758 1.27869e-17
8831.99956 1.27086e-17
8833.00154 1.29406e-17
8834.00352 1.29131e-17
8835.00550 1.28074e-17
8835.99736 1.29012e-17
8836.99934 1.29681e-17
8838.00131 1.29460e-17
8839.00329 1.30310e-17
8840.00527 1.27482e-17
8840.99713 1.25977e-17
8841.99911 1.26880e-17
8843.00109 1.28277e-17
8844.00307 1.28237e-17
8844.99493 1.27305e-17
8845.99690 1.28407e-17
8846.99888 1.28000e-17
8848.00086 1.28392e-17
8849.00284 1.29297e-17
8850.00482 1.29031e-17
8850.99668 1.27608e-17
8851.99866 1.27391e-17
8853.00064 1.28521e-17
8854.00261 1.27956e-17
8855.00459 1.28800e-17
8855.99645 1.29855e-17
8856.99843 1.29825e-17
8858.00041 1.29591e-17
8859.00239 1.31256e-17
8860.00437 1.28921e-17
8860.99623 1.28916e-17
8861.99820 1.29263e-17
8863.00018 1.28627e-17
8864.00216 1.27808e-17
8865.00414 1.27936e-17
8865.99600 1.26733e-17
8866.99798 1.25448e-17
8867.99996 1.25057e-17
8869.00194 1.26014e-17
8870.00392 1.27436e-17
8870.99577 1.27767e-17
8871.99775 1.26659e-17
8872.99973 1.26990e-17
8874.00171 1.26455e-17
8875.00369 1.25784e-17
8875.99555 1.25854e-17
8876.99753 1.26250e-17
8877.99951 1.25520e-17
8879.00149 1.24645e-17
8880.00346 1.23328e-17
8881.00544 1.23112e-17
8881.99730 1.23842e-17
8882.99928 1.24403e-17
8884.00126 1.24147e-17
8885.00324 1.23605e-17
8885.99510 1.23072e-17
8886.99707 1.23354e-17
8887.99905 1.24151e-17
8889.00103 1.24517e-17
8890.00301 1.23882e-17
8891.00499 1.22946e-17
8891.99685 1.24215e-17
8892.99883 1.23872e-17
8894.00081 1.23937e-17
8895.00279 1.24509e-17
8896.00476 1.24855e-17
8896.99662 1.25302e-17
8897.99860 1.24933e-17
8899.00058 1.24812e-17
8900.00256 1.25490e-17
8901.00454 1.25951e-17
8901.99640 1.25391e-17
8902.99838 1.24514e-17
8904.00036 1.25373e-17
8905.00233 1.24964e-17
8906.00431 1.25088e-17
8906.99617 1.24037e-17
8907.99815 1.22842e-17
8909.00013 1.23251e-17
8910.00211 1.24245e-17
8911.00409 1.25535e-17
8911.99595 1.25111e-17
8912.99792 1.25912e-17
8913.99990 1.26432e-17
8915.00188 1.25251e-17
8916.00386 1.23959e-17
8916.99572 1.24741e-17
8917.99770 1.25170e-17
8918.99968 1.22966e-17
8920.00166 1.23016e-17
8921.00364 1.24289e-17
8921.99549 1.23694e-17
8922.99747 1.25647e-17
8923.99945 1.24435e-17
8925.00143 1.24950e-17
8926.00341 1.25278e-17
8926.99527 1.24469e-17
8927.99725 1.23589e-17
8928.99922 1.24021e-17
8930.00120 1.23621e-17
8931.00318 1.24311e-17
8931.99504 1.22983e-17
8932.99702 1.23204e-17
8933.99900 1.24559e-17
8935.00098 1.23842e-17
8936.00296 1.24686e-17
8937.00494 1.24073e-17
8937.99679 1.22317e-17
8938.99877 1.21492e-17
8940.00075 1.22216e-17
8941.00273 1.23499e-17
8942.00471 1.24136e-17
8942.99657 1.24457e-17
8943.99855 1.22923e-17
8945.00053 1.22489e-17
8946.00250 1.21937e-17
8947.00448 1.20601e-17
8947.99634 1.20317e-17
8948.99832 1.22313e-17
8950.00030 1.23312e-17
8951.00228 1.22528e-17
8952.00426 1.21672e-17
8952.99612 1.22063e-17
8953.99810 1.22353e-17
8955.00007 1.19595e-17
8956.00205 1.22426e-17
8957.00403 1.24172e-17
8957.99589 1.24848e-17
8958.99787 1.24861e-17
8959.99985 1.23455e-17
8961.00183 1.20209e-17
8962.00381 1.20137e-17
8962.99566 1.21397e-17
8963.99764 1.22410e-17
8964.99962 1.23835e-17
8966.00160 1.25236e-17
8967.00358 1.25137e-17
8968.00556 1.23491e-17
8968.99742 1.23602e-17
8969.99940 1.22689e-17
8971.00137 1.21080e-17
8972.00335 1.20582e-17
8972.99521 1.21886e-17
8973.99719 1.23441e-17
8974.99917 1.24500e-17
8976.00115 1.23319e-17
8977.00313 1.22591e-17
8978.00511 1.23144e-17
8978.99697 1.23399e-17
8979.99894 1.22047e-17
8981.00092 1.21946e-17
8982.00290 1.23819e-17
8983.00488 1.24665e-17
8983.99674 1.22295e-17
8984.99872 1.18734e-17
8986.00070 1.17489e-17
8987.00268 1.19225e-17
8988.00465 1.21578e-17
8988.99651 1.22772e-17
8989.99849 1.22713e-17
8991.00047 1.22989e-17
8992.00245 1.24631e-17
8993.00443 1.26777e-17
8993.99629 1.27555e-17
8994.99827 1.25557e-17
8996.00025 1.24454e-17
8997.00222 1.23221e-17
8998.00420 1.21816e-17
8998.99606 1.20921e-17
8999.99804 1.19458e-17
9001.00002 1.21189e-17
9002.00200 1.23648e-17
9003.00398 1.25080e-17
9003.99583 1.25277e-17
9004.99781 1.25274e-17
9005.99979 1.26040e-17
9007.00177 1.26784e-17
9008.00375 1.26275e-17
9008.99561 1.25156e-17
9009.99759 1.25244e-17
9010.99957 1.25841e-17
9012.00155 1.25794e-17
9013.00353 1.28503e-17
9013.99538 1.29457e-17
9014.99736 1.25040e-17
9015.99934 1.23331e-17
9017.00132 1.24534e-17
9018.00330 1.25188e-17
9018.99516 1.26155e-17
9019.99714 1.26096e-17
9020.99912 1.22941e-17
9022.00109 1.21865e-17
9023.00307 1.22371e-17
9024.00505 1.22220e-17
9024.99691 1.21213e-17
9025.99889 1.21500e-17
9027.00087 1.22914e-17
9028.00285 1.23533e-17
9029.00483 1.21961e-17
9029.99668 1.20382e-17
9030.99866 1.21276e-17
9032.00064 1.23048e-17
9033.00262 1.23317e-17
9034.00460 1.22311e-17
9034.99646 1.21232e-17
9035.99844 1.21277e-17
9037.00042 1.21350e-17
9038.00240 1.19465e-17
9039.00437 1.19430e-17
9039.99623 1.19501e-17
9040.99821 1.20315e-17
9042.00019 1.20317e-17
9043.00217 1.19601e-17
9044.00415 1.19339e-17
9044.99601 1.18856e-17
9045.99798 1.19356e-17
9046.99996 1.20476e-17
9048.00194 1.19898e-17
9049.00392 1.18728e-17
9049.99578 1.18702e-17
9050.99776 1.19051e-17
9051.99974 1.18233e-17
9053.00172 1.19367e-17
9054.00370 1.20191e-17
9054.99555 1.20499e-17
9055.99753 1.21089e-17
9056.99951 1.21760e-17
9058.00149 1.19886e-17
9059.00347 1.17471e-17
9059.99533 1.17345e-17
9060.99731 1.18540e-17
9061.99929 1.19218e-17
9063.00126 1.19148e-17
9064.00324 1.19934e-17
9064.99510 1.19024e-17
9065.99708 1.18786e-17
9066.99906 1.17879e-17
9068.00104 1.16547e-17
9069.00302 1.16055e-17
9070.00500 1.16822e-17
9070.99685 1.16507e-17
9071.99883 1.16444e-17
9073.00081 1.19271e-17
9074.00279 1.21126e-17
9075.00477 1.20562e-17
9075.99663 1.19575e-17
9076.99861 1.19397e-17
9078.00059 1.16623e-17
9079.00257 1.16367e-17
9080.00455 1.16761e-17
9080.99640 1.17060e-17
9081.99838 1.18021e-17
9083.00036 1.19739e-17
9084.00234 1.17978e-17
9085.00432 1.15068e-17
9085.99618 1.15888e-17
9086.99816 1.17948e-17
9088.00014 1.18589e-17
9089.00211 1.18293e-17
9090.00409 1.18741e-17
9090.99595 1.18723e-17
9091.99793 1.17753e-17
9092.99991 1.16902e-17
9094.00189 1.17617e-17
9095.00387 1.18813e-17
9095.99573 1.17045e-17
9096.99770 1.15637e-17
9097.99968 1.14015e-17
9099.00166 1.15551e-17
9100.00364 1.17349e-17
9100.99550 1.18612e-17
9101.99748 1.20806e-17
9102.99946 1.17574e-17
9104.00144 1.15475e-17
9105.00341 1.14023e-17
9105.99527 1.13524e-17
9106.99725 1.14999e-17
9107.99923 1.17761e-17
9109.00121 1.18313e-17
9110.00319 1.19153e-17
9111.00517 1.18674e-17
9111.99703 1.16640e-17
9112.99900 1.15962e-17
9114.00098 1.16323e-17
9115.00296 1.14361e-17
9116.00494 1.15963e-17
9116.99680 1.14509e-17
9117.99878 1.15152e-17
9119.00076 1.16852e-17
9120.00274 1.17841e-17
9121.00472 1.17949e-17
9121.99657 1.17876e-17
9122.99855 1.17296e-17
9124.00053 1.16019e-17
9125.00251 1.15791e-17
9126.00449 1.15729e-17
9126.99635 1.14428e-17
9127.99833 1.12620e-17
9129.00031 1.12494e-17
9130.00229 1.13494e-17
9131.00426 1.15098e-17
9131.99612 1.17898e-17
9132.99810 1.18938e-17
9134.00008 1.14962e-17
9135.00206 1.11142e-17
9136.00404 1.13626e-17
9136.99590 1.17022e-17
9137.99787 1.18689e-17
9138.99985 1.18470e-17
9140.00183 1.17357e-17
9141.00381 1.15939e-17
9141.99567 1.15223e-17
9142.99765 1.16540e-17
9143.99963 1.17516e-17
9145.00161 1.16992e-17
9146.00359 1.16035e-17
9146.99544 1.16263e-17
9147.99742 1.16200e-17
9148.99940 1.15592e-17
9150.00138 1.14722e-17
9151.00336 1.13719e-17
9151.99522 1.13619e-17
9152.99720 1.14707e-17
9153.99918 1.14834e-17
9155.00115 1.14396e-17
9156.00313 1.15291e-17
9157.00511 1.17180e-17
9157.99697 1.18956e-17
9158.99895 1.19064e-17
9160.00093 1.16962e-17
9161.00291 1.16701e-17
9162.00489 1.16467e-17
9162.99675 1.15570e-17
9163.99872 1.14992e-17
9165.00070 1.15067e-17
9166.00268 1.14931e-17
9167.00466 1.13863e-17
9167.99652 1.13828e-17
9168.99850 1.14507e-17
9170.00048 1.14425e-17
9171.00246 1.13648e-17
9172.00444 1.13175e-17
9172.99629 1.13469e-17
9173.99827 1.14329e-17
9175.00025 1.16310e-17
9176.00223 1.17902e-17
9177.00421 1.18507e-17
9177.99607 1.18014e-17
9178.99805 1.16897e-17
9180.00002 1.17038e-17
9181.00200 1.16477e-17
9182.00398 1.14556e-17
9182.99584 1.13915e-17
9183.99782 1.14603e-17
9184.99980 1.15271e-17
9186.00178 1.16351e-17
9187.00376 1.15003e-17
9187.99561 1.15852e-17
9188.99759 1.14584e-17
9189.99957 1.13195e-17
9191.00155 1.13217e-17
9192.00353 1.12347e-17
9192.99539 1.12463e-17
9193.99737 1.12968e-17
9194.99935 1.14462e-17
9196.00133 1.15845e-17
9197.00330 1.16147e-17
9198.00528 1.15845e-17
9198.99714 1.16654e-17
9199.99912 1.15325e-17
9201.00110 1.15241e-17
9202.00308 1.15363e-17
9203.00506 1.14272e-17
9203.99692 1.12662e-17
9204.99890 1.12817e-17
9206.00087 1.12561e-17
9207.00285 1.14984e-17
9208.00483 1.14345e-17
9208.99669 1.14055e-17
9209.99867 1.14971e-17
9211.00065 1.14049e-17
9212.00263 1.13840e-17
9213.00461 1.13060e-17
9213.99646 1.12480e-17
9214.99844 1.12338e-17
9216.00042 1.13640e-17
9217.00240 1.16185e-17
9218.00438 1.17318e-17
9218.99624 1.16233e-17
9219.99822 1.14658e-17
9221.00020 1.15488e-17
9222.00217 1.16196e-17
9223.00415 1.15579e-17
9223.99601 1.16672e-17
9224.99799 1.21869e-17
9225.99997 1.24049e-17
9227.00195 1.22766e-17
9228.00393 1.19728e-17
9228.99579 1.17600e-17
9229.99777 1.17682e-17
9230.99974 1.18364e-17
9232.00172 1.15511e-17
9233.00370 1.15012e-17
9233.99556 1.15403e-17
9234.99754 1.15193e-17
9235.99952 1.14351e-17
9237.00150 1.13823e-17
9238.00348 1.13553e-17
9238.99533 1.13911e-17
9239.99731 1.14790e-17
9240.99929 1.14941e-17
9242.00127 1.13653e-17
9243.00325 1.11816e-17
9244.00523 1.11613e-17
9244.99709 1.12631e-17
9245.99907 1.13010e-17
9247.00105 1.12224e-17
9248.00302 1.11525e-17
9248.99488 1.11879e-17
9249.99686 1.12334e-17
9250.99884 1.11573e-17
9252.00082 1.12728e-17
9253.00280 1.14108e-17
9254.00478 1.13627e-17
9254.99663 1.11867e-17
9255.99861 1.11282e-17
9257.00059 1.11753e-17
9258.00257 1.11903e-17
9259.00455 1.11578e-17
9259.99641 1.10924e-17
9260.99839 1.11138e-17
9262.00037 1.12513e-17
9263.00235 1.12919e-17
9264.00432 1.11823e-17
9264.99618 1.12724e-17
9265.99816 1.12212e-17
9267.00014 1.11599e-17
9268.00212 1.12153e-17
9269.00410 1.12248e-17
9269.99596 1.12191e-17
9270.99794 1.11784e-17
9271.99992 1.09454e-17
9273.00189 1.08193e-17
9274.00387 1.09541e-17
9274.99573 1.11500e-17
9275.99771 1.10713e-17
9276.99969 1.08533e-17
9278.00167 1.09694e-17
9279.00365 1.10293e-17
9279.99550 1.10495e-17
9280.99748 1.11592e-17
9281.99946 1.12026e-17
9283.00144 1.10891e-17
9284.00342 1.10142e-17
9285.00540 1.10646e-17
9285.99726 1.12003e-17
9286.99924 1.12506e-17
9288.00122 1.10983e-17
9289.00320 1.09237e-17
9289.99505 1.11128e-17
9290.99703 1.10729e-17
9291.99901 1.09791e-17
9293.00099 1.09579e-17
9294.00297 1.09924e-17
9295.00495 1.10540e-17
9295.99681 1.09410e-17
9296.99878 1.10034e-17
9298.00076 1.09337e-17
9299.00274 1.07957e-17
9300.00472 1.08050e-17
9300.99658 1.09965e-17
9301.99856 1.10653e-17
9303.00054 1.10535e-17
9304.00252 1.10191e-17
9305.00450 1.11989e-17
9305.99635 1.11789e-17
9306.99833 1.06932e-17
9308.00031 1.06396e-17
9309.00229 1.08243e-17
9310.00427 1.11603e-17
9310.99613 1.12744e-17
9311.99811 1.09774e-17
9313.00009 1.05104e-17
9314.00206 1.02840e-17
9315.00404 9.91201e-18
9315.99590 1.01735e-17
9316.99788 1.06507e-17
9317.99986 1.12864e-17
9319.00184 1.17239e-17
9320.00382 1.15585e-17
9320.99568 1.11176e-17
9321.99765 1.07766e-17
9322.99963 1.03306e-17
9324.00161 1.02914e-17
9325.00359 1.06498e-17
9325.99545 1.10683e-17
9326.99743 1.13631e-17
9327.99941 1.12912e-17
9329.00139 1.12657e-17
9330.00337 1.10171e-17
9331.00535 1.06571e-17
9331.99720 1.02702e-17
9332.99918 9.93347e-18
9334.00116 1.02537e-17
9335.00314 1.08292e-17
9335.99500 1.10218e-17
9336.99698 1.09376e-17
9337.99896 1.08797e-17
9339.00094 1.09424e-17
9340.00291 1.08721e-17
9341.00489 1.03548e-17
9341.99675 9.59382e-18
9342.99873 9.38578e-18
9344.00071 1.00737e-17
9345.00269 1.01950e-17
9346.00467 1.03163e-17
9346.99653 1.04375e-17
9347.99850 1.05588e-17
9349.00048 1.06801e-17
9350.00246 1.06800e-17
9351.00444 1.01479e-17
9351.99630 9.64592e-18
9352.99828 9.57280e-18
9354.00026 1.00263e-17
9355.00224 1.05490e-17
9356.00421 1.06753e-17
9356.99607 1.05731e-17
9357.99805 1.06623e-17
9359.00003 1.10607e-17
9360.00201 1.15027e-17
9361.00399 1.14895e-17
9361.99585 1.10231e-17
9362.99783 1.04027e-17
9363.99980 9.95198e-18
9365.00178 9.89663e-18
9366.00376 1.04321e-17
9366.99562 1.07940e-17
9367.99760 1.04672e-17
9368.99958 9.99247e-18
9370.00156 9.83397e-18
9371.00354 1.01420e-17
9372.00552 1.08762e-17
9372.99737 1.16928e-17
9373.99935 1.14070e-17
9375.00133 1.07680e-17
9376.00331 1.01999e-17
9376.99517 9.86121e-18
9377.99715 9.80427e-18
9378.99913 9.92336e-18
9380.00111 9.71690e-18
9381.00309 1.03991e-17
9381.99494 1.12094e-17
9382.99692 1.14057e-17
9383.99890 1.09522e-17
9385.00088 1.02433e-17
9386.00286 1.00394e-17
9387.00484 1.02327e-17
9387.99670 1.05598e-17
9388.99868 1.07732e-17
9390.00065 1.07001e-17
9391.00263 1.03442e-17
9392.00461 1.01364e-17
9392.99647 1.00799e-17
9393.99845 1.01134e-17
9395.00043 1.00876e-17
9396.00241 9.97790e-18
9397.00439 9.86107e-18
9397.99624 9.73058e-18
9398.99822 9.86725e-18
9400.00020 9.93986e-18
9401.00218 1.00250e-17
9402.00416 1.02460e-17
9402.99602 1.05251e-17
9403.99800 1.05845e-17
9404.99998 1.04206e-17
9406.00195 1.05018e-17
9407.00393 1.02981e-17
9407.99579 9.88790e-18
9408.99777 9.65959e-18
9409.99975 9.82032e-18
9411.00173 1.00881e-17
9412.00371 1.01650e-17
9412.99557 1.04085e-17
9413.99755 1.03293e-17
9414.99952 9.94440e-18
9416.00150 9.65291e-18
9417.00348 9.57859e-18
9417.99534 9.91490e-18
9418.99732 1.01403e-17
9419.99930 1.01229e-17
9421.00128 9.98985e-18
9422.00326 9.93113e-18
9422.99511 9.96291e-18
9423.99709 9.78863e-18
9424.99907 9.16815e-18
9426.00105 8.71245e-18
9427.00303 8.77222e-18
9428.00501 9.43728e-18
9428.99687 1.03931e-17
9429.99885 1.09091e-17
9431.00082 1.07720e-17
9432.00280 1.06690e-17
9433.00478 1.04385e-17
9433.99664 9.99855e-18
9434.99862 9.56058e-18
9436.00060 9.42131e-18
9437.00258 9.32295e-18
9438.00456 8.99089e-18
9438.99641 8.95682e-18
9439.99839 9.47879e-18
9441.00037 1.03110e-17
9442.00235 1.08639e-17
9443.00433 1.06667e-17
9443.99619 1.08360e-17
9444.99817 1.09831e-17
9446.00015 1.08873e-17
9447.00213 1.06067e-17
9448.00410 1.02460e-17
9448.99596 9.80211e-18
9449.99794 9.99634e-18
9450.99992 9.91735e-18
9452.00190 9.70992e-18
9453.00388 9.39291e-18
9453.99574 9.13095e-18
9454.99772 9.25140e-18
9455.99970 9.83238e-18
9457.00167 1.00950e-17
9458.00365 9.85744e-18
9459.00563 9.35596e-18
9459.99749 9.20602e-18
9460.99947 9.72664e-18
9462.00145 1.03714e-17
9463.00343 1.05830e-17
9463.99529 1.04286e-17
9464.99726 1.00831e-17
9465.99924 9.70553e-18
9467.00122 9.41574e-18
9468.00320 9.32697e-18
9468.99506 9.63924e-18
9469.99704 9.94308e-18
9470.99902 1.00902e-17
9472.00100 9.87165e-18
9473.00297 9.51620e-18
9474.00495 9.40084e-18
9474.99681 9.34994e-18
9475.99879 9.38553e-18
9477.00077 9.74784e-18
9478.00275 9.77221e-18
9479.00473 9.17488e-18
9479.99659 8.49397e-18
9480.99856 8.69705e-18
9482.00054 9.83154e-18
9483.00252 1.08180e-17
9484.00450 1.09654e-17
9484.99636 1.04736e-17
9485.99834 9.97920e-18
9487.00032 9.86819e-18
9488.00230 9.82350e-18
9489.00428 9.76288e-18
9489.99613 9.69036e-18
9490.99811 9.40839e-18
9492.00009 9.03005e-18
9493.00207 8.86707e-18
9494.00405 9.06362e-18
9494.99591 9.51284e-18
9495.99789 9.86418e-18
9496.99987 9.83684e-18
9498.00185 9.52193e-18
9499.00382 9.12727e-18
9499.99568 8.92150e-18
9500.99766 9.73579e-18
9501.99964 1.04616e-17
9503.00162 1.06695e-17
9504.00360 1.06429e-17
9504.99546 1.03880e-17
9505.99744 9.86075e-18
9506.99941 9.70814e-18
9508.00139 9.53545e-18
9509.00337 9.42880e-18
9509.99523 9.45420e-18
9510.99721 9.47401e-18
9511.99919 9.37647e-18
9513.00117 9.25384e-18
9514.00315 9.20630e-18
9515.00512 9.12873e-18
9515.99698 9.10609e-18
9516.99896 9.27760e-18
9518.00094 9.53606e-18
9519.00292 9.60020e-18
9520.00490 9.40105e-18
9520.99676 9.43197e-18
9521.99874 9.50158e-18
9523.00072 9.71201e-18
9524.00269 9.93110e-18
9525.00467 9.89820e-18
9525.99653 9.55425e-18
9526.99851 9.31192e-18
9528.00049 9.27166e-18
9529.00247 9.49334e-18
9530.00445 9.81136e-18
9530.99630 9.97279e-18
9531.99828 9.85999e-18
9533.00026 9.66044e-18
9534.00224 9.43350e-18
9535.00422 9.35496e-18
9535.99608 9.39745e-18
9536.99806 9.53943e-18
9538.00004 9.75553e-18
9539.00202 9.91537e-18
9540.00400 9.78527e-18
9540.99585 9.85792e-18
9541.99783 9.58497e-18
9542.99981 9.45933e-18
9544.00179 9.88362e-18
9545.00377 1.03683e-17
9545.99563 1.06283e-17
9546.99761 1.05791e-17
9547.99958 1.01647e-17
9549.00156 9.84780e-18
9550.00354 9.72492e-18
9550.99540 9.45494e-18
9551.99738 8.90234e-18
9552.99936 8.89828e-18
9554.00134 8.90061e-18
9555.00332 9.13287e-18
9555.99518 9.51309e-18
9556.99715 9.79709e-18
9557.99913 9.94023e-18
9559.00111 1.00026e-17
9560.00309 9.88334e-18
9561.00507 9.49576e-18
9561.99693 9.10522e-18
9562.99891 8.95954e-18
9564.00089 9.03346e-18
9565.00287 9.07953e-18
9566.00484 9.48889e-18
9566.99670 9.74393e-18
9567.99868 9.80303e-18
9569.00066 9.64334e-18
9570.00264 9.48031e-18
9571.00462 9.81693e-18
9571.99648 9.57320e-18
9572.99845 9.52895e-18
9574.00043 9.44780e-18
9575.00241 9.24515e-18
9576.00439 9.03542e-18
9576.99625 8.90909e-18
9577.99823 8.58290e-18
9579.00021 8.47894e-18
9580.00219 8.65047e-18
9581.00417 9.05199e-18
9581.99602 9.53837e-18
9582.99800 9.84999e-18
9583.99998 9.65460e-18
9585.00196 9.06916e-18
9586.00394 8.70418e-18
9586.99580 8.51590e-18
9587.99778 8.57834e-18
9588.99976 8.83920e-18
9590.00173 8.99620e-18
9591.00371 9.10697e-18
9591.99557 9.33839e-18
9592.99755 9.51086e-18
9593.99953 9.47745e-18
9595.00151 9.23798e-18
9596.00349 8.96130e-18
9596.99535 8.89578e-18
9597.99733 9.03505e-18
9598.99930 9.02915e-18
9600.00128 9.13685e-18
9601.00326 9.32193e-18
9602.00524 9.24167e-18
9602.99710 8.70499e-18
9603.99908 8.40775e-18
9605.00106 8.72178e-18
9606.00304 9.06575e-18
9607.00501 9.22771e-18
9607.99687 9.31461e-18
9608.99885 9.37735e-18
9610.00083 8.97714e-18
9611.00281 8.79790e-18
9611.99467 8.66665e-18
9612.99665 8.64871e-18
9613.99863 8.68107e-18
9615.00060 8.66400e-18
9616.00258 8.68826e-18
9617.00456 8.79082e-18
9617.99642 8.72911e-18
9618.99840 8.58125e-18
9620.00038 8.58644e-18
9621.00236 8.74803e-18
9622.00434 8.82384e-18
9622.99620 9.08099e-18
9623.99817 9.10729e-18
9625.00015 8.91793e-18
9626.00213 8.77931e-18
9627.00411 8.91083e-18
9627.99597 9.20516e-18
9628.99795 9.19278e-18
9629.99993 8.99736e-18
9631.00191 8.91683e-18
9632.00389 8.63168e-18
9632.99574 8.36707e-18
9633.99772 8.36720e-18
9634.99970 8.34737e-18
9636.00168 8.29249e-18
9637.00366 8.55377e-18
9637.99552 8.90756e-18
9638.99750 9.14802e-18
9639.99948 9.18261e-18
9641.00145 9.02978e-18
9642.00343 8.73575e-18
9642.99529 8.47541e-18
9643.99727 8.56357e-18
9644.99925 8.62943e-18
9646.00123 8.65469e-18
9647.00321 8.87884e-18
9648.00519 9.24793e-18
9648.99704 9.24171e-18
9649.99902 9.00987e-18
9651.00100 8.71850e-18
9652.00298 8.59878e-18
9653.00496 8.65270e-18
9653.99682 8.67165e-18
9654.99880 8.73488e-18
9656.00078 8.74175e-18
9657.00275 8.76113e-18
9658.00473 8.76872e-18
9658.99659 8.59376e-18
9659.99857 8.28564e-18
9661.00055 8.41388e-18
9662.00253 8.53837e-18
9663.00451 8.59266e-18
9663.99637 8.84795e-18
9664.99834 8.96223e-18
9666.00032 8.72528e-18
9667.00230 8.54730e-18
9668.00428 8.43077e-18
9668.99614 8.39853e-18
9669.99812 8.62484e-18
9671.00010 8.89142e-18
9672.00208 8.96162e-18
9673.00406 8.86009e-18
9673.99591 8.87026e-18
9674.99789 8.83659e-18
9675.99987 8.68675e-18
9677.00185 8.56837e-18
9678.00383 8.47404e-18
9678.99569 8.41042e-18
9679.99767 8.54389e-18
9680.99965 8.57193e-18
9682.00163 8.49978e-18
9683.00360 8.67571e-18
9683.99546 8.72694e-18
9684.99744 8.55392e-18
9685.99942 8.58067e-18
9687.00140 8.75890e-18
9688.00338 8.62140e-18
9689.00536 8.39475e-18
9689.99721 8.33252e-18
9690.99919 8.41093e-18
9692.00117 8.39216e-18
9693.00315 8.15677e-18
9694.00513 8.30518e-18
9694.99699 8.33281e-18
9695.99897 8.35467e-18
9697.00095 8.31726e-18
9698.00293 8.26211e-18
9698.99478 8.36482e-18
9699.99676 8.24857e-18
9700.99874 8.30660e-18
9702.00072 8.57142e-18
9703.00270 8.66037e-18
9704.00468 8.57569e-18
9704.99654 8.54616e-18
9705.99852 8.28968e-18
9707.00050 8.25173e-18
9708.00247 8.18263e-18
9709.00445 8.18079e-18
9709.99631 8.36659e-18
9710.99829 8.59279e-18
9712.00027 8.48720e-18
9713.00225 8.22701e-18
9714.00423 8.01574e-18
9714.99609 7.86776e-18
9715.99806 8.15104e-18
9717.00004 8.65687e-18
9718.00202 8.71526e-18
9719.00400 8.39218e-18
9719.99586 8.16491e-18
9720.99784 7.88259e-18
9721.99982 7.84424e-18
9723.00180 8.05530e-18
9724.00377 8.28670e-18
9724.99563 8.43233e-18
9725.99761 8.47176e-18
9726.99959 8.25595e-18
9728.00157 8.04787e-18
9729.00355 7.97147e-18
9729.99541 8.04467e-18
9730.99739 8.22094e-18
9731.99936 8.30988e-18
9733.00134 8.04888e-18
9734.00332 7.83264e-18
9735.00530 7.83907e-18
9735.99716 8.06946e-18
9736.99914 8.32066e-18
9738.00112 8.24756e-18
9739.00310 8.20093e-18
9739.99496 8.28213e-18
9740.99693 8.12718e-18
9741.99891 8.06034e-18
9743.00089 8.20665e-18
9744.00287 8.05783e-18
9745.00485 8.14604e-18
9745.99671 8.01724e-18
9746.99869 7.93600e-18
9748.00067 8.04695e-18
9749.00265 8.14304e-18
9750.00462 7.98829e-18
9750.99648 7.92063e-18
9751.99846 7.96777e-18
9753.00044 7.92774e-18
9754.00242 7.98706e-18
9755.00440 7.97105e-18
9755.99626 7.81803e-18
9756.99824 7.98060e-18
9758.00021 8.21434e-18
9759.00219 8.26854e-18
9760.00417 8.12396e-18
9760.99603 7.94917e-18
9761.99801 7.95002e-18
9762.99999 8.11950e-18
9764.00197 7.99972e-18
9765.00395 8.16328e-18
9765.99580 8.12799e-18
9766.99778 7.97193e-18
9767.99976 7.94631e-18
9769.00174 8.06202e-18
9770.00372 7.94610e-18
9770.99558 7.79429e-18
9771.99756 7.69171e-18
9772.99954 7.69655e-18
9774.00151 7.80339e-18
9775.00349 7.91961e-18
9775.99535 7.93568e-18
9776.99733 7.89858e-18
9777.99931 8.00216e-18
9779.00129 8.08494e-18
9780.00327 8.03486e-18
9781.00525 7.93763e-18
9781.99710 7.95792e-18
9782.99908 8.07215e-18
9784.00106 8.03503e-18
9785.00304 7.97673e-18
9785.99490 7.87517e-18
9786.99688 7.99263e-18
9787.99886 8.24376e-18
9789.00084 8.01030e-18
9790.00282 7.79766e-18
9791.00480 7.75409e-18
9791.99665 7.95714e-18
9792.99863 8.08231e-18
9794.00061 7.91773e-18
9795.00259 7.63851e-18
9796.00457 7.62458e-18
9796.99643 7.75229e-18
9797.99841 7.65629e-18
9799.00039 7.54306e-18
9800.00236 7.58197e-18
9801.00434 7.65000e-18
9801.99620 7.48555e-18
9802.99818 7.64455e-18
9804.00016 7.90626e-18
9805.00214 8.03208e-18
9806.00412 7.83771e-18
9806.99597 7.59398e-18
9807.99795 7.74898e-18
9808.99993 7.80152e-18
9810.00191 7.60588e-18
9811.00389 7.61267e-18
9811.99575 7.64089e-18
9812.99773 7.63602e-18
9813.99971 7.67436e-18
9815.00169 7.58586e-18
9816.00367 7.62000e-18
9816.99552 7.62703e-18
9817.99750 7.53465e-18
9818.99948 7.50791e-18
9820.00146 7.58880e-18
9821.00344 7.55932e-18
9822.00542 7.55721e-18
9822.99728 7.55739e-18
9823.99925 7.46617e-18
9825.00123 7.37922e-18
9826.00321 7.34710e-18
9826.99507 7.37148e-18
9827.99705 7.59309e-18
9828.99903 7.62526e-18
9830.00101 7.29546e-18
9831.00299 7.08965e-18
9832.00497 7.16115e-18
9832.99682 7.31386e-18
9833.99880 7.36486e-18
9835.00078 7.25679e-18
9836.00276 7.31910e-18
9837.00474 7.34397e-18
9837.99660 7.29052e-18
9838.99858 7.24245e-18
9840.00056 7.26638e-18
9841.00253 7.29975e-18
9842.00451 7.27951e-18
9842.99637 7.33788e-18
9843.99835 7.29937e-18
9845.00033 7.28556e-18
9846.00231 7.42107e-18
9847.00429 7.37889e-18
9847.99615 7.54189e-18
9848.99813 7.47360e-18
9850.00010 7.36070e-18
9851.00208 7.31744e-18
9852.00406 7.33099e-18
9852.99592 7.32863e-18
9853.99790 7.21553e-18
9854.99988 7.27803e-18
9856.00186 7.28510e-18
9857.00384 7.13938e-18
9857.99569 6.97918e-18
9858.99767 6.98013e-18
9859.99965 7.04613e-18
9861.00163 7.14804e-18
9862.00361 7.25152e-18
9862.99547 7.21465e-18
9863.99745 7.21918e-18
9864.99943 7.29979e-18
9866.00140 7.13845e-18
9867.00338 7.24743e-18
9867.99524 7.26409e-18
9868.99722 7.30533e-18
9869.99920 7.23158e-18
9871.00118 7.13046e-18
9872.00316 7.28474e-18
9872.99502 7.58775e-18
9873.99700 7.50212e-18
9874.99897 7.25971e-18
9876.00095 7.08234e-18
9877.00293 7.13736e-18
9878.00491 7.30927e-18
9878.99677 7.20141e-18
9879.99875 7.04129e-18
9881.00073 7.08694e-18
9882.00271 7.26339e-18
9883.00468 7.35457e-18
9883.99654 7.28267e-18
9884.99852 7.17328e-18
9886.00050 7.08203e-18
9887.00248 6.86753e-18
9888.00446 6.94457e-18
9888.99632 7.03690e-18
9889.99830 7.02045e-18
9891.00028 7.02713e-18
9892.00225 7.06526e-18
9893.00423 7.06042e-18
9893.99609 6.98317e-18
9894.99807 7.04561e-18
9896.00005 7.04761e-18
9897.00203 6.85481e-18
9898.00401 6.74294e-18
9898.99586 6.85862e-18
9899.99784 6.98248e-18
9900.99982 7.02863e-18
9902.00180 6.96008e-18
9903.00378 6.84140e-18
9903.99564 6.78537e-18
9904.99762 6.83043e-18
9905.99960 6.69160e-18
9907.00158 6.70862e-18
9908.00355 6.87121e-18
9909.00553 6.97464e-18
9909.99739 6.96907e-18
9910.99937 7.07254e-18
9912.00135 6.93806e-18
9913.00333 6.78123e-18
9913.99519 6.59585e-18
9914.99717 6.61822e-18
9915.99915 6.90319e-18
9917.00112 7.13500e-18
9918.00310 6.87974e-18
9919.00508 6.55280e-18
9919.99694 6.51065e-18
9920.99892 6.60119e-18
9922.00090 6.67476e-18
9923.00288 6.70350e-18
9924.00486 6.66855e-18
9924.99671 6.61979e-18
9925.99869 6.63515e-18
9927.00067 6.68999e-18
9928.00265 6.72800e-18
9929.00463 6.67325e-18
9929.99649 6.50535e-18
9930.99847 6.43134e-18
9932.00045 6.48995e-18
9933.00243 6.49566e-18
9934.00440 6.42111e-18
9934.99626 6.44949e-18
9935.99824 6.65647e-18
9937.00022 6.65900e-18
9938.00220 6.76821e-18
9939.00418 6.66543e-18
9939.99604 6.45788e-18
9940.99801 6.43268e-18
9941.99999 6.60973e-18
9943.00197 6.61618e-18
9944.00395 6.42327e-18
9944.99581 6.41171e-18
9945.99779 6.51688e-18
9946.99977 6.48162e-18
9948.00175 6.36683e-18
9949.00373 6.46953e-18
9949.99558 6.67127e-18
9950.99756 6.52241e-18
9951.99954 6.52390e-18
9953.00152 6.65452e-18
9954.00350 6.64688e-18
9954.99536 6.39685e-18
9955.99734 6.20830e-18
9956.99932 6.39272e-18
9958.00130 6.41846e-18
9959.00327 6.34949e-18
9959.99513 6.36498e-18
9960.99711 6.53700e-18
9961.99909 6.73503e-18
9963.00107 6.71757e-18
9964.00305 6.50078e-18
9965.00503 6.31537e-18
9965.99689 6.35690e-18
9966.99886 6.52894e-18
9968.00084 6.58863e-18
9969.00282 6.49469e-18
9970.00480 6.52583e-18
9970.99666 6.43596e-18
9971.99864 6.53718e-18
9973.00062 6.67132e-18
9974.00260 6.53746e-18
9975.00458 6.17695e-18
9975.99643 5.98290e-18
9976.99841 6.25102e-18
9978.00039 6.36861e-18
9979.00237 6.32664e-18
9980.00435 6.38522e-18
9980.99621 6.61951e-18
9981.99819 6.66945e-18
9983.00016 6.68338e-18
9984.00214 6.50893e-18
9985.00412 6.30022e-18
9985.99598 6.25301e-18
9986.99796 6.39044e-18
9987.99994 6.52142e-18
9989.00192 6.57093e-18
9990.00390 6.41961e-18
9990.99575 6.27476e-18
9991.99773 6.28566e-18
9992.99971 6.33408e-18
9994.00169 6.25947e-18
9995.00367 6.46928e-18
9995.99553 6.42031e-18
9996.99751 6.24041e-18
9997.99949 6.25870e-18
9999.00147 6.28273e-18
