# wavelength flux
3300.0 3.2082943971593416e-14
3301.0 3.208157137652787e-14
3302.0 3.208019790840755e-14
3303.0 3.2078823566757e-14
3304.0 3.207744835110059e-14
3305.0 3.207607226096258e-14
3306.0 3.207469529586705e-14
3307.0 3.2073317455337935e-14
3308.0 3.207193873889905e-14
3309.0 3.207055914607401e-14
3310.0 3.206917867638631e-14
3311.0 3.20677973293593e-14
3312.0 3.2066415104516167e-14
3313.0 3.206503200137998e-14
3314.0 3.2063648019473603e-14
3315.0 3.2062263158319784e-14
3316.0 3.206087741744115e-14
3317.0 3.205949079636013e-14
3318.0 3.205810329459901e-14
3319.0 3.205671491167999e-14
3320.0 3.2055325647125023e-14
3321.0 3.205393550045598e-14
3322.0 3.2052544471194604e-14
3323.0 3.205115255886242e-14
3324.0 3.204975976298084e-14
3325.0 3.204836608307115e-14
3326.0 3.2046971518654464e-14
3327.0 3.2045576069251733e-14
3328.0 3.2044179734383806e-14
3329.0 3.2042782513571344e-14
3330.0 3.204138440633487e-14
3331.0 3.203998541219479e-14
3332.0 3.2038585530671317e-14
3333.0 3.2037184761284547e-14
3334.0 3.203578310355444e-14
3335.0 3.203438055700077e-14
3336.0 3.2032977121143177e-14
3337.0 3.20315727955012e-14
3338.0 3.203016757959417e-14
3339.0 3.20287614729413e-14
3340.0 3.202735447506167e-14
3341.0 3.20259465854742e-14
3342.0 3.202453780369764e-14
3343.0 3.2023128129250635e-14
3344.0 3.2021717561651684e-14
3345.0 3.20203061004191e-14
3346.0 3.2018893745071094e-14
3347.0 3.201748049512571e-14
3348.0 3.2016066350100844e-14
3349.0 3.201465130951427e-14
3350.0 3.20132353728836e-14
3351.0 3.2011818539726276e-14
3352.0 3.201040080955966e-14
3353.0 3.200898218190093e-14
3354.0 3.20075626562671e-14
3355.0 3.200614223217508e-14
3356.0 3.200472090914163e-14
3357.0 3.200329868668333e-14
3358.0 3.2001875564316665e-14
3359.0 3.2000451541557956e-14
3360.0 3.199902661792335e-14
3361.0 3.199760079292891e-14
3362.0 3.199617406609052e-14
3363.0 3.199474643692392e-14
3364.0 3.199331790494471e-14
3365.0 3.199188846966837e-14
3366.0 3.19904581306102e-14
3367.0 3.198902688728539e-14
3368.0 3.198759473920897e-14
3369.0 3.198616168589582e-14
3370.0 3.198472772686071e-14
3371.0 3.198329286161825e-14
3372.0 3.198185708968289e-14
3373.0 3.198042041056896e-14
3374.0 3.1978982823790656e-14
3375.0 3.1977544328862e-14
3376.0 3.197610492529691e-14
3377.0 3.197466461260915e-14
3378.0 3.1973223390312317e-14
3379.0 3.197178125791991e-14
3380.0 3.1970338214945264e-14
3381.0 3.1968894260901575e-14
3382.0 3.1967449395301885e-14
3383.0 3.196600361765913e-14
3384.0 3.196455692748609e-14
3385.0 3.196310932429538e-14
3386.0 3.196166080759951e-14
3387.0 3.196021137691084e-14
3388.0 3.1958761031741585e-14
3389.0 3.1957309771603824e-14
3390.0 3.19558575960095e-14
3391.0 3.195440450447039e-14
3392.0 3.1952950496498184e-14
3393.0 3.1951495571604404e-14
3394.0 3.1950039729300416e-14
3395.0 3.194858296909746e-14
3396.0 3.194712529050666e-14
3397.0 3.1945666693038984e-14
3398.0 3.194420717620524e-14
3399.0 3.1942746739516146e-14
3400.0 3.1941285382482255e-14
3401.0 3.193982310461395e-14
3402.0 3.1938359905421553e-14
3403.0 3.193689578441518e-14
3404.0 3.193543074110484e-14
3405.0 3.193396477500039e-14
3406.0 3.1932497885611585e-14
3407.0 3.1931030072447995e-14
3408.0 3.192956133501907e-14
3409.0 3.192809167283417e-14
3410.0 3.192662108540244e-14
3411.0 3.1925149572232915e-14
3412.0 3.192367713283455e-14
3413.0 3.19222037667161e-14
3414.0 3.192072947338621e-14
3415.0 3.191925425235335e-14
3416.0 3.1917778103125925e-14
3417.0 3.1916301025212154e-14
3418.0 3.191482301812012e-14
3419.0 3.191334408135782e-14
3420.0 3.1911864214433055e-14
3421.0 3.1910383416853496e-14
3422.0 3.190890168812676e-14
3423.0 3.1907419027760215e-14
3424.0 3.1905935435261173e-14
3425.0 3.190445091013678e-14
3426.0 3.190296545189406e-14
3427.0 3.1901479060039895e-14
3428.0 3.189999173408104e-14
3429.0 3.1898503473524114e-14
3430.0 3.18970142778756e-14
3431.0 3.1895524146641865e-14
3432.0 3.189403307932909e-14
3433.0 3.18925410754434e-14
3434.0 3.1891048134490735e-14
3435.0 3.188955425597689e-14
3436.0 3.1888059439407596e-14
3437.0 3.188656368428837e-14
3438.0 3.188506699012466e-14
3439.0 3.188356935642174e-14
3440.0 3.188207078268477e-14
3441.0 3.1880571268418793e-14
3442.0 3.1879070813128686e-14
3443.0 3.187756941631921e-14
3444.0 3.187606707749502e-14
3445.0 3.18745637961606e-14
3446.0 3.187305957182031e-14
3447.0 3.1871554403978413e-14
3448.0 3.187004829213901e-14
3449.0 3.1868541235806067e-14
3450.0 3.186703323448344e-14
3451.0 3.1865524287674845e-14
3452.0 3.1864014394883877e-14
3453.0 3.1862503555613984e-14
3454.0 3.186099176936849e-14
3455.0 3.1859479035650595e-14
3456.0 3.185796535396338e-14
3457.0 3.185645072380977e-14
3458.0 3.1854935144692576e-14
3459.0 3.185341861611449e-14
3460.0 3.185190113757806e-14
3461.0 3.185038270858569e-14
3462.0 3.184886332863971e-14
3463.0 3.184734299724226e-14
3464.0 3.184582171389539e-14
3465.0 3.1844299478101006e-14
3466.0 3.184277628936089e-14
3467.0 3.184125214717671e-14
3468.0 3.1839727051049965e-14
3469.0 3.1838201000482084e-14
3470.0 3.183667399497433e-14
3471.0 3.183514603402785e-14
3472.0 3.183361711714366e-14
3473.0 3.183208724382266e-14
3474.0 3.183055641356561e-14
3475.0 3.182902462587315e-14
3476.0 3.182749188024579e-14
3477.0 3.182595817618392e-14
3478.0 3.1824423513187816e-14
3479.0 3.1822887890757596e-14
3480.0 3.182135130839327e-14
3481.0 3.1819813765594746e-14
3482.0 3.181827526186176e-14
3483.0 3.181673579669395e-14
3484.0 3.181519536959084e-14
3485.0 3.1813653980051807e-14
3486.0 3.181211162757611e-14
3487.0 3.1810568311662886e-14
3488.0 3.180902403181115e-14
3489.0 3.180747878751979e-14
3490.0 3.180593257828758e-14
3491.0 3.180438540361315e-14
3492.0 3.1802837262995006e-14
3493.0 3.1801288155931575e-14
3494.0 3.179973808192111e-14
3495.0 3.179818704046175e-14
3496.0 3.1796635031051535e-14
3497.0 3.179508205318836e-14
3498.0 3.1793528106370016e-14
3499.0 3.1791973190094154e-14
3500.0 3.1790417303858306e-14
3500.79 2.4055e-14
3501.58 2.4169e-14
3502.36 2.3764e-14
3503.15 2.3346e-14
3503.94 2.3175e-14
3504.73 2.362e-14
3505.51 2.4405e-14
3506.3 2.4866e-14
3507.09 2.4883e-14
3507.88 2.5005e-14
3508.66 2.4399e-14
3509.45 2.4324e-14
3510.24 2.4805e-14
3511.03 2.4831e-14
3511.82 2.3365e-14
3512.6 2.3487e-14
3513.39 2.4583e-14
3514.18 2.4089e-14
3514.97 2.4493e-14
3515.75 2.4977e-14
3516.54 2.6116e-14
3517.33 2.6583e-14
3518.12 2.5567e-14
3518.9 2.4954e-14
3519.69 2.6133e-14
3520.48 2.6771e-14
3521.27 2.6096e-14
3522.06 2.5583e-14
3522.84 2.6229e-14
3523.63 2.5601e-14
3524.42 2.6419e-14
3525.21 2.6223e-14
3525.99 2.6602e-14
3526.78 2.7535e-14
3527.57 2.5962e-14
3528.36 2.6363e-14
3529.14 2.5838e-14
3529.93 2.7127e-14
3530.72 2.722e-14
3531.51 2.7229e-14
3532.3 2.7524e-14
3533.08 2.7446e-14
3533.87 2.7896e-14
3534.66 2.8404e-14
3535.45 2.8024e-14
3536.23 2.8317e-14
3537.02 2.9122e-14
3537.81 2.9168e-14
3538.6 2.9187e-14
3539.38 2.9574e-14
3540.17 2.93e-14
3540.96 2.9094e-14
3541.75 2.8256e-14
3542.54 2.9584e-14
3543.32 2.8917e-14
3544.11 2.9385e-14
3544.9 3.0266e-14
3545.69 2.916e-14
3546.47 3.0039e-14
3547.26 2.9749e-14
3548.05 2.99e-14
3548.84 3.0252e-14
3549.62 3.0082e-14
3550.41 3.0514e-14
3551.2 3.0933e-14
3551.99 3.0587e-14
3552.78 3.0591e-14
3553.56 3.0458e-14
3554.35 3.105e-14
3555.14 2.9585e-14
3555.93 2.9484e-14
3556.71 3.0735e-14
3557.5 2.9995e-14
3558.29 3.0504e-14
3559.08 1.0112e-13
3559.86 9.4052e-14
3560.65 5.0144e-14
3561.44 3.2847e-14
3562.23 3.0005e-14
3563.02 3.0452e-14
3563.8 3.0142e-14
3564.59 2.956e-14
3565.38 2.9246e-14
3566.17 2.9976e-14
3566.95 3.0095e-14
3567.74 3.1093e-14
3568.53 3.1375e-14
3569.32 3.1649e-14
3570.1 3.6589e-14
3570.89 3.2971e-14
3571.68 3.0934e-14
3572.47 3.0202e-14
3573.26 3.0695e-14
3574.04 3.0069e-14
3574.83 2.9546e-14
3575.62 3.0471e-14
3576.41 3.1201e-14
3577.19 3.1183e-14
3577.98 3.0623e-14
3578.77 3.0501e-14
3579.56 3.0529e-14
3580.34 3.0399e-14
3581.13 3.061e-14
3581.92 2.9982e-14
3582.71 2.9193e-14
3583.5 2.9729e-14
3584.28 3.0507e-14
3585.07 3.0954e-14
3585.86 3.0622e-14
3586.65 2.9949e-14
3587.43 2.9947e-14
3588.22 2.943e-14
3589.01 2.8155e-14
3589.8 2.8876e-14
3590.58 2.9372e-14
3591.37 2.8997e-14
3592.16 3.0126e-14
3592.95 2.9945e-14
3593.74 2.9877e-14
3594.52 3.0037e-14
3595.31 2.9179e-14
3596.1 2.847e-14
3596.89 2.9188e-14
3597.67 2.9819e-14
3598.46 2.8899e-14
3599.25 2.8533e-14
3600.04 2.773e-14
3600.82 2.8376e-14
3601.61 2.7938e-14
3602.4 2.7724e-14
3603.19 2.9063e-14
3603.98 2.8245e-14
3604.76 2.8465e-14
3605.55 2.838e-14
3606.34 2.8312e-14
3607.13 2.8431e-14
3607.91 2.9117e-14
3608.7 2.7623e-14
3609.49 2.7373e-14
3610.28 2.7707e-14
3611.06 2.9124e-14
3611.85 2.7895e-14
3612.64 2.6793e-14
3613.43 2.6222e-14
3614.22 2.689e-14
3615.0 2.6862e-14
3615.79 2.6968e-14
3616.58 2.6683e-14
3617.37 2.5814e-14
3618.15 2.6813e-14
3618.94 2.6131e-14
3619.73 2.6861e-14
3620.52 2.7313e-14
3621.3 2.7477e-14
3622.09 2.723e-14
3622.88 2.6367e-14
3623.67 2.5822e-14
3624.46 2.71e-14
3625.24 2.6835e-14
3626.03 2.7079e-14
3626.82 2.6741e-14
3627.61 2.5895e-14
3628.39 2.5958e-14
3629.18 2.5226e-14
3629.97 2.5596e-14
3630.76 2.4843e-14
3631.54 2.4783e-14
3632.33 2.5e-14
3633.12 2.5218e-14
3633.91 2.4973e-14
3634.7 2.5331e-14
3635.48 2.5109e-14
3636.27 2.4932e-14
3637.06 2.4648e-14
3637.85 2.4417e-14
3638.63 2.5496e-14
3639.42 2.4862e-14
3640.21 2.5636e-14
3641.0 2.5239e-14
3641.78 2.4564e-14
3642.57 2.4991e-14
3643.36 2.5709e-14
3644.15 2.5196e-14
3644.94 2.4589e-14
3645.72 2.4883e-14
3646.51 2.4243e-14
3647.3 2.4799e-14
3648.09 2.5234e-14
3648.87 2.5588e-14
3649.66 2.5412e-14
3650.45 2.5189e-14
3651.24 2.5081e-14
3652.02 2.4916e-14
3652.81 2.5257e-14
3653.6 2.61e-14
3654.39 2.5052e-14
3655.18 2.5947e-14
3655.96 2.6238e-14
3656.75 2.6403e-14
3657.54 2.6117e-14
3658.33 2.6219e-14
3659.11 2.5692e-14
3659.9 2.6403e-14
3660.69 2.6461e-14
3661.48 2.5335e-14
3662.26 2.605e-14
3663.05 2.6791e-14
3663.84 2.6676e-14
3664.63 2.6613e-14
3665.42 2.6722e-14
3666.2 2.7614e-14
3666.99 2.8035e-14
3667.78 2.7624e-14
3668.57 2.8065e-14
3669.35 2.6708e-14
3670.14 2.8015e-14
3670.93 2.7996e-14
3671.72 2.8181e-14
3672.5 2.7781e-14
3673.29 2.8254e-14
3674.08 2.9036e-14
3674.87 2.8424e-14
3675.66 2.89e-14
3676.44 2.9421e-14
3677.23 2.9631e-14
3678.02 2.9573e-14
3678.81 3.0386e-14
3679.59 3.0432e-14
3680.38 3.0157e-14
3681.17 2.9825e-14
3681.96 3.0737e-14
3682.74 3.0819e-14
3683.53 3.0652e-14
3684.32 3.0969e-14
3685.11 3.1234e-14
3685.9 3.1826e-14
3686.68 3.2049e-14
3687.47 3.1605e-14
3688.26 3.1131e-14
3689.05 3.5031e-14
3689.83 3.2929e-14
3690.62 3.2856e-14
3691.41 3.302e-14
3692.2 3.2829e-14
3692.98 3.255e-14
3693.77 3.3108e-14
3694.56 3.3723e-14
3695.35 3.3926e-14
3696.14 3.3375e-14
3696.92 3.5001e-14
3697.71 3.3624e-14
3698.5 3.4003e-14
3699.29 3.5102e-14
3700.07 3.5069e-14
3700.86 3.5455e-14
3701.65 3.562e-14
3702.44 3.5216e-14
3703.22 3.534e-14
3704.01 3.6049e-14
3704.8 3.5817e-14
3705.59 3.5857e-14
3706.38 3.6267e-14
3707.16 3.6747e-14
3707.95 3.7025e-14
3708.74 3.6518e-14
3709.53 3.6701e-14
3710.31 3.6504e-14
3711.1 3.6186e-14
3711.89 3.6314e-14
3712.68 3.6552e-14
3713.46 3.7451e-14
3714.25 3.6692e-14
3715.04 3.7094e-14
3715.83 3.7415e-14
3716.62 3.7319e-14
3717.4 3.7005e-14
3718.19 3.684e-14
3718.98 3.7477e-14
3719.77 3.8077e-14
3720.55 3.776e-14
3721.34 3.8116e-14
3722.13 3.8642e-14
3722.92 3.8007e-14
3723.7 3.7508e-14
3724.49 3.7283e-14
3725.28 3.8018e-14
3726.07 3.7598e-14
3726.86 3.672e-14
3727.64 3.7041e-14
3728.43 3.7841e-14
3729.22 3.7165e-14
3730.01 3.7231e-14
3730.79 3.7483e-14
3731.58 3.6815e-14
3732.37 3.6978e-14
3733.16 3.7565e-14
3733.94 3.7448e-14
3734.73 3.716e-14
3735.52 3.5999e-14
3736.31 3.6258e-14
3737.1 3.6433e-14
3737.88 3.5974e-14
3738.67 3.6113e-14
3739.46 3.6385e-14
3740.25 3.5886e-14
3741.03 3.5344e-14
3741.82 3.5667e-14
3742.61 3.5717e-14
3743.4 3.5631e-14
3744.18 3.5084e-14
3744.97 3.458e-14
3745.76 3.4936e-14
3746.55 3.4511e-14
3747.34 3.4485e-14
3748.12 3.38e-14
3748.91 3.338e-14
3749.7 3.2913e-14
3750.49 3.4051e-14
3751.27 3.3665e-14
3752.06 3.3199e-14
3752.85 3.3058e-14
3753.64 3.2975e-14
3754.42 3.3585e-14
3755.21 3.3355e-14
3756.0 3.2616e-14
3756.79 3.2557e-14
3757.58 3.3028e-14
3758.36 3.2706e-14
3759.15 3.2321e-14
3759.94 3.2209e-14
3760.73 3.2401e-14
3761.51 3.236e-14
3762.3 3.2217e-14
3763.09 3.1603e-14
3763.88 3.1453e-14
3764.66 3.1428e-14
3765.45 3.1118e-14
3766.24 3.0628e-14
3767.03 3.1353e-14
3767.82 3.0967e-14
3768.6 3.0441e-14
3769.39 3.0146e-14
3770.18 3.0254e-14
3770.97 3.0998e-14
3771.75 3.0219e-14
3772.54 3.0212e-14
3773.33 3.0144e-14
3774.12 3.0408e-14
3774.9 2.988e-14
3775.69 3.0074e-14
3776.48 3.0134e-14
3777.27 2.9699e-14
3778.06 2.9468e-14
3778.84 3.0047e-14
3779.63 2.9761e-14
3780.42 2.9232e-14
3781.21 2.9212e-14
3781.99 3.0135e-14
3782.78 2.9529e-14
3783.57 2.8775e-14
3784.36 2.9362e-14
3785.14 2.9132e-14
3785.93 2.9095e-14
3786.72 2.8554e-14
3787.51 2.8651e-14
3788.3 2.9178e-14
3789.08 2.8463e-14
3789.87 2.8701e-14
3790.66 2.8028e-14
3791.45 2.8215e-14
3792.23 2.8305e-14
3793.02 2.8379e-14
3793.81 2.7908e-14
3794.6 2.803e-14
3795.38 2.7945e-14
3796.17 2.7207e-14
3796.96 2.7319e-14
3797.75 2.7261e-14
3798.54 2.7357e-14
3799.32 2.7026e-14
3800.11 2.6646e-14
3800.9 2.7135e-14
3801.69 2.6837e-14
3802.47 2.6735e-14
3803.26 2.6262e-14
3804.05 2.6194e-14
3804.84 2.6018e-14
3805.62 2.5711e-14
3806.41 2.4963e-14
3807.2 2.5236e-14
3807.99 2.5482e-14
3808.78 2.578e-14
3809.56 2.612e-14
3810.35 2.5508e-14
3811.14 2.5143e-14
3811.93 2.494e-14
3812.71 2.476e-14
3813.5 2.495e-14
3814.29 2.5128e-14
3815.08 2.5127e-14
3815.86 2.5379e-14
3816.65 2.5442e-14
3817.44 2.5412e-14
3818.23 2.5851e-14
3819.02 2.589e-14
3819.8 2.5842e-14
3820.59 2.6045e-14
3821.38 2.5838e-14
3822.17 2.5258e-14
3822.95 2.5634e-14
3823.74 2.5349e-14
3824.53 2.577e-14
3825.32 2.5467e-14
3826.1 2.5647e-14
3826.89 2.5711e-14
3827.68 2.5808e-14
3828.47 2.5448e-14
3829.26 2.5054e-14
3830.04 2.531e-14
3830.83 2.5278e-14
3831.62 2.5226e-14
3832.41 2.5196e-14
3833.19 2.4857e-14
3833.98 2.4658e-14
3834.77 2.4468e-14
3835.56 2.4919e-14
3836.34 2.4755e-14
3837.13 2.4397e-14
3837.92 2.478e-14
3838.71 2.4565e-14
3839.5 2.4821e-14
3840.28 2.4233e-14
3841.07 2.4595e-14
3841.86 2.4534e-14
3842.65 2.4585e-14
3843.43 2.4774e-14
3844.22 2.453e-14
3845.01 2.4344e-14
3845.8 2.4411e-14
3846.59 2.4323e-14
3847.37 2.4818e-14
3848.16 2.5095e-14
3848.95 2.4682e-14
3849.74 2.4563e-14
3850.52 2.4488e-14
3851.31 2.5426e-14
3852.1 2.4918e-14
3852.89 2.5101e-14
3853.67 2.5353e-14
3854.46 2.5282e-14
3855.25 2.5726e-14
3856.04 2.5793e-14
3856.83 2.5982e-14
3857.61 2.5488e-14
3858.4 2.5422e-14
3859.19 2.6128e-14
3859.98 2.6323e-14
3860.76 2.6603e-14
3861.55 2.6909e-14
3862.34 2.6349e-14
3863.13 2.6135e-14
3863.91 2.5762e-14
3864.7 2.6121e-14
3865.49 2.6747e-14
3866.28 2.7615e-14
3867.07 2.7224e-14
3867.85 2.6658e-14
3868.64 2.6646e-14
3869.43 2.7172e-14
3870.22 2.7864e-14
3871.0 2.7923e-14
3871.79 2.7756e-14
3872.58 2.7955e-14
3873.37 2.8433e-14
3874.15 2.8095e-14
3874.94 2.7706e-14
3875.73 2.8193e-14
3876.52 2.8355e-14
3877.31 2.826e-14
3878.09 2.8455e-14
3878.88 2.8703e-14
3879.67 2.861e-14
3880.46 2.8989e-14
3881.24 2.902e-14
3882.03 2.8961e-14
3882.82 2.9015e-14
3883.61 2.9494e-14
3884.39 2.9626e-14
3885.18 2.9277e-14
3885.97 2.9371e-14
3886.76 2.9982e-14
3887.55 3.0311e-14
3888.33 3.0269e-14
3889.12 3.0075e-14
3889.91 3.0433e-14
3890.7 3.0607e-14
3891.48 3.0737e-14
3892.27 3.0433e-14
3893.06 3.1013e-14
3893.85 3.1197e-14
3894.63 3.1343e-14
3895.42 3.126e-14
3896.21 3.1728e-14
3897.0 3.1265e-14
3897.79 3.2184e-14
3898.57 3.2308e-14
3899.36 3.2502e-14
3900.15 3.2092e-14
3900.94 3.247e-14
3901.72 3.2317e-14
3902.51 3.233e-14
3903.3 3.3326e-14
3904.09 3.3312e-14
3904.87 3.3899e-14
3905.66 3.385e-14
3906.45 3.3647e-14
3907.24 3.3574e-14
3908.03 3.4043e-14
3908.81 3.4333e-14
3909.6 3.4338e-14
3910.39 3.4496e-14
3911.18 3.4575e-14
3911.96 3.4725e-14
3912.75 3.5191e-14
3913.54 3.5311e-14
3914.33 3.531e-14
3915.11 3.5865e-14
3915.9 3.4895e-14
3916.69 3.5702e-14
3917.48 3.5237e-14
3918.27 3.5481e-14
3919.05 3.5877e-14
3919.84 3.6504e-14
3920.63 3.6266e-14
3921.42 3.5863e-14
3922.2 3.5961e-14
3922.99 3.5994e-14
3923.78 3.6632e-14
3924.57 3.6575e-14
3925.35 3.6323e-14
3926.14 3.6616e-14
3926.93 3.6904e-14
3927.72 3.6725e-14
3928.51 3.6402e-14
3929.29 3.6908e-14
3930.08 3.6873e-14
3930.87 3.6801e-14
3931.66 3.6955e-14
3932.44 3.4624e-14
3933.23 3.2106e-14
3934.02 3.2902e-14
3934.81 3.5785e-14
3935.59 3.726e-14
3936.38 3.727e-14
3937.17 3.7336e-14
3937.96 3.7539e-14
3938.75 3.7245e-14
3939.53 3.7395e-14
3940.32 3.6626e-14
3941.11 3.4807e-14
3941.9 3.3662e-14
3942.68 3.5177e-14
3943.47 3.7555e-14
3944.26 3.7798e-14
3945.05 3.7412e-14
3945.83 3.7806e-14
3946.62 3.7796e-14
3947.41 3.7582e-14
3948.2 3.7189e-14
3948.99 3.7276e-14
3949.77 3.6995e-14
3950.56 3.6796e-14
3951.35 3.704e-14
3952.14 3.6807e-14
3952.92 3.703e-14
3953.71 3.7294e-14
3954.5 3.7385e-14
3955.29 3.7523e-14
3956.07 3.7407e-14
3956.86 3.7182e-14
3957.65 3.754e-14
3958.44 3.7431e-14
3959.23 3.7342e-14
3960.01 3.7018e-14
3960.8 3.7041e-14
3961.59 3.7397e-14
3962.38 3.7012e-14
3963.16 3.7226e-14
3963.95 3.7499e-14
3964.74 3.7581e-14
3965.53 3.7244e-14
3966.31 3.7133e-14
3967.1 3.6244e-14
3967.89 3.4545e-14
3968.68 3.4018e-14
3969.47 3.6118e-14
3970.25 3.6998e-14
3971.04 3.7499e-14
3971.83 3.7539e-14
3972.62 3.7396e-14
3973.4 3.7136e-14
3974.19 3.7569e-14
3974.98 3.6925e-14
3975.77 3.5919e-14
3976.55 3.5507e-14
3977.34 3.6047e-14
3978.13 3.6625e-14
3978.92 3.7083e-14
3979.71 3.6668e-14
3980.49 3.7014e-14
3981.28 3.7448e-14
3982.07 3.6884e-14
3982.86 3.7464e-14
3983.64 3.7387e-14
3984.43 3.7261e-14
3985.22 3.6959e-14
3986.01 3.7486e-14
3986.79 3.7992e-14
3987.58 3.6956e-14
3988.37 3.7663e-14
3989.16 3.7689e-14
3989.95 3.7074e-14
3990.73 3.7578e-14
3991.52 3.7411e-14
3992.31 3.7515e-14
3993.1 3.738e-14
3993.88 3.739e-14
3994.67 3.7355e-14
3995.46 3.7261e-14
3996.25 3.7303e-14
3997.03 3.7323e-14
3997.82 3.7476e-14
3998.61 3.7322e-14
3999.4 3.7066e-14
4000.19 3.738e-14
4000.97 3.7151e-14
4001.76 3.7521e-14
4002.55 3.7202e-14
4003.34 3.7074e-14
4004.12 3.735e-14
4004.91 3.6876e-14
4005.7 3.6576e-14
4006.49 3.6542e-14
4007.27 3.6402e-14
4008.06 3.5941e-14
4008.85 3.6249e-14
4009.64 3.6325e-14
4010.43 3.5228e-14
4011.21 3.5308e-14
4012.0 3.5491e-14
4012.79 3.5374e-14
4013.58 3.4879e-14
4014.36 3.482e-14
4015.15 3.4862e-14
4015.94 3.4831e-14
4016.73 3.4285e-14
4017.51 3.4232e-14
4018.3 3.4389e-14
4019.09 3.3773e-14
4019.88 3.3063e-14
4020.67 3.3127e-14
4021.45 3.3176e-14
4022.24 3.3035e-14
4023.03 3.2601e-14
4023.82 3.2295e-14
4024.6 3.2443e-14
4025.39 3.2194e-14
4026.18 3.2136e-14
4026.97 3.1893e-14
4027.75 3.2168e-14
4028.54 3.1333e-14
4029.33 3.0967e-14
4030.12 3.1498e-14
4030.91 3.1044e-14
4031.69 3.0855e-14
4032.48 3.109e-14
4033.27 3.0183e-14
4034.06 3.0416e-14
4034.84 3.0235e-14
4035.63 2.9904e-14
4036.42 3.0534e-14
4037.21 3.0432e-14
4037.99 3.0474e-14
4038.78 2.9863e-14
4039.57 3.0309e-14
4040.36 2.9951e-14
4041.15 3.0036e-14
4041.93 3.0439e-14
4042.72 3.025e-14
4043.51 3.0512e-14
4044.3 3.0211e-14
4045.08 3.075e-14
4045.87 3.0305e-14
4046.66 3.0204e-14
4047.45 3.0116e-14
4048.23 3.0776e-14
4049.02 3.0539e-14
4049.81 2.9934e-14
4050.6 3.0094e-14
4051.39 3.0174e-14
4052.17 3.0135e-14
4052.96 3.0375e-14
4053.75 3.0493e-14
4054.54 3.0634e-14
4055.32 3.0878e-14
4056.11 3.0958e-14
4056.9 3.1057e-14
4057.69 3.1233e-14
4058.47 3.1139e-14
4059.26 3.138e-14
4060.05 3.1436e-14
4060.84 3.1724e-14
4061.63 3.1604e-14
4062.41 3.1445e-14
4063.2 3.1028e-14
4063.99 3.1696e-14
4064.78 3.2139e-14
4065.56 3.1965e-14
4066.35 3.182e-14
4067.14 3.2251e-14
4067.93 3.2236e-14
4068.71 3.2239e-14
4069.5 3.2091e-14
4070.29 3.2334e-14
4071.08 3.2439e-14
4071.87 3.217e-14
4072.65 3.2478e-14
4073.44 3.2621e-14
4074.23 3.2539e-14
4075.02 3.2899e-14
4075.8 3.2808e-14
4076.59 3.3163e-14
4077.38 3.3253e-14
4078.17 3.3266e-14
4078.95 3.284e-14
4079.74 3.2799e-14
4080.53 3.3393e-14
4081.32 3.3154e-14
4082.11 3.365e-14
4082.89 3.3669e-14
4083.68 3.3882e-14
4084.47 3.3589e-14
4085.26 3.3679e-14
4086.04 3.3958e-14
4086.83 3.3813e-14
4087.62 3.3753e-14
4088.41 3.4394e-14
4089.19 3.4137e-14
4089.98 3.3946e-14
4090.77 3.3718e-14
4091.56 3.4277e-14
4092.35 3.3975e-14
4093.13 3.4555e-14
4093.92 3.442e-14
4094.71 3.3761e-14
4095.5 3.3642e-14
4096.28 3.387e-14
4097.07 3.4131e-14
4097.86 3.4516e-14
4098.65 3.396e-14
4099.43 3.3616e-14
4100.22 3.3936e-14
4101.01 3.3935e-14
4101.8 3.3789e-14
4102.59 3.3792e-14
4103.37 3.4573e-14
4104.16 3.3984e-14
4104.95 3.4383e-14
4105.74 3.3978e-14
4106.52 3.41e-14
4107.31 3.3861e-14
4108.1 3.3993e-14
4108.89 3.4241e-14
4109.67 3.4579e-14
4110.46 3.3887e-14
4111.25 3.4199e-14
4112.04 3.3721e-14
4112.83 3.4195e-14
4113.61 3.4177e-14
4114.4 3.4074e-14
4115.19 3.3701e-14
4115.98 3.4303e-14
4116.76 3.4663e-14
4117.55 3.4216e-14
4118.34 3.3806e-14
4119.13 3.3345e-14
4119.91 3.3646e-14
4120.7 3.3212e-14
4121.49 3.3725e-14
4122.28 3.4089e-14
4123.07 3.4268e-14
4123.85 3.3476e-14
4124.64 3.3858e-14
4125.43 3.4201e-14
4126.22 3.4448e-14
4127.0 3.3673e-14
4127.79 3.3694e-14
4128.58 3.3861e-14
4129.37 3.3219e-14
4130.15 3.3533e-14
4130.94 3.4336e-14
4131.73 3.3633e-14
4132.52 3.2884e-14
4133.31 3.3176e-14
4134.09 3.2532e-14
4134.88 3.2821e-14
4135.67 3.2621e-14
4136.46 3.2548e-14
4137.24 3.2832e-14
4138.03 3.2591e-14
4138.82 3.2349e-14
4139.61 3.253e-14
4140.39 3.2028e-14
4141.18 3.1984e-14
4141.97 3.142e-14
4142.76 3.1853e-14
4143.55 3.1343e-14
4144.33 3.1535e-14
4145.12 3.071e-14
4145.91 3.0918e-14
4146.7 3.023e-14
4147.48 3.0933e-14
4148.27 3.033e-14
4149.06 3.0079e-14
4149.85 3.0246e-14
4150.63 2.9637e-14
4151.42 2.9558e-14
4152.21 2.9436e-14
4153.0 2.9565e-14
4153.79 2.8582e-14
4154.57 2.8559e-14
4155.36 2.8458e-14
4156.15 2.8544e-14
4156.94 2.8617e-14
4157.72 2.8241e-14
4158.51 2.7776e-14
4159.3 2.787e-14
4160.09 2.7775e-14
4160.87 2.7723e-14
4161.66 2.7452e-14
4162.45 2.7579e-14
4163.24 2.7478e-14
4164.03 2.7555e-14
4164.81 2.7632e-14
4165.6 2.7398e-14
4166.39 2.7278e-14
4167.18 2.707e-14
4167.96 2.7338e-14
4168.75 2.7183e-14
4169.54 2.7045e-14
4170.33 2.6698e-14
4171.11 2.6941e-14
4171.9 2.7194e-14
4172.69 2.7169e-14
4173.48 2.6988e-14
4174.27 2.721e-14
4175.05 2.7284e-14
4175.84 2.7243e-14
4176.63 2.6982e-14
4177.42 2.7038e-14
4178.2 2.6906e-14
4178.99 2.6871e-14
4179.78 2.6863e-14
4180.57 2.6852e-14
4181.35 2.695e-14
4182.14 2.7336e-14
4182.93 2.7047e-14
4183.72 2.4552e-14
4184.51 2.4494e-14
4185.29 2.394e-14
4186.08 2.3951e-14
4186.87 2.4038e-14
4187.66 2.4675e-14
4188.44 2.5878e-14
4189.23 2.6199e-14
4190.02 2.753e-14
4190.81 2.7452e-14
4191.59 2.7099e-14
4192.38 2.7533e-14
4193.17 2.7585e-14
4193.96 2.7768e-14
4194.75 2.7369e-14
4195.53 2.7659e-14
4196.32 2.781e-14
4197.11 2.7439e-14
4197.9 2.7736e-14
4198.68 2.7682e-14
4199.47 2.8064e-14
4200.26 2.7768e-14
4201.05 2.8331e-14
4201.83 2.833e-14
4202.62 2.8386e-14
4203.41 2.8242e-14
4204.2 2.8365e-14
4204.99 2.8306e-14
4205.77 2.8399e-14
4206.56 2.8554e-14
4207.35 2.8808e-14
4208.14 2.8678e-14
4208.92 2.8473e-14
4209.71 2.8696e-14
4210.5 2.901e-14
4211.29 2.8847e-14
4212.07 2.8758e-14
4212.86 2.8768e-14
4213.65 2.929e-14
4214.44 2.8775e-14
4215.23 2.8837e-14
4216.01 2.8759e-14
4216.8 2.8465e-14
4217.59 2.8584e-14
4218.38 2.8901e-14
4219.16 2.8552e-14
4219.95 2.8887e-14
4220.74 2.8975e-14
4221.53 2.8541e-14
4222.31 2.8695e-14
4223.1 2.8565e-14
4223.89 2.842e-14
4224.68 2.834e-14
4225.47 2.836e-14
4226.25 2.8174e-14
4227.04 2.8332e-14
4227.83 2.7854e-14
4228.62 2.815e-14
4229.4 2.8311e-14
4230.19 2.8547e-14
4230.98 2.8117e-14
4231.77 2.8092e-14
4232.55 2.7293e-14
4233.34 2.7688e-14
4234.13 2.7825e-14
4234.92 2.7762e-14
4235.71 2.8175e-14
4236.49 2.7485e-14
4237.28 2.7854e-14
4238.07 2.7458e-14
4238.86 2.7417e-14
4239.64 2.7295e-14
4240.43 2.7421e-14
4241.22 2.7075e-14
4242.01 2.7212e-14
4242.79 2.7228e-14
4243.58 2.7282e-14
4244.37 2.7356e-14
4245.16 2.7478e-14
4245.95 2.6869e-14
4246.73 2.6511e-14
4247.52 2.6378e-14
4248.31 2.5802e-14
4249.1 2.5503e-14
4249.88 2.53e-14
4250.67 2.5608e-14
4251.46 2.424e-14
4252.25 2.4227e-14
4253.03 2.4374e-14
4253.82 2.6674e-14
4254.61 2.6508e-14
4255.4 2.6521e-14
4256.19 2.6445e-14
4256.97 2.6638e-14
4257.76 2.6401e-14
4258.55 2.6639e-14
4259.34 2.673e-14
4260.12 2.6453e-14
4260.91 2.638e-14
4261.7 2.6714e-14
4262.49 2.6836e-14
4263.27 2.705e-14
4264.06 2.659e-14
4264.85 2.7246e-14
4265.64 2.742e-14
4266.43 2.7585e-14
4267.21 2.7259e-14
4268.0 2.7316e-14
4268.79 2.7943e-14
4269.58 2.7635e-14
4270.36 2.7637e-14
4271.15 2.7771e-14
4271.94 2.8065e-14
4272.73 2.8112e-14
4273.51 2.7982e-14
4274.3 2.8032e-14
4275.09 2.776e-14
4275.88 2.7474e-14
4276.67 2.8056e-14
4277.45 2.8273e-14
4278.24 2.8305e-14
4279.03 2.8461e-14
4279.82 2.8376e-14
4280.6 2.8501e-14
4281.39 2.8506e-14
4282.18 2.8302e-14
4282.97 2.8698e-14
4283.75 2.8667e-14
4284.54 2.8715e-14
4285.33 2.8971e-14
4286.12 2.9076e-14
4286.91 2.8896e-14
4287.69 2.9597e-14
4288.48 2.9404e-14
4289.27 2.9255e-14
4290.06 2.9345e-14
4290.84 2.9723e-14
4291.63 2.9668e-14
4292.42 2.9652e-14
4293.21 2.9572e-14
4293.99 2.9265e-14
4294.78 2.9592e-14
4295.57 2.9571e-14
4296.36 2.9486e-14
4297.15 2.9347e-14
4297.93 2.9395e-14
4298.72 2.9494e-14
4299.51 2.9401e-14
4300.3 2.9598e-14
4301.08 2.9636e-14
4301.87 2.969e-14
4302.66 2.9919e-14
4303.45 2.9944e-14
4304.23 2.9823e-14
4305.02 2.9781e-14
4305.81 2.9782e-14
4306.6 3.0227e-14
4307.39 3.0201e-14
4308.17 3.0066e-14
4308.96 3.0167e-14
4309.75 3.0559e-14
4310.54 3.0127e-14
4311.32 3.0366e-14
4312.11 2.9864e-14
4312.9 3.0534e-14
4313.69 3.0429e-14
4314.47 3.0116e-14
4315.26 3.0051e-14
4316.05 3.0229e-14
4316.84 3.0043e-14
4317.63 3.037e-14
4318.41 3.0304e-14
4319.2 3.0365e-14
4319.99 3.038e-14
4320.78 3.0312e-14
4321.56 3.0276e-14
4322.35 3.0446e-14
4323.14 3.0153e-14
4323.93 3.0531e-14
4324.71 3.0616e-14
4325.5 3.0411e-14
4326.29 3.0975e-14
4327.08 3.0971e-14
4327.87 3.0633e-14
4328.65 3.0805e-14
4329.44 3.0675e-14
4330.23 3.1272e-14
4331.02 3.1241e-14
4331.8 3.1111e-14
4332.59 3.0699e-14
4333.38 3.083e-14
4334.17 3.1364e-14
4334.95 3.123e-14
4335.74 3.1088e-14
4336.53 3.0721e-14
4337.32 3.0846e-14
4338.11 3.1293e-14
4338.89 3.0976e-14
4339.68 3.117e-14
4340.47 3.0966e-14
4341.26 3.1349e-14
4342.04 3.0777e-14
4342.83 3.1061e-14
4343.62 3.0638e-14
4344.41 3.0806e-14
4345.19 3.1385e-14
4345.98 3.0823e-14
4346.77 3.054e-14
4347.56 3.0433e-14
4348.35 2.9989e-14
4349.13 3.0053e-14
4349.92 3.009e-14
4350.71 2.985e-14
4351.5 2.9765e-14
4352.28 2.9895e-14
4353.07 2.9714e-14
4353.86 2.9311e-14
4354.65 2.963e-14
4355.43 2.9407e-14
4356.22 2.9607e-14
4357.01 2.9379e-14
4357.8 2.9438e-14
4358.59 2.9248e-14
4359.37 2.9328e-14
4360.16 2.9125e-14
4360.95 2.8914e-14
4361.74 2.8717e-14
4362.52 2.8476e-14
4363.31 2.8745e-14
4364.1 2.8606e-14
4364.89 2.8132e-14
4365.67 2.8099e-14
4366.46 2.791e-14
4367.25 2.8226e-14
4368.04 2.8128e-14
4368.83 2.7803e-14
4369.61 2.7477e-14
4370.4 2.7653e-14
4371.19 2.7677e-14
4371.98 2.764e-14
4372.76 2.7279e-14
4373.55 2.7403e-14
4374.34 2.7246e-14
4375.13 2.6936e-14
4375.91 2.6687e-14
4376.7 2.6515e-14
4377.49 2.6276e-14
4378.28 2.6296e-14
4379.07 2.6095e-14
4379.85 2.606e-14
4380.64 2.581e-14
4381.43 2.5796e-14
4382.22 2.5908e-14
4383.0 2.5677e-14
4383.79 2.5682e-14
4384.58 2.5393e-14
4385.37 2.5391e-14
4386.15 2.5042e-14
4386.94 2.5044e-14
4387.73 2.5017e-14
4388.52 2.5024e-14
4389.31 2.4747e-14
4390.09 2.4951e-14
4390.88 2.4896e-14
4391.67 2.4777e-14
4392.46 2.4271e-14
4393.24 2.472e-14
4394.03 2.4627e-14
4394.82 2.4307e-14
4395.61 2.4476e-14
4396.39 2.425e-14
4397.18 2.4288e-14
4397.97 2.4155e-14
4398.76 2.4037e-14
4399.55 2.3929e-14
4400.33 2.3986e-14
4401.12 2.3614e-14
4401.91 2.4036e-14
4402.7 2.3901e-14
4403.48 2.3985e-14
4404.27 2.3563e-14
4405.06 2.3748e-14
4405.85 2.3558e-14
4406.63 2.3264e-14
4407.42 2.3522e-14
4408.21 2.3914e-14
4409.0 2.3613e-14
4409.79 2.3302e-14
4410.57 2.3491e-14
4411.36 2.3582e-14
4412.15 2.3442e-14
4412.94 2.3102e-14
4413.72 2.2982e-14
4414.51 2.2962e-14
4415.3 2.3084e-14
4416.09 2.3028e-14
4416.87 2.3008e-14
4417.66 2.3157e-14
4418.45 2.3134e-14
4419.24 2.2969e-14
4420.03 2.2741e-14
4420.81 2.332e-14
4421.6 2.2885e-14
4422.39 2.2757e-14
4423.18 2.2933e-14
4423.96 2.2606e-14
4424.75 2.3115e-14
4425.54 2.2955e-14
4426.33 2.3103e-14
4427.11 2.3294e-14
4427.9 2.3016e-14
4428.69 2.322e-14
4429.48 2.2889e-14
4430.27 2.3035e-14
4431.05 2.3063e-14
4431.84 2.2893e-14
4432.63 2.2767e-14
4433.42 2.3177e-14
4434.2 2.359e-14
4434.99 2.3208e-14
4435.78 2.3546e-14
4436.57 2.3606e-14
4437.35 2.3795e-14
4438.14 2.3504e-14
4438.93 2.3586e-14
4439.72 2.372e-14
4440.51 2.3807e-14
4441.29 2.3838e-14
4442.08 2.3535e-14
4442.87 2.3456e-14
4443.66 2.3918e-14
4444.44 2.4237e-14
4445.23 2.4198e-14
4446.02 2.3969e-14
4446.81 2.4423e-14
4447.59 2.4446e-14
4448.38 2.459e-14
4449.17 2.4806e-14
4449.96 2.4265e-14
4450.75 2.4445e-14
4451.53 2.4997e-14
4452.32 2.5035e-14
4453.11 2.4811e-14
4453.9 2.5189e-14
4454.68 2.5329e-14
4455.47 2.52e-14
4456.26 2.558e-14
4457.05 2.5831e-14
4457.83 2.5739e-14
4458.62 2.5896e-14
4459.41 2.5877e-14
4460.2 2.6032e-14
4460.99 2.6172e-14
4461.77 2.6289e-14
4462.56 2.6168e-14
4463.35 2.6032e-14
4464.14 2.6321e-14
4464.92 2.6741e-14
4465.71 2.6769e-14
4466.5 2.6685e-14
4467.29 2.6521e-14
4468.07 2.6914e-14
4468.86 2.7088e-14
4469.65 2.7386e-14
4470.44 2.7235e-14
4471.23 2.7343e-14
4472.01 2.7555e-14
4472.8 2.7633e-14
4473.59 2.7976e-14
4474.38 2.7639e-14
4475.16 2.7628e-14
4475.95 2.802e-14
4476.74 2.7954e-14
4477.53 2.8095e-14
4478.31 2.8156e-14
4479.1 2.8272e-14
4479.89 2.858e-14
4480.68 2.8253e-14
4481.47 2.8839e-14
4482.25 2.8737e-14
4483.04 2.8782e-14
4483.83 2.8645e-14
4484.62 2.8677e-14
4485.4 2.9031e-14
4486.19 2.9185e-14
4486.98 2.9364e-14
4487.77 2.9064e-14
4488.55 2.9106e-14
4489.34 2.9342e-14
4490.13 2.9685e-14
4490.92 2.9873e-14
4491.71 2.9965e-14
4492.49 3.0032e-14
4493.28 2.9864e-14
4494.07 3.0012e-14
4494.86 3.0003e-14
4495.64 3.0414e-14
4496.43 3.0457e-14
4497.22 3.0515e-14
4498.01 3.0328e-14
4498.79 3.0467e-14
4499.58 3.0582e-14
4500.37 3.0517e-14
4501.16 3.055e-14
4501.95 3.0785e-14
4502.73 3.0829e-14
4503.52 3.0619e-14
4504.31 3.1179e-14
4505.1 3.1142e-14
4505.88 3.1272e-14
4506.67 3.1209e-14
4507.46 3.1259e-14
4508.25 3.0893e-14
4509.03 3.097e-14
4509.82 3.0926e-14
4510.61 3.0937e-14
4511.4 3.1084e-14
4512.19 3.1192e-14
4512.97 3.1319e-14
4513.76 3.1094e-14
4514.55 3.1232e-14
4515.34 3.099e-14
4516.12 3.1272e-14
4516.91 3.1306e-14
4517.7 3.1275e-14
4518.49 3.1384e-14
4519.27 3.1464e-14
4520.06 3.1469e-14
4520.85 3.1307e-14
4521.64 3.1711e-14
4522.43 3.1425e-14
4523.21 3.1326e-14
4524.0 3.1348e-14
4524.79 3.1271e-14
4525.58 3.1615e-14
4526.36 3.1538e-14
4527.15 3.144e-14
4527.94 3.1888e-14
4528.73 3.1733e-14
4529.51 3.189e-14
4530.3 3.1813e-14
4531.09 3.1665e-14
4531.88 3.1931e-14
4532.67 3.206e-14
4533.45 3.1748e-14
4534.24 3.2267e-14
4535.03 3.2198e-14
4535.82 3.2366e-14
4536.6 3.2435e-14
4537.39 3.2433e-14
4538.18 3.2525e-14
4538.97 3.2198e-14
4539.76 3.2693e-14
4540.54 3.2723e-14
4541.33 3.2791e-14
4542.12 3.3001e-14
4542.91 3.2823e-14
4543.69 3.2786e-14
4544.48 3.2925e-14
4545.27 3.3296e-14
4546.06 3.312e-14
4546.84 3.3328e-14
4547.63 3.3151e-14
4548.42 3.3275e-14
4549.21 3.3378e-14
4550.0 3.3539e-14
4550.78 3.3862e-14
4551.57 3.3708e-14
4552.36 3.3374e-14
4553.15 3.403e-14
4553.93 3.3629e-14
4554.72 3.4076e-14
4555.51 3.4399e-14
4556.3 3.3811e-14
4557.08 3.4165e-14
4557.87 3.4146e-14
4558.66 3.4237e-14
4559.45 3.4125e-14
4560.24 3.4289e-14
4561.02 3.4061e-14
4561.81 3.4133e-14
4562.6 3.4234e-14
4563.39 3.4721e-14
4564.17 3.4437e-14
4564.96 3.4745e-14
4565.75 3.4398e-14
4566.54 3.4836e-14
4567.32 3.4692e-14
4568.11 3.5367e-14
4568.9 3.5274e-14
4569.69 3.5537e-14
4570.48 3.5607e-14
4571.26 3.546e-14
4572.05 3.5458e-14
4572.84 3.5786e-14
4573.63 3.5797e-14
4574.41 3.5843e-14
4575.2 3.5923e-14
4575.99 3.5771e-14
4576.78 3.6012e-14
4577.56 3.6214e-14
4578.35 3.613e-14
4579.14 3.6014e-14
4579.93 3.6196e-14
4580.72 3.6213e-14
4581.5 3.6514e-14
4582.29 3.6798e-14
4583.08 3.6652e-14
4583.87 3.6775e-14
4584.65 3.6939e-14
4585.44 3.6759e-14
4586.23 3.7393e-14
4587.02 3.7159e-14
4587.8 3.7409e-14
4588.59 3.7352e-14
4589.38 3.6987e-14
4590.17 3.7396e-14
4590.96 3.772e-14
4591.74 3.7642e-14
4592.53 3.74e-14
4593.32 3.7598e-14
4594.11 3.7687e-14
4594.89 3.7559e-14
4595.68 3.7511e-14
4596.47 3.746e-14
4597.26 3.7653e-14
4598.04 3.7629e-14
4598.83 3.7186e-14
4599.62 3.7378e-14
4600.41 3.751e-14
4601.2 3.7352e-14
4601.98 3.7555e-14
4602.77 3.7532e-14
4603.56 3.7556e-14
4604.35 3.7255e-14
4605.13 3.733e-14
4605.92 3.696e-14
4606.71 3.7375e-14
4607.5 3.7551e-14
4608.28 3.7266e-14
4609.07 3.7262e-14
4609.86 3.6855e-14
4610.65 3.7024e-14
4611.44 3.7082e-14
4612.22 3.7131e-14
4613.01 3.6648e-14
4613.8 3.6755e-14
4614.59 3.6815e-14
4615.37 3.677e-14
4616.16 3.6553e-14
4616.95 3.657e-14
4617.74 3.6924e-14
4618.52 3.6456e-14
4619.31 3.6497e-14
4620.1 3.6327e-14
4620.89 3.6559e-14
4621.68 3.6332e-14
4622.46 3.5936e-14
4623.25 3.5751e-14
4624.04 3.5889e-14
4624.83 3.5728e-14
4625.61 3.5869e-14
4626.4 3.5612e-14
4627.19 3.5777e-14
4627.98 3.5633e-14
4628.76 3.5423e-14
4629.55 3.5487e-14
4630.34 3.483e-14
4631.13 3.5033e-14
4631.92 3.5039e-14
4632.7 3.486e-14
4633.49 3.4598e-14
4634.28 3.4714e-14
4635.07 3.4814e-14
4635.85 3.4716e-14
4636.64 3.4839e-14
4637.43 3.4721e-14
4638.22 3.4464e-14
4639.0 3.457e-14
4639.79 3.3962e-14
4640.58 3.4259e-14
4641.37 3.4088e-14
4642.16 3.4228e-14
4642.94 3.4309e-14
4643.73 3.403e-14
4644.52 3.4081e-14
4645.31 3.3902e-14
4646.09 3.3515e-14
4646.88 3.3843e-14
4647.67 3.3806e-14
4648.46 3.3564e-14
4649.24 3.3623e-14
4650.03 3.2995e-14
4650.82 3.3365e-14
4651.61 3.3734e-14
4652.4 3.3413e-14
4653.18 3.2833e-14
4653.97 3.3017e-14
4654.76 3.277e-14
4655.55 3.2574e-14
4656.33 3.2686e-14
4657.12 3.2564e-14
4657.91 3.2761e-14
4658.7 3.2805e-14
4659.48 3.2277e-14
4660.27 3.2445e-14
4661.06 3.1927e-14
4661.85 3.2499e-14
4662.64 3.2224e-14
4663.42 3.2057e-14
4664.21 3.2143e-14
4665.0 3.1974e-14
4665.79 3.1975e-14
4666.57 3.1911e-14
4667.36 3.1836e-14
4668.15 3.1518e-14
4668.94 3.1479e-14
4669.72 3.1552e-14
4670.51 3.0949e-14
4671.3 3.1159e-14
4672.09 3.219e-14
4672.88 3.3591e-14
4673.66 3.1347e-14
4674.45 3.0546e-14
4675.24 3.0648e-14
4676.03 3.0329e-14
4676.81 3.0536e-14
4677.6 3.034e-14
4678.39 3.0023e-14
4679.18 2.9759e-14
4679.96 2.9458e-14
4680.75 2.9495e-14
4681.54 2.9186e-14
4682.33 2.9121e-14
4683.12 2.8941e-14
4683.9 2.8977e-14
4684.69 2.8844e-14
4685.48 2.8666e-14
4686.27 2.8312e-14
4687.05 2.8459e-14
4687.84 2.8394e-14
4688.63 2.7925e-14
4689.42 2.784e-14
4690.2 2.7636e-14
4690.99 2.7583e-14
4691.78 2.736e-14
4692.57 2.7258e-14
4693.36 2.7029e-14
4694.14 2.6874e-14
4694.93 2.6587e-14
4695.72 2.6819e-14
4696.51 2.6699e-14
4697.29 2.6218e-14
4698.08 2.6117e-14
4698.87 2.6144e-14
4699.66 2.59e-14
4700.44 2.5965e-14
4701.23 2.5826e-14
4702.02 2.5846e-14
4702.81 2.5709e-14
4703.6 2.549e-14
4704.38 2.5286e-14
4705.17 2.5264e-14
4705.96 2.5001e-14
4706.75 2.4858e-14
4707.53 2.508e-14
4708.32 2.4843e-14
4709.11 2.4961e-14
4709.9 2.4516e-14
4710.68 2.4845e-14
4711.47 2.4659e-14
4712.26 2.4408e-14
4713.05 2.4183e-14
4713.84 2.4213e-14
4714.62 2.4285e-14
4715.41 2.4176e-14
4716.2 2.404e-14
4716.99 2.4165e-14
4717.77 2.3961e-14
4718.56 2.4044e-14
4719.35 2.399e-14
4720.14 2.375e-14
4720.92 2.3834e-14
4721.71 2.3752e-14
4722.5 2.3868e-14
4723.29 2.3686e-14
4724.08 2.4199e-14
4724.86 2.4011e-14
4725.65 2.3878e-14
4726.44 2.3945e-14
4727.23 2.3911e-14
4728.01 2.3662e-14
4728.8 2.3964e-14
4729.59 2.3723e-14
4730.38 2.4067e-14
4731.16 2.3879e-14
4731.95 2.3964e-14
4732.74 2.3984e-14
4733.53 2.4014e-14
4734.32 2.4329e-14
4735.1 2.4138e-14
4735.89 2.4373e-14
4736.68 2.4248e-14
4737.47 2.3904e-14
4738.25 2.4024e-14
4739.04 2.4211e-14
4739.83 2.4521e-14
4740.62 2.4353e-14
4741.4 2.435e-14
4742.19 2.4517e-14
4742.98 2.4566e-14
4743.77 2.492e-14
4744.56 2.4538e-14
4745.34 2.4945e-14
4746.13 2.4992e-14
4746.92 2.5167e-14
4747.71 2.516e-14
4748.49 2.5122e-14
4749.28 2.5063e-14
4750.07 2.5059e-14
4750.86 2.5444e-14
4751.64 2.5276e-14
4752.43 2.5435e-14
4753.22 2.5596e-14
4754.01 2.5655e-14
4754.8 2.5402e-14
4755.58 2.5482e-14
4756.37 2.5812e-14
4757.16 2.5855e-14
4757.95 2.5976e-14
4758.73 2.584e-14
4759.52 2.6119e-14
4760.31 2.5601e-14
4761.1 2.594e-14
4761.88 2.6025e-14
4762.67 2.6198e-14
4763.46 2.627e-14
4764.25 2.6143e-14
4765.04 2.6355e-14
4765.82 2.6305e-14
4766.61 2.6415e-14
4767.4 2.6471e-14
4768.19 2.6348e-14
4768.97 2.6731e-14
4769.76 2.6681e-14
4770.55 2.6719e-14
4771.34 2.6609e-14
4772.12 2.7009e-14
4772.91 2.6925e-14
4773.7 2.7053e-14
4774.49 2.725e-14
4775.28 2.7386e-14
4776.06 2.7551e-14
4776.85 2.7543e-14
4777.64 2.7586e-14
4778.43 2.764e-14
4779.21 2.7896e-14
4780.0 2.8176e-14
4780.79 2.8429e-14
4781.58 2.8399e-14
4782.36 2.8218e-14
4783.15 2.8387e-14
4783.94 2.8554e-14
4784.73 2.8691e-14
4785.52 2.903e-14
4786.3 2.8991e-14
4787.09 2.8969e-14
4787.88 2.9268e-14
4788.67 2.9266e-14
4789.45 2.9303e-14
4790.24 2.9265e-14
4791.03 2.948e-14
4791.82 2.9752e-14
4792.6 2.9821e-14
4793.39 2.9949e-14
4794.18 2.9972e-14
4794.97 3.0106e-14
4795.76 3.0151e-14
4796.54 3.0327e-14
4797.33 3.0547e-14
4798.12 3.0635e-14
4798.91 3.0847e-14
4799.69 3.0806e-14
4800.48 3.1009e-14
4801.27 3.0946e-14
4802.06 3.1199e-14
4802.84 3.1082e-14
4803.63 3.1177e-14
4804.42 3.1344e-14
4805.21 3.1833e-14
4806.0 3.1674e-14
4806.78 3.177e-14
4807.57 3.1861e-14
4808.36 3.2213e-14
4809.15 3.1682e-14
4809.93 3.1834e-14
4810.72 3.2074e-14
4811.51 3.2424e-14
4812.3 3.2148e-14
4813.08 3.2375e-14
4813.87 3.261e-14
4814.66 3.2733e-14
4815.45 3.2552e-14
4816.24 3.2752e-14
4817.02 3.289e-14
4817.81 3.2868e-14
4818.6 3.318e-14
4819.39 3.2861e-14
4820.17 3.3033e-14
4820.96 3.3224e-14
4821.75 3.3166e-14
4822.54 3.334e-14
4823.32 3.35e-14
4824.11 3.3294e-14
4824.9 3.3644e-14
4825.69 3.3903e-14
4826.48 3.3672e-14
4827.26 3.3832e-14
4828.05 3.3969e-14
4828.84 3.3992e-14
4829.63 3.3697e-14
4830.41 3.3932e-14
4831.2 3.3972e-14
4831.99 3.4097e-14
4832.78 3.4028e-14
4833.56 3.3689e-14
4834.35 3.4392e-14
4835.14 3.4237e-14
4835.93 3.4018e-14
4836.72 3.4254e-14
4837.5 3.4001e-14
4838.29 3.4114e-14
4839.08 3.4474e-14
4839.87 3.3973e-14
4840.65 3.4083e-14
4841.44 3.4611e-14
4842.23 3.4233e-14
4843.02 3.4368e-14
4843.8 3.4596e-14
4844.59 3.4536e-14
4845.38 3.4124e-14
4846.17 3.3886e-14
4846.96 3.4246e-14
4847.74 3.3935e-14
4848.53 3.3744e-14
4849.32 3.3887e-14
4850.11 3.366e-14
4850.89 3.4066e-14
4851.68 3.3675e-14
4852.47 3.3431e-14
4853.26 3.315e-14
4854.04 3.3023e-14
4854.83 3.3305e-14
4855.62 3.3023e-14
4856.41 3.2997e-14
4857.2 3.2958e-14
4857.98 3.258e-14
4858.77 3.2628e-14
4859.56 3.2863e-14
4860.35 3.2334e-14
4861.13 3.2574e-14
4861.92 3.2192e-14
4862.71 3.2436e-14
4863.5 3.2007e-14
4864.28 3.2061e-14
4865.07 3.2119e-14
4865.86 3.2136e-14
4866.65 3.1848e-14
4867.44 3.1603e-14
4868.22 3.1667e-14
4869.01 3.1619e-14
4869.8 3.1387e-14
4870.59 3.1495e-14
4871.37 3.1301e-14
4872.16 3.1061e-14
4872.95 3.1168e-14
4873.74 3.1342e-14
4874.52 3.1159e-14
4875.31 3.1098e-14
4876.1 3.1301e-14
4876.89 3.146e-14
4877.68 3.1322e-14
4878.46 3.123e-14
4879.25 3.1019e-14
4880.04 3.0978e-14
4880.83 3.0671e-14
4881.61 3.0823e-14
4882.4 3.0623e-14
4883.19 3.0822e-14
4883.98 3.0466e-14
4884.76 3.0857e-14
4885.55 3.0675e-14
4886.34 3.043e-14
4887.13 3.0496e-14
4887.92 3.0727e-14
4888.7 3.0387e-14
4889.49 3.0377e-14
4890.28 3.0604e-14
4891.07 3.046e-14
4891.85 3.0299e-14
4892.64 3.0377e-14
4893.43 3.0498e-14
4894.22 3.0393e-14
4895.0 3.0403e-14
4895.79 3.0517e-14
4896.58 3.0282e-14
4897.37 3.02e-14
4898.16 3.0469e-14
4898.94 3.046e-14
4899.73 3.0298e-14
4900.52 3.0272e-14
4901.31 3.0473e-14
4902.09 3.0426e-14
4902.88 3.046e-14
4903.67 3.0402e-14
4904.46 3.0603e-14
4905.24 3.0257e-14
4906.03 3.0423e-14
4906.82 3.018e-14
4907.61 3.0148e-14
4908.4 3.009e-14
4909.18 3.0235e-14
4909.97 3.053e-14
4910.76 3.0648e-14
4911.55 3.0023e-14
4912.33 3.0463e-14
4913.12 3.0329e-14
4913.91 3.0258e-14
4914.7 3.031e-14
4915.48 3.0205e-14
4916.27 3.0531e-14
4917.06 3.019e-14
4917.85 3.0334e-14
4918.64 3.0543e-14
4919.42 3.0493e-14
4920.21 3.0322e-14
4921.0 3.0388e-14
4921.79 3.0133e-14
4922.57 3.0418e-14
4923.36 3.0502e-14
4924.15 3.0324e-14
4924.94 3.056e-14
4925.72 3.0649e-14
4926.51 3.026e-14
4927.3 3.0599e-14
4928.09 3.0447e-14
4928.88 3.0658e-14
4929.66 3.0619e-14
4930.45 3.0334e-14
4931.24 3.0181e-14
4932.03 3.0517e-14
4932.81 3.0659e-14
4933.6 3.0294e-14
4934.39 3.0545e-14
4935.18 3.0333e-14
4935.96 3.055e-14
4936.75 3.0637e-14
4937.54 3.0545e-14
4938.33 3.076e-14
4939.12 3.0576e-14
4939.9 3.0606e-14
4940.69 3.1049e-14
4941.48 3.0565e-14
4942.27 3.0973e-14
4943.05 3.1005e-14
4943.84 3.1048e-14
4944.63 3.0936e-14
4945.42 3.0899e-14
4946.2 3.0936e-14
4946.99 3.1264e-14
4947.78 3.1133e-14
4948.57 3.1303e-14
4949.36 3.1233e-14
4950.14 3.1207e-14
4950.93 3.095e-14
4951.72 3.0992e-14
4952.51 3.1064e-14
4953.29 3.1246e-14
4954.08 3.107e-14
4954.87 3.1123e-14
4955.66 3.1157e-14
4956.44 3.1146e-14
4957.23 3.121e-14
4958.02 3.1492e-14
4958.81 3.1397e-14
4959.6 3.1215e-14
4960.38 3.1427e-14
4961.17 3.135e-14
4961.96 3.1139e-14
4962.75 3.1415e-14
4963.53 3.1414e-14
4964.32 3.1271e-14
4965.11 3.1398e-14
4965.9 3.1306e-14
4966.68 3.1136e-14
4967.47 3.1542e-14
4968.26 3.1371e-14
4969.05 3.153e-14
4969.84 3.149e-14
4970.62 3.1504e-14
4971.41 3.1195e-14
4972.2 3.1426e-14
4972.99 3.148e-14
4973.77 3.1518e-14
4974.56 3.1533e-14
4975.35 3.0922e-14
4976.14 3.094e-14
4976.92 3.1291e-14
4977.71 3.1187e-14
4978.5 3.0841e-14
4979.29 3.0851e-14
4980.08 3.0889e-14
4980.86 3.08e-14
4981.65 3.0689e-14
4982.44 3.0718e-14
4983.23 3.0763e-14
4984.01 3.0511e-14
4984.8 3.0644e-14
4985.59 3.0374e-14
4986.38 3.0329e-14
4987.16 3.0209e-14
4987.95 3.0203e-14
4988.74 2.9936e-14
4989.53 2.9817e-14
4990.32 3.0043e-14
4991.1 2.9804e-14
4991.89 2.9602e-14
4992.68 2.9276e-14
4993.47 2.9209e-14
4994.25 2.9137e-14
4995.04 2.8944e-14
4995.83 2.8533e-14
4996.62 2.864e-14
4997.4 2.8337e-14
4998.19 2.8393e-14
4998.98 2.8211e-14
4999.77 2.8037e-14
5000.56 2.785e-14
5001.34 2.7591e-14
5002.13 2.7619e-14
5002.92 2.7767e-14
5003.71 2.7419e-14
5004.49 2.7398e-14
5005.28 2.7429e-14
5006.07 2.694e-14
5006.86 2.6849e-14
5007.64 2.6777e-14
5008.43 2.6711e-14
5009.22 2.6641e-14
5010.01 2.6381e-14
5010.8 2.6394e-14
5011.58 2.5967e-14
5012.37 2.6243e-14
5013.16 2.5931e-14
5013.95 2.588e-14
5014.73 2.5655e-14
5015.52 2.553e-14
5016.31 2.5512e-14
5017.1 2.5285e-14
5017.88 2.5682e-14
5018.67 2.5152e-14
5019.46 2.5149e-14
5020.25 2.5255e-14
5021.04 2.4969e-14
5021.82 2.493e-14
5022.61 2.5023e-14
5023.4 2.4612e-14
5024.19 2.4849e-14
5024.97 2.4801e-14
5025.76 2.4848e-14
5026.55 2.4893e-14
5027.34 2.4617e-14
5028.12 2.4635e-14
5028.91 2.4704e-14
5029.7 2.4323e-14
5030.49 2.4766e-14
5031.28 2.4787e-14
5032.06 2.4578e-14
5032.85 2.4489e-14
5033.64 2.438e-14
5034.43 2.4163e-14
5035.21 2.4427e-14
5036.0 2.3025e-14
5036.79 2.3211e-14
5037.58 2.2496e-14
5038.36 2.216e-14
5039.15 2.2297e-14
5039.94 2.2449e-14
5040.73 2.2477e-14
5041.52 2.2791e-14
5042.3 2.3303e-14
5043.09 2.3163e-14
5043.88 2.3893e-14
5044.67 2.4092e-14
5045.45 2.3953e-14
5046.24 2.4404e-14
5047.03 2.4319e-14
5047.82 2.4267e-14
5048.6 2.457e-14
5049.39 2.4304e-14
5050.18 2.4175e-14
5050.97 2.4054e-14
5051.76 2.4272e-14
5052.54 2.439e-14
5053.33 2.4212e-14
5054.12 2.4275e-14
5054.91 2.4255e-14
5055.69 2.4554e-14
5056.48 2.4393e-14
5057.27 2.4523e-14
5058.06 2.4406e-14
5058.84 2.4166e-14
5059.63 2.4159e-14
5060.42 2.4408e-14
5061.21 2.4498e-14
5062.0 2.487e-14
5062.78 2.4556e-14
5063.57 2.4567e-14
5064.36 2.47e-14
5065.15 2.4487e-14
5065.93 2.4669e-14
5066.72 2.458e-14
5067.51 2.4781e-14
5068.3 2.4955e-14
5069.08 2.4575e-14
5069.87 2.5017e-14
5070.66 2.4921e-14
5071.45 2.4934e-14
5072.24 2.4871e-14
5073.02 2.5005e-14
5073.81 2.4957e-14
5074.6 2.5058e-14
5075.39 2.5298e-14
5076.17 2.5208e-14
5076.96 2.5076e-14
5077.75 2.5284e-14
5078.54 2.5446e-14
5079.32 2.5689e-14
5080.11 2.5526e-14
5080.9 2.5435e-14
5081.69 2.5426e-14
5082.48 2.5545e-14
5083.26 2.574e-14
5084.05 2.6019e-14
5084.84 2.6022e-14
5085.63 2.5947e-14
5086.41 2.5991e-14
5087.2 2.6045e-14
5087.99 2.6021e-14
5088.78 2.5935e-14
5089.56 2.5863e-14
5090.35 2.6206e-14
5091.14 2.6417e-14
5091.93 2.6233e-14
5092.72 2.6417e-14
5093.5 2.6373e-14
5094.29 2.654e-14
5095.08 2.646e-14
5095.87 2.6348e-14
5096.65 2.6427e-14
5097.44 2.6748e-14
5098.23 2.638e-14
5099.02 2.6558e-14
5099.8 2.659e-14
5100.59 2.6636e-14
5101.38 2.7042e-14
5102.17 2.666e-14
5102.96 2.6767e-14
5103.74 2.6941e-14
5104.53 2.696e-14
5105.32 2.6849e-14
5106.11 2.682e-14
5106.89 2.6738e-14
5107.68 2.7028e-14
5108.47 2.6884e-14
5109.26 2.7157e-14
5110.04 2.6803e-14
5110.83 2.6878e-14
5111.62 2.6992e-14
5112.41 2.674e-14
5113.2 2.7178e-14
5113.98 2.7389e-14
5114.77 2.7317e-14
5115.56 2.6999e-14
5116.35 2.6799e-14
5117.13 2.7036e-14
5117.92 2.7165e-14
5118.71 2.7041e-14
5119.5 2.7052e-14
5120.28 2.7095e-14
5121.07 2.7142e-14
5121.86 2.702e-14
5122.65 2.7242e-14
5123.44 2.7284e-14
5124.22 2.7292e-14
5125.01 2.7335e-14
5125.8 2.7227e-14
5126.59 2.7526e-14
5127.37 2.7229e-14
5128.16 2.7416e-14
5128.95 2.7206e-14
5129.74 2.7593e-14
5130.52 2.7452e-14
5131.31 2.7561e-14
5132.1 2.749e-14
5132.89 2.7453e-14
5133.68 2.7732e-14
5134.46 2.7657e-14
5135.25 2.757e-14
5136.04 2.7483e-14
5136.83 2.756e-14
5137.61 2.7369e-14
5138.4 2.7688e-14
5139.19 2.7585e-14
5139.98 2.7492e-14
5140.76 2.7568e-14
5141.55 2.7648e-14
5142.34 2.7517e-14
5143.13 2.7188e-14
5143.92 2.7352e-14
5144.7 2.7512e-14
5145.49 2.7194e-14
5146.28 2.7358e-14
5147.07 2.7242e-14
5147.85 2.725e-14
5148.64 2.7308e-14
5149.43 2.7098e-14
5150.22 2.7091e-14
5151.0 2.7403e-14
5151.79 2.7472e-14
5152.58 2.7353e-14
5153.37 2.7058e-14
5154.16 2.6937e-14
5154.94 2.7446e-14
5155.73 2.8016e-14
5156.52 2.7242e-14
5157.31 2.7327e-14
5158.09 2.7025e-14
5158.88 2.7168e-14
5159.67 2.7207e-14
5160.46 2.7005e-14
5161.24 2.7293e-14
5162.03 2.7556e-14
5162.82 2.7067e-14
5163.61 2.7328e-14
5164.4 2.7102e-14
5165.18 2.7182e-14
5165.97 2.7096e-14
5166.76 2.7309e-14
5167.55 2.716e-14
5168.33 2.7101e-14
5169.12 2.7331e-14
5169.91 2.7064e-14
5170.7 2.7388e-14
5171.48 2.7448e-14
5172.27 2.7496e-14
5173.06 2.7271e-14
5173.85 2.751e-14
5174.64 2.75e-14
5175.42 2.718e-14
5176.21 2.7352e-14
5177.0 2.7139e-14
5177.79 2.7438e-14
5178.57 2.7448e-14
5179.36 2.7529e-14
5180.15 2.7728e-14
5180.94 2.7333e-14
5181.72 2.7432e-14
5182.51 2.7428e-14
5183.3 2.7418e-14
5184.09 2.7533e-14
5184.88 2.7507e-14
5185.66 2.7694e-14
5186.45 2.7545e-14
5187.24 2.7504e-14
5188.03 2.7719e-14
5188.81 2.7755e-14
5189.6 2.7845e-14
5190.39 2.7813e-14
5191.18 2.8205e-14
5191.96 2.8137e-14
5192.75 2.8006e-14
5193.54 2.7987e-14
5194.33 2.7718e-14
5195.12 2.7884e-14
5195.9 2.7933e-14
5196.69 2.7922e-14
5197.48 2.8046e-14
5198.27 2.8077e-14
5199.05 2.8184e-14
5199.84 2.8377e-14
5200.63 2.7987e-14
5201.42 2.8272e-14
5202.2 2.7991e-14
5202.99 2.8167e-14
5203.78 2.8161e-14
5204.57 2.8368e-14
5205.36 2.8055e-14
5206.14 2.8347e-14
5206.93 2.8321e-14
5207.72 2.8549e-14
5208.51 2.8614e-14
5209.29 2.8629e-14
5210.08 2.8608e-14
5210.87 2.85e-14
5211.66 2.8603e-14
5212.44 2.875e-14
5213.23 2.8874e-14
5214.02 2.8883e-14
5214.81 2.8528e-14
5215.6 2.8674e-14
5216.38 2.878e-14
5217.17 2.893e-14
5217.96 2.8724e-14
5218.75 2.8816e-14
5219.53 2.8913e-14
5220.32 2.9103e-14
5221.11 2.9004e-14
5221.9 2.8873e-14
5222.69 2.8937e-14
5223.47 2.9149e-14
5224.26 2.9135e-14
5225.05 2.909e-14
5225.84 2.9151e-14
5226.62 2.9013e-14
5227.41 2.9205e-14
5228.2 2.8961e-14
5228.99 2.92e-14
5229.77 2.937e-14
5230.56 2.9378e-14
5231.35 2.905e-14
5232.14 2.9373e-14
5232.93 2.9329e-14
5233.71 2.9404e-14
5234.5 2.9361e-14
5235.29 2.9354e-14
5236.08 2.9135e-14
5236.86 2.9332e-14
5237.65 2.9295e-14
5238.44 2.9554e-14
5239.23 2.9365e-14
5240.01 2.9616e-14
5240.8 2.9384e-14
5241.59 2.9412e-14
5242.38 2.9686e-14
5243.17 2.9552e-14
5243.95 2.9523e-14
5244.74 2.951e-14
5245.53 2.9528e-14
5246.32 2.9593e-14
5247.1 2.9635e-14
5247.89 2.9516e-14
5248.68 2.9647e-14
5249.47 2.9687e-14
5250.25 2.9469e-14
5251.04 2.9649e-14
5251.83 2.9623e-14
5252.62 2.9561e-14
5253.41 2.9555e-14
5254.19 2.9922e-14
5254.98 2.9995e-14
5255.77 2.9815e-14
5256.56 2.9648e-14
5257.34 2.9728e-14
5258.13 2.983e-14
5258.92 2.9672e-14
5259.71 2.9453e-14
5260.49 2.993e-14
5261.28 2.9702e-14
5262.07 2.9954e-14
5262.86 2.9748e-14
5263.65 3.0008e-14
5264.43 3.0068e-14
5265.22 3.0135e-14
5266.01 3.0055e-14
5266.8 3.0145e-14
5267.58 2.9868e-14
5268.37 3.0108e-14
5269.16 2.9925e-14
5269.95 2.9875e-14
5270.73 3.0066e-14
5271.52 3.0081e-14
5272.31 3.0085e-14
5273.1 3.0024e-14
5273.89 2.9978e-14
5274.67 3.0292e-14
5275.46 3.0286e-14
5276.25 3.0179e-14
5277.04 3.0147e-14
5277.82 2.9881e-14
5278.61 3.0123e-14
5279.4 3.0383e-14
5280.19 2.9997e-14
5280.97 3.0058e-14
5281.76 3.0194e-14
5282.55 3.0309e-14
5283.34 3.0344e-14
5284.13 3.024e-14
5284.91 3.0214e-14
5285.7 3.0074e-14
5286.49 3.0035e-14
5287.28 3.0131e-14
5288.06 2.9924e-14
5288.85 3.0397e-14
5289.64 2.984e-14
5290.43 3.0157e-14
5291.21 3.0067e-14
5292.0 3.0185e-14
5292.79 2.9914e-14
5293.58 2.9965e-14
5294.37 3.0107e-14
5295.15 2.9764e-14
5295.94 2.9816e-14
5296.73 2.9885e-14
5297.52 3.0031e-14
5298.3 3.0093e-14
5299.09 2.9814e-14
5299.88 3.0004e-14
5300.67 3.0089e-14
5301.45 2.9627e-14
5302.24 2.9661e-14
5303.03 2.9922e-14
5303.82 2.9643e-14
5304.61 2.9819e-14
5305.39 2.9763e-14
5306.18 2.9891e-14
5306.97 2.9721e-14
5307.76 2.952e-14
5308.54 2.9709e-14
5309.33 2.96e-14
5310.12 2.97e-14
5310.91 2.9679e-14
5311.69 2.9647e-14
5312.48 2.957e-14
5313.27 2.9612e-14
5314.06 2.9606e-14
5314.85 2.9626e-14
5315.63 2.9321e-14
5316.42 2.9719e-14
5317.21 2.9756e-14
5318.0 2.9422e-14
5318.78 2.9708e-14
5319.57 2.939e-14
5320.36 2.9402e-14
5321.15 2.9372e-14
5321.93 2.9291e-14
5322.72 2.9441e-14
5323.51 2.919e-14
5324.3 2.9325e-14
5325.09 2.9266e-14
5325.87 2.9282e-14
5326.66 2.9495e-14
5327.45 2.944e-14
5328.24 2.9424e-14
5329.02 2.9639e-14
5329.81 2.9422e-14
5330.6 2.9326e-14
5331.39 2.8977e-14
5332.17 2.9116e-14
5332.96 2.9262e-14
5333.75 2.9047e-14
5334.54 2.8907e-14
5335.33 2.9208e-14
5336.11 2.8809e-14
5336.9 2.88e-14
5337.69 2.9077e-14
5338.48 2.8866e-14
5339.26 2.8965e-14
5340.05 2.8956e-14
5340.84 2.8928e-14
5341.63 2.883e-14
5342.41 2.8875e-14
5343.2 2.8835e-14
5343.99 2.886e-14
5344.78 2.9105e-14
5345.57 2.8777e-14
5346.35 2.9039e-14
5347.14 2.8713e-14
5347.93 2.8892e-14
5348.72 2.8908e-14
5349.5 2.8737e-14
5350.29 2.9086e-14
5351.08 2.8734e-14
5351.87 2.8749e-14
5352.65 2.8656e-14
5353.44 2.8687e-14
5354.23 2.8618e-14
5355.02 2.8963e-14
5355.81 2.8676e-14
5356.59 2.8659e-14
5357.38 2.851e-14
5358.17 2.8676e-14
5358.96 2.8582e-14
5359.74 2.8527e-14
5360.53 2.8321e-14
5361.32 2.8431e-14
5362.11 2.8343e-14
5362.89 2.8335e-14
5363.68 2.8418e-14
5364.47 2.8296e-14
5365.26 2.8304e-14
5366.05 2.825e-14
5366.83 2.8562e-14
5367.62 2.8295e-14
5368.41 2.8168e-14
5369.2 2.8178e-14
5369.98 2.8283e-14
5370.77 2.8113e-14
5371.56 2.8338e-14
5372.35 2.8367e-14
5373.13 2.8225e-14
5373.92 2.8212e-14
5374.71 2.8195e-14
5375.5 2.8276e-14
5376.29 2.816e-14
5377.07 2.7922e-14
5377.86 2.8167e-14
5378.65 2.8051e-14
5379.44 2.802e-14
5380.22 2.8404e-14
5381.01 2.8103e-14
5381.8 2.7837e-14
5382.59 2.7971e-14
5383.37 2.8072e-14
5384.16 2.7704e-14
5384.95 2.7927e-14
5385.74 2.7972e-14
5386.53 2.8156e-14
5387.31 2.8045e-14
5388.1 2.8179e-14
5388.89 2.8199e-14
5389.68 2.7983e-14
5390.46 2.7933e-14
5391.25 2.8077e-14
5392.04 2.778e-14
5392.83 2.8129e-14
5393.61 2.7919e-14
5394.4 2.8004e-14
5395.19 2.8008e-14
5395.98 2.7871e-14
5396.77 2.7852e-14
5397.55 2.806e-14
5398.34 2.8113e-14
5399.13 2.7814e-14
5399.92 2.8027e-14
5400.7 2.7788e-14
5401.49 2.78e-14
5402.28 2.8122e-14
5403.07 2.7911e-14
5403.85 2.8117e-14
5404.64 2.7846e-14
5405.43 2.7673e-14
5406.22 2.7901e-14
5407.01 2.7849e-14
5407.79 2.7673e-14
5408.58 2.7636e-14
5409.37 2.7899e-14
5410.16 2.7889e-14
5410.94 2.7561e-14
5411.73 2.7675e-14
5412.52 2.7566e-14
5413.31 2.7731e-14
5414.09 2.7889e-14
5414.88 2.7372e-14
5415.67 2.7606e-14
5416.46 2.7727e-14
5417.25 2.7768e-14
5418.03 2.7874e-14
5418.82 2.7596e-14
5419.61 2.759e-14
5420.4 2.7842e-14
5421.18 2.785e-14
5421.97 2.7604e-14
5422.76 2.7935e-14
5423.55 2.7885e-14
5424.33 2.7678e-14
5425.12 2.7516e-14
5425.91 2.7381e-14
5426.7 2.7677e-14
5427.49 2.7797e-14
5428.27 2.7855e-14
5429.06 2.7793e-14
5429.85 2.7746e-14
5430.64 2.7791e-14
5431.42 2.793e-14
5432.21 2.7757e-14
5433.0 2.7852e-14
5433.79 2.683e-14
5434.57 2.8014e-14
5435.36 2.7935e-14
5436.15 2.8054e-14
5436.94 2.7686e-14
5437.73 2.7913e-14
5438.51 2.8163e-14
5439.3 2.8282e-14
5440.09 2.7993e-14
5440.88 2.8162e-14
5441.66 2.7795e-14
5442.45 2.8035e-14
5443.24 2.8001e-14
5444.03 2.8131e-14
5444.81 2.7932e-14
5445.6 2.7906e-14
5446.39 2.7996e-14
5447.18 2.8318e-14
5447.97 2.7992e-14
5448.75 2.8265e-14
5449.54 2.8187e-14
5450.33 2.8178e-14
5451.12 2.7954e-14
5451.9 2.8234e-14
5452.69 2.7992e-14
5453.48 2.82e-14
5454.27 2.8426e-14
5455.05 2.8299e-14
5455.84 2.8053e-14
5456.63 2.8061e-14
5457.42 2.8077e-14
5458.21 2.8045e-14
5458.99 2.8218e-14
5459.78 2.8052e-14
5460.57 2.8539e-14
5461.36 2.8181e-14
5462.14 2.8004e-14
5462.93 2.7978e-14
5463.72 2.7889e-14
5464.51 2.7782e-14
5465.29 2.8068e-14
5466.08 2.7895e-14
5466.87 2.7739e-14
5467.66 2.7629e-14
5468.45 2.7874e-14
5469.23 2.778e-14
5470.02 2.7915e-14
5470.81 2.7743e-14
5471.6 2.7827e-14
5472.38 2.8059e-14
5473.17 2.7762e-14
5473.96 2.7692e-14
5474.75 2.7812e-14
5475.53 2.7882e-14
5476.32 2.7787e-14
5477.11 2.7768e-14
5477.9 2.8012e-14
5478.69 2.7744e-14
5479.47 2.7824e-14
5480.26 2.7654e-14
5481.05 2.7809e-14
5481.84 2.7306e-14
5482.62 2.7658e-14
5483.41 2.7486e-14
5484.2 2.7627e-14
5484.99 2.7529e-14
5485.77 2.7551e-14
5486.56 2.7515e-14
5487.35 2.7565e-14
5488.14 2.7399e-14
5488.93 2.7434e-14
5489.71 2.7504e-14
5490.5 2.7433e-14
5491.29 2.7463e-14
5492.08 2.7654e-14
5492.86 2.723e-14
5493.65 2.7344e-14
5494.44 2.7245e-14
5495.23 2.7248e-14
5496.01 2.7382e-14
5496.8 2.7161e-14
5497.59 2.7346e-14
5498.38 2.7068e-14
5499.17 2.7193e-14
5499.95 2.7341e-14
5500.74 2.725e-14
5501.53 2.7072e-14
5502.32 2.6798e-14
5503.1 2.7142e-14
5503.89 2.706e-14
5504.68 2.7072e-14
5505.47 2.7121e-14
5506.25 2.6903e-14
5507.04 2.7077e-14
5507.83 2.7019e-14
5508.62 2.6949e-14
5509.41 2.7122e-14
5510.19 2.684e-14
5510.98 2.683e-14
5511.77 2.6792e-14
5512.56 2.673e-14
5513.34 2.6703e-14
5514.13 2.6769e-14
5514.92 2.6882e-14
5515.71 2.6614e-14
5516.49 2.6669e-14
5517.28 2.6381e-14
5518.07 2.6158e-14
5518.86 2.6319e-14
5519.65 2.6457e-14
5520.43 2.6471e-14
5521.22 2.6451e-14
5522.01 2.6475e-14
5522.8 2.6222e-14
5523.58 2.6633e-14
5524.37 2.6364e-14
5525.16 2.6538e-14
5525.95 2.6576e-14
5526.73 2.5976e-14
5527.52 2.6168e-14
5528.31 2.6315e-14
5529.1 2.6212e-14
5529.89 2.6094e-14
5530.67 2.6093e-14
5531.46 2.6127e-14
5532.25 2.5976e-14
5533.04 2.5915e-14
5533.82 2.5907e-14
5534.61 2.5814e-14
5535.4 2.5786e-14
5536.19 2.5663e-14
5536.97 2.5798e-14
5537.76 2.5551e-14
5538.55 2.5469e-14
5539.34 2.5689e-14
5540.13 2.5492e-14
5540.91 2.563e-14
5541.7 2.5957e-14
5542.49 2.5388e-14
5543.28 2.5612e-14
5544.06 2.5654e-14
5544.85 2.5858e-14
5545.64 2.5442e-14
5546.43 2.507e-14
5547.21 2.5449e-14
5548.0 2.5163e-14
5548.79 2.5438e-14
5549.58 2.5308e-14
5550.37 2.5411e-14
5551.15 2.5235e-14
5551.94 2.5479e-14
5552.73 2.5274e-14
5553.52 2.5225e-14
5554.3 2.5305e-14
5555.09 2.5375e-14
5555.88 2.5137e-14
5556.67 2.4939e-14
5557.45 2.5324e-14
5558.24 2.5376e-14
5559.03 2.5205e-14
5559.82 2.5286e-14
5560.61 2.518e-14
5561.39 2.555e-14
5562.18 2.5424e-14
5562.97 2.5129e-14
5563.76 2.517e-14
5564.54 2.507e-14
5565.33 2.5236e-14
5566.12 2.5553e-14
5566.91 2.5331e-14
5567.69 2.5306e-14
5568.48 2.525e-14
5569.27 2.5318e-14
5570.06 2.5104e-14
5570.85 2.5349e-14
5571.63 2.544e-14
5572.42 2.5319e-14
5573.21 2.5334e-14
5574.0 2.5558e-14
5574.78 2.5528e-14
5575.57 2.5612e-14
5576.36 2.5388e-14
5577.15 2.5334e-14
5577.93 2.5332e-14
5578.72 2.5208e-14
5579.51 2.5567e-14
5580.3 2.5519e-14
5581.09 2.5452e-14
5581.87 2.5369e-14
5582.66 2.5597e-14
5583.45 2.5667e-14
5584.24 2.5616e-14
5585.02 2.5557e-14
5585.81 2.5354e-14
5586.6 2.5551e-14
5587.39 2.5789e-14
5588.17 2.5499e-14
5588.96 2.5652e-14
5589.75 2.5752e-14
5590.54 2.5858e-14
5591.33 2.5508e-14
5592.11 2.5561e-14
5592.9 2.5618e-14
5593.69 2.5669e-14
5594.48 2.6027e-14
5595.26 2.5566e-14
5596.05 2.5615e-14
5596.84 2.578e-14
5597.63 2.553e-14
5598.41 2.5615e-14
5599.2 2.5469e-14
5599.99 2.5581e-14
5600.54 2.5943e-14
5601.8 2.5621e-14
5603.05 2.5592e-14
5604.3 2.6077e-14
5605.56 2.6241e-14
5606.81 2.5989e-14
5608.06 2.59e-14
5609.32 2.606e-14
5610.57 2.5814e-14
5611.82 2.594e-14
5613.08 2.6127e-14
5614.33 2.6048e-14
5615.58 2.6022e-14
5616.84 2.6055e-14
5618.09 2.5949e-14
5619.34 2.5951e-14
5620.6 2.6013e-14
5621.85 2.6007e-14
5623.1 2.5957e-14
5624.36 2.607e-14
5625.61 2.6043e-14
5626.86 2.6064e-14
5628.12 2.5718e-14
5629.37 2.5825e-14
5630.62 2.5458e-14
5631.88 2.557e-14
5633.13 2.5705e-14
5634.38 2.5794e-14
5635.64 2.5698e-14
5636.89 2.5497e-14
5638.14 2.5583e-14
5639.4 2.5532e-14
5640.65 2.5539e-14
5641.9 2.5568e-14
5643.16 2.5465e-14
5644.41 2.5426e-14
5645.66 2.5468e-14
5646.92 2.5406e-14
5648.17 2.5243e-14
5649.42 2.5449e-14
5650.68 2.5188e-14
5651.93 2.5323e-14
5653.18 2.5136e-14
5654.44 2.5194e-14
5655.69 2.5236e-14
5656.94 2.5122e-14
5658.2 2.4961e-14
5659.45 2.5158e-14
5660.7 2.4869e-14
5661.96 2.4838e-14
5663.21 2.4885e-14
5664.46 2.496e-14
5665.72 2.4793e-14
5666.97 2.4514e-14
5668.22 2.4562e-14
5669.48 2.4264e-14
5670.73 2.4528e-14
5671.98 2.4432e-14
5673.24 2.4265e-14
5674.49 2.4166e-14
5675.75 2.4447e-14
5677.0 2.4337e-14
5678.25 2.4058e-14
5679.51 2.404e-14
5680.76 2.3869e-14
5682.01 2.385e-14
5683.27 2.3909e-14
5684.52 2.3833e-14
5685.77 2.3652e-14
5687.03 2.3733e-14
5688.28 2.3671e-14
5689.53 2.3727e-14
5690.79 2.3493e-14
5692.04 2.3622e-14
5693.29 2.3528e-14
5694.55 2.3539e-14
5695.8 2.351e-14
5697.05 2.3602e-14
5698.31 2.3488e-14
5699.56 2.3392e-14
5700.81 2.3433e-14
5702.07 2.3252e-14
5703.32 2.3308e-14
5704.57 2.3343e-14
5705.83 2.3298e-14
5707.08 2.3456e-14
5708.33 2.3243e-14
5709.59 2.3333e-14
5710.84 2.3431e-14
5712.09 2.3189e-14
5713.35 2.3323e-14
5714.6 2.3343e-14
5715.85 2.3159e-14
5717.11 2.3034e-14
5718.36 2.3015e-14
5719.61 2.3081e-14
5720.87 2.3096e-14
5722.12 2.3098e-14
5723.37 2.3129e-14
5724.63 2.2962e-14
5725.88 2.3076e-14
5727.13 2.3086e-14
5728.39 2.3004e-14
5729.64 2.292e-14
5730.89 2.2921e-14
5732.15 2.3117e-14
5733.4 2.3119e-14
5734.65 2.3046e-14
5735.91 2.3053e-14
5737.16 2.2962e-14
5738.41 2.2863e-14
5739.67 2.2843e-14
5740.92 2.3024e-14
5742.17 2.2871e-14
5743.43 2.2927e-14
5744.68 2.2758e-14
5745.93 2.2741e-14
5747.19 2.2557e-14
5748.44 2.2713e-14
5749.69 2.2797e-14
5750.95 2.2804e-14
5752.2 2.2776e-14
5753.46 2.2799e-14
5754.71 2.29e-14
5755.96 2.2681e-14
5757.22 2.2766e-14
5758.47 2.2802e-14
5759.72 2.2841e-14
5760.98 2.2802e-14
5762.23 2.2902e-14
5763.48 2.2679e-14
5764.74 2.2824e-14
5765.99 2.3111e-14
5767.24 2.2949e-14
5768.5 2.2926e-14
5769.75 2.3012e-14
5771.0 2.3094e-14
5772.26 2.3057e-14
5773.51 2.3024e-14
5774.76 2.3226e-14
5776.02 2.3052e-14
5777.27 2.3131e-14
5778.52 2.2986e-14
5779.78 2.3063e-14
5781.03 2.3055e-14
5782.28 2.3058e-14
5783.54 2.3318e-14
5784.79 2.3411e-14
5786.04 2.3525e-14
5787.3 2.3692e-14
5788.55 2.3806e-14
5789.8 2.355e-14
5791.06 2.3505e-14
5792.31 2.3739e-14
5793.56 2.3856e-14
5794.82 2.3876e-14
5796.07 2.3909e-14
5797.32 2.4026e-14
5798.58 2.3992e-14
5799.83 2.4145e-14
5801.08 2.4284e-14
5802.34 2.4232e-14
5803.59 2.3954e-14
5804.84 2.4136e-14
5806.1 2.4135e-14
5807.35 2.4245e-14
5808.6 2.4145e-14
5809.86 2.4252e-14
5811.11 2.434e-14
5812.36 2.4303e-14
5813.62 2.4401e-14
5814.87 2.4315e-14
5816.12 2.429e-14
5817.38 2.4125e-14
5818.63 2.4069e-14
5819.88 2.4094e-14
5821.14 2.4185e-14
5822.39 2.4164e-14
5823.64 2.4307e-14
5824.9 2.4039e-14
5826.15 2.3971e-14
5827.4 2.3999e-14
5828.66 2.3955e-14
5829.91 2.4058e-14
5831.17 2.4035e-14
5832.42 2.4023e-14
5833.67 2.41e-14
5834.93 2.389e-14
5836.18 2.3984e-14
5837.43 2.3923e-14
5838.69 2.379e-14
5839.94 2.3786e-14
5841.19 2.3768e-14
5842.45 2.3866e-14
5843.7 2.3796e-14
5844.95 2.361e-14
5846.21 2.3721e-14
5847.46 2.3717e-14
5848.71 2.371e-14
5849.97 2.3821e-14
5851.22 2.3691e-14
5852.47 2.3642e-14
5853.73 2.3709e-14
5854.98 2.355e-14
5856.23 2.3759e-14
5857.49 2.3735e-14
5858.74 2.3684e-14
5859.99 2.3849e-14
5861.25 2.3736e-14
5862.5 2.374e-14
5863.75 2.3639e-14
5865.01 2.3644e-14
5866.26 2.376e-14
5867.51 2.3706e-14
5868.77 2.3671e-14
5870.02 2.3662e-14
5871.27 2.3815e-14
5872.53 2.3758e-14
5873.78 2.3816e-14
5875.03 2.3839e-14
5876.29 2.3722e-14
5877.54 2.3647e-14
5878.79 2.3792e-14
5880.05 2.3731e-14
5881.3 2.351e-14
5882.55 2.3455e-14
5883.81 2.3403e-14
5885.06 2.3393e-14
5886.31 2.3266e-14
5887.57 2.2868e-14
5888.82 2.2039e-14
5890.07 2.097e-14
5891.33 2.1516e-14
5892.58 2.2723e-14
5893.83 2.3044e-14
5895.09 2.2417e-14
5896.34 2.1567e-14
5897.59 2.2211e-14
5898.85 2.2917e-14
5900.1 2.2702e-14
5901.35 2.2667e-14
5902.61 2.2718e-14
5903.86 2.3191e-14
5905.11 2.3428e-14
5906.37 2.3412e-14
5907.62 2.3101e-14
5908.88 2.2985e-14
5910.13 2.3167e-14
5911.38 2.3028e-14
5912.64 2.3157e-14
5913.89 2.3032e-14
5915.14 2.3074e-14
5916.4 2.3109e-14
5917.65 2.3057e-14
5918.9 2.2739e-14
5920.16 2.2284e-14
5921.41 2.2536e-14
5922.66 2.2962e-14
5923.92 2.2657e-14
5925.17 2.2479e-14
5926.42 2.2953e-14
5927.68 2.3203e-14
5928.93 2.3189e-14
5930.18 2.3086e-14
5931.44 2.3077e-14
5932.69 2.2922e-14
5933.94 2.2885e-14
5935.2 2.2946e-14
5936.45 2.299e-14
5937.7 2.3045e-14
5938.96 2.3006e-14
5940.21 2.2774e-14
5941.46 2.2333e-14
5942.72 2.182e-14
5943.97 2.2066e-14
5945.22 2.2367e-14
5946.48 2.2011e-14
5947.73 2.2066e-14
5948.98 2.2139e-14
5950.24 2.2124e-14
5951.49 2.2184e-14
5952.74 2.2527e-14
5954.0 2.256e-14
5955.25 2.2477e-14
5956.5 2.2314e-14
5957.76 2.2021e-14
5959.01 2.2036e-14
5960.26 2.2197e-14
5961.52 2.23e-14
5962.77 2.2348e-14
5964.02 2.2301e-14
5965.28 2.2404e-14
5966.53 2.2246e-14
5967.78 2.1803e-14
5969.04 2.1504e-14
5970.29 2.1789e-14
5971.54 2.2062e-14
5972.8 2.2153e-14
5974.05 2.2105e-14
5975.3 2.2002e-14
5976.56 2.177e-14
5977.81 2.1676e-14
5979.06 2.1671e-14
5980.32 2.2083e-14
5981.57 2.211e-14
5982.82 2.1952e-14
5984.08 2.1841e-14
5985.33 2.1808e-14
5986.59 2.1761e-14
5987.84 2.1821e-14
5989.09 2.1777e-14
5990.35 2.1659e-14
5991.6 2.1504e-14
5992.85 2.1647e-14
5994.11 2.1621e-14
5995.36 2.1614e-14
5996.61 2.1685e-14
5997.87 2.1672e-14
5999.12 2.1534e-14
6000.37 2.1617e-14
6001.63 2.155e-14
6002.88 2.1645e-14
6004.13 2.1638e-14
6005.39 2.1492e-14
6006.64 2.1594e-14
6007.89 2.167e-14
6009.15 2.1575e-14
6010.4 2.1532e-14
6011.65 2.1688e-14
6012.91 2.1611e-14
6014.16 2.1566e-14
6015.41 2.1634e-14
6016.67 2.1487e-14
6017.92 2.1595e-14
6019.17 2.1639e-14
6020.43 2.1652e-14
6021.68 2.1628e-14
6022.93 2.1677e-14
6024.19 2.169e-14
6025.44 2.1735e-14
6026.69 2.1667e-14
6027.95 2.171e-14
6029.2 2.1864e-14
6030.45 2.1728e-14
6031.71 2.1777e-14
6032.96 2.1725e-14
6034.21 2.1684e-14
6035.47 2.1864e-14
6036.72 2.1796e-14
6037.97 2.1669e-14
6039.23 2.1711e-14
6040.48 2.1732e-14
6041.73 2.1828e-14
6042.99 2.1838e-14
6044.24 2.1744e-14
6045.49 2.1726e-14
6046.75 2.1788e-14
6048.0 2.1783e-14
6049.25 2.1749e-14
6050.51 2.1721e-14
6051.76 2.1795e-14
6053.01 2.1748e-14
6054.27 2.1735e-14
6055.52 2.1768e-14
6056.77 2.1799e-14
6058.03 2.1979e-14
6059.28 2.1786e-14
6060.53 2.1753e-14
6061.79 2.1829e-14
6063.04 2.1797e-14
6064.3 2.1704e-14
6065.55 2.1828e-14
6066.8 2.1786e-14
6068.06 2.1741e-14
6069.31 2.1726e-14
6070.56 2.1629e-14
6071.82 2.1655e-14
6073.07 2.1551e-14
6074.32 2.1741e-14
6075.58 2.1796e-14
6076.83 2.1739e-14
6078.08 2.1652e-14
6079.34 2.1724e-14
6080.59 2.1727e-14
6081.84 2.1719e-14
6083.1 2.1644e-14
6084.35 2.157e-14
6085.6 2.146e-14
6086.86 2.168e-14
6088.11 2.1682e-14
6089.36 2.165e-14
6090.62 2.158e-14
6091.87 2.1589e-14
6093.12 2.1568e-14
6094.38 2.1535e-14
6095.63 2.1843e-14
6096.88 2.2345e-14
6098.14 2.1977e-14
6099.39 2.1487e-14
6100.64 2.1545e-14
6101.9 2.1488e-14
6103.15 2.1441e-14
6104.4 2.1454e-14
6105.66 2.1483e-14
6106.91 2.141e-14
6108.16 2.1357e-14
6109.42 2.1512e-14
6110.67 2.1432e-14
6111.92 2.1547e-14
6113.18 2.1488e-14
6114.43 2.1579e-14
6115.68 2.1489e-14
6116.94 2.142e-14
6118.19 2.1393e-14
6119.44 2.1438e-14
6120.7 2.1485e-14
6121.95 2.1525e-14
6123.2 2.1404e-14
6124.46 2.1408e-14
6125.71 2.1459e-14
6126.96 2.1622e-14
6128.22 2.1497e-14
6129.47 2.137e-14
6130.72 2.1528e-14
6131.98 2.1502e-14
6133.23 2.1424e-14
6134.48 2.1401e-14
6135.74 2.1448e-14
6136.99 2.1485e-14
6138.24 2.1528e-14
6139.5 2.1494e-14
6140.75 2.1474e-14
6142.01 2.1419e-14
6143.26 2.1447e-14
6144.51 2.135e-14
6145.77 2.1219e-14
6147.02 2.1188e-14
6148.27 2.1088e-14
6149.53 2.1082e-14
6150.78 2.1041e-14
6152.03 2.1094e-14
6153.29 2.0975e-14
6154.54 2.0839e-14
6155.79 2.0662e-14
6157.05 2.0652e-14
6158.3 2.0542e-14
6159.55 2.0373e-14
6160.81 2.0364e-14
6162.06 2.0329e-14
6163.31 2.0182e-14
6164.57 2.0004e-14
6165.82 1.9894e-14
6167.07 1.9816e-14
6168.33 1.9672e-14
6169.58 1.9633e-14
6170.83 1.9577e-14
6172.09 1.9479e-14
6173.34 1.9247e-14
6174.59 1.9149e-14
6175.85 1.9105e-14
6177.1 1.8949e-14
6178.35 1.8953e-14
6179.61 1.8805e-14
6180.86 1.857e-14
6182.11 1.8509e-14
6183.37 1.8357e-14
6184.62 1.8356e-14
6185.87 1.826e-14
6187.13 1.8211e-14
6188.38 1.8018e-14
6189.63 1.79e-14
6190.89 1.794e-14
6192.14 1.777e-14
6193.39 1.7721e-14
6194.65 1.7749e-14
6195.9 1.7565e-14
6197.15 1.7517e-14
6198.41 1.7383e-14
6199.66 1.7475e-14
6200.91 1.7215e-14
6202.17 1.7226e-14
6203.42 1.7107e-14
6204.67 1.7116e-14
6205.93 1.6968e-14
6207.18 1.6961e-14
6208.43 1.684e-14
6209.69 1.6865e-14
6210.94 1.6931e-14
6212.19 1.6985e-14
6213.45 1.6809e-14
6214.7 1.674e-14
6215.95 1.6716e-14
6217.21 1.6778e-14
6218.46 1.6829e-14
6219.72 1.687e-14
6220.97 1.6923e-14
6222.22 1.6893e-14
6223.48 1.6848e-14
6224.73 1.6795e-14
6225.98 1.6895e-14
6227.24 1.6924e-14
6228.49 1.6844e-14
6229.74 1.6993e-14
6231.0 1.7093e-14
6232.25 1.7066e-14
6233.5 1.7065e-14
6234.76 1.719e-14
6236.01 1.7224e-14
6237.26 1.728e-14
6238.52 1.7314e-14
6239.77 1.7277e-14
6241.02 1.7403e-14
6242.28 1.7479e-14
6243.53 1.7512e-14
6244.78 1.758e-14
6246.04 1.7775e-14
6247.29 1.7859e-14
6248.54 1.7849e-14
6249.8 1.7769e-14
6251.05 1.8082e-14
6252.3 1.8133e-14
6253.56 1.8178e-14
6254.81 1.8241e-14
6256.06 1.8253e-14
6257.32 1.8435e-14
6258.57 1.854e-14
6259.82 1.8522e-14
6261.08 1.8385e-14
6262.33 1.8601e-14
6263.58 1.8767e-14
6264.84 1.8797e-14
6266.09 1.8906e-14
6267.34 1.8934e-14
6268.6 1.8807e-14
6269.85 1.8849e-14
6271.1 1.9007e-14
6272.36 1.9071e-14
6273.61 1.9006e-14
6274.86 1.9067e-14
6276.12 1.8863e-14
6277.37 1.9039e-14
6278.62 1.8857e-14
6279.88 1.8918e-14
6281.13 1.9189e-14
6282.38 1.8877e-14
6283.64 1.8834e-14
6284.89 1.874e-14
6286.14 1.9051e-14
6287.4 1.9022e-14
6288.65 1.907e-14
6289.9 1.899e-14
6291.16 1.893e-14
6292.41 1.89e-14
6293.66 1.8825e-14
6294.92 1.9057e-14
6296.17 1.9141e-14
6297.43 1.9149e-14
6298.68 1.9244e-14
6299.93 1.9127e-14
6301.19 1.9216e-14
6302.44 1.9204e-14
6303.69 1.9238e-14
6304.95 1.9325e-14
6306.2 1.9343e-14
6307.45 1.9292e-14
6308.71 1.9384e-14
6309.96 1.9491e-14
6311.21 1.9342e-14
6312.47 1.9407e-14
6313.72 1.9473e-14
6314.97 1.9299e-14
6316.23 1.9162e-14
6317.48 1.9237e-14
6318.73 1.9249e-14
6319.99 1.9155e-14
6321.24 1.9066e-14
6322.49 1.9058e-14
6323.75 1.9137e-14
6325.0 1.8787e-14
6326.25 1.8798e-14
6327.51 1.8766e-14
6328.76 1.8685e-14
6330.01 1.8555e-14
6331.27 1.8532e-14
6332.52 1.8484e-14
6333.77 1.8372e-14
6335.03 1.8229e-14
6336.28 1.8169e-14
6337.53 1.8123e-14
6338.79 1.7833e-14
6340.04 1.7806e-14
6341.29 1.7769e-14
6342.55 1.7758e-14
6343.8 1.7554e-14
6345.05 1.7652e-14
6346.31 1.7568e-14
6347.56 1.7467e-14
6348.81 1.7357e-14
6350.07 1.7552e-14
6351.32 1.7549e-14
6352.57 1.7337e-14
6353.83 1.7484e-14
6355.08 1.7412e-14
6356.33 1.7376e-14
6357.59 1.7301e-14
6358.84 1.729e-14
6360.09 1.7278e-14
6361.35 1.7188e-14
6362.6 1.7184e-14
6363.85 1.7123e-14
6365.11 1.712e-14
6366.36 1.7191e-14
6367.61 1.7217e-14
6368.87 1.723e-14
6370.12 1.7206e-14
6371.37 1.7239e-14
6372.63 1.7207e-14
6373.88 1.7267e-14
6375.14 1.7402e-14
6376.39 1.7484e-14
6377.64 1.7643e-14
6378.9 1.7479e-14
6380.15 1.7572e-14
6381.4 1.7713e-14
6382.66 1.7813e-14
6383.91 1.7837e-14
6385.16 1.8029e-14
6386.42 1.8087e-14
6387.67 1.8025e-14
6388.92 1.8168e-14
6390.18 1.8062e-14
6391.43 1.8056e-14
6392.68 1.8184e-14
6393.94 1.8275e-14
6395.19 1.841e-14
6396.44 1.8445e-14
6397.7 1.8524e-14
6398.95 1.874e-14
6400.2 1.8851e-14
6401.46 1.8937e-14
6402.71 1.9017e-14
6403.96 1.9233e-14
6405.22 1.9272e-14
6406.47 1.95e-14
6407.72 1.9639e-14
6408.98 1.9683e-14
6410.23 1.9916e-14
6411.48 2.0135e-14
6412.74 2.0182e-14
6413.99 2.0325e-14
6415.24 2.046e-14
6416.5 2.0632e-14
6417.75 2.0875e-14
6419.0 2.1218e-14
6420.26 2.1255e-14
6421.51 2.1369e-14
6422.76 2.1661e-14
6424.02 2.1817e-14
6425.27 2.1851e-14
6426.52 2.214e-14
6427.78 2.2302e-14
6429.03 2.2616e-14
6430.28 2.2671e-14
6431.54 2.3511e-14
6432.79 2.382e-14
6434.04 2.3445e-14
6435.3 2.3512e-14
6436.55 2.3704e-14
6437.8 2.4055e-14
6439.06 2.4134e-14
6440.31 2.4275e-14
6441.56 2.4575e-14
6442.82 2.4798e-14
6444.07 2.4941e-14
6445.32 2.527e-14
6446.58 2.547e-14
6447.83 2.581e-14
6449.08 2.5961e-14
6450.34 2.6068e-14
6451.59 2.6351e-14
6452.85 2.647e-14
6454.1 2.6675e-14
6455.35 2.6909e-14
6456.61 2.7171e-14
6457.86 2.7286e-14
6459.11 2.7381e-14
6460.37 2.7295e-14
6461.62 2.7443e-14
6462.87 2.783e-14
6464.13 2.7929e-14
6465.38 2.7983e-14
6466.63 2.8092e-14
6467.89 2.8167e-14
6469.14 2.8398e-14
6470.39 2.8493e-14
6471.65 2.8795e-14
6472.9 2.8695e-14
6474.15 2.8636e-14
6475.41 2.8498e-14
6476.66 2.8178e-14
6477.91 2.8701e-14
6479.17 2.9254e-14
6480.42 2.9019e-14
6481.67 2.9385e-14
6482.93 2.9519e-14
6484.18 2.9317e-14
6485.43 2.954e-14
6486.69 2.9864e-14
6487.94 3.008e-14
6489.19 3.0118e-14
6490.45 3.0232e-14
6491.7 3.009e-14
6492.95 3.0191e-14
6494.21 3.0415e-14
6495.46 3.0567e-14
6496.71 3.0407e-14
6497.97 3.0558e-14
6499.22 3.0958e-14
6500.47 3.1242e-14
6501.73 3.1371e-14
6502.98 3.1146e-14
6504.23 3.1131e-14
6505.49 3.1229e-14
6506.74 3.131e-14
6507.99 3.1425e-14
6509.25 3.1213e-14
6510.5 3.1164e-14
6511.75 3.1153e-14
6513.01 3.1149e-14
6514.26 3.0855e-14
6515.51 3.0424e-14
6516.77 2.9851e-14
6518.02 2.9782e-14
6519.27 3.0435e-14
6520.53 3.0996e-14
6521.78 3.1341e-14
6523.03 3.1214e-14
6524.29 3.0951e-14
6525.54 3.0835e-14
6526.79 3.1168e-14
6528.05 3.1206e-14
6529.3 3.1204e-14
6530.56 3.0967e-14
6531.81 3.0798e-14
6533.06 3.0398e-14
6534.32 3.052e-14
6535.57 3.0644e-14
6536.82 3.0562e-14
6538.08 3.0671e-14
6539.33 3.0698e-14
6540.58 3.0791e-14
6541.84 3.0541e-14
6543.09 3.0282e-14
6544.34 2.9939e-14
6545.6 2.9826e-14
6546.85 2.9959e-14
6548.1 2.9815e-14
6549.36 2.9549e-14
6550.61 2.9856e-14
6551.86 2.9986e-14
6553.12 2.9623e-14
6554.37 2.944e-14
6555.62 2.9574e-14
6556.88 2.9722e-14
6558.13 2.9569e-14
6559.38 2.9494e-14
6560.64 2.9693e-14
6561.89 2.9488e-14
6563.14 2.9578e-14
6564.4 2.9319e-14
6565.65 2.9108e-14
6566.9 2.9459e-14
6568.16 2.9495e-14
6569.41 2.9266e-14
6570.66 2.9305e-14
6571.92 2.9092e-14
6573.17 2.8794e-14
6574.42 2.8827e-14
6575.68 2.8585e-14
6576.93 2.8682e-14
6578.18 2.9067e-14
6579.44 2.9356e-14
6580.69 2.9003e-14
6581.94 2.8598e-14
6583.2 2.8606e-14
6584.45 2.8822e-14
6585.7 2.858e-14
6586.96 2.8459e-14
6588.21 2.8461e-14
6589.46 2.8456e-14
6590.72 2.8438e-14
6591.97 2.8536e-14
6593.22 2.8171e-14
6594.48 2.8132e-14
6595.73 2.819e-14
6596.98 2.8114e-14
6598.24 2.7959e-14
6599.49 2.7809e-14
6600.74 2.7828e-14
6602.0 2.7812e-14
6603.25 2.7674e-14
6604.5 2.7624e-14
6605.76 2.7581e-14
6607.01 2.7404e-14
6608.27 2.7347e-14
6609.52 2.7345e-14
6610.77 2.7208e-14
6612.03 2.7005e-14
6613.28 2.6739e-14
6614.53 2.6756e-14
6615.79 2.6739e-14
6617.04 2.6791e-14
6618.29 2.664e-14
6619.55 2.6654e-14
6620.8 2.6583e-14
6622.05 2.6453e-14
6623.31 2.6337e-14
6624.56 2.6406e-14
6625.81 2.6269e-14
6627.07 2.6174e-14
6628.32 2.6015e-14
6629.57 2.5873e-14
6630.83 2.5659e-14
6632.08 2.5663e-14
6633.33 2.5443e-14
6634.59 2.5346e-14
6635.84 2.5404e-14
6637.09 2.5333e-14
6638.35 2.5114e-14
6639.6 2.4974e-14
6642.11 2.4786e-14
6643.36 2.4714e-14
6644.61 2.456e-14
6645.87 2.4437e-14
6647.12 2.4353e-14
6648.37 2.4353e-14
6649.63 2.4105e-14
6650.88 2.4188e-14
6652.13 2.4073e-14
6653.39 2.4048e-14
6654.64 2.3931e-14
6655.89 2.3883e-14
6657.15 2.3834e-14
6658.4 2.3567e-14
6659.65 2.3572e-14
6660.91 2.3353e-14
6662.16 2.3305e-14
6663.41 2.3304e-14
6664.67 2.3382e-14
6665.92 2.3362e-14
6667.17 2.3279e-14
6668.43 2.3241e-14
6669.68 2.3296e-14
6670.93 2.3262e-14
6672.19 2.315e-14
6673.44 2.3118e-14
6674.69 2.3158e-14
6675.95 2.322e-14
6677.2 2.319e-14
6678.45 2.3082e-14
6679.71 2.3072e-14
6680.96 2.2932e-14
6682.21 2.2773e-14
6683.47 2.2763e-14
6684.72 2.2723e-14
6685.98 2.2567e-14
6687.23 2.2556e-14
6688.48 2.2519e-14
6689.74 2.2376e-14
6690.99 2.2301e-14
6692.24 2.2373e-14
6693.5 2.218e-14
6694.75 2.2113e-14
6696.0 2.2164e-14
6697.26 2.2226e-14
6698.51 2.213e-14
6699.76 2.2031e-14
6701.02 2.2091e-14
6702.27 2.1983e-14
6703.52 2.187e-14
6704.78 2.1893e-14
6706.03 2.1964e-14
6707.28 2.1882e-14
6708.54 2.1725e-14
6709.79 2.1573e-14
6711.04 2.1731e-14
6712.3 2.1626e-14
6713.55 2.1637e-14
6714.8 2.1572e-14
6716.06 2.1548e-14
6717.31 2.1688e-14
6718.56 2.1503e-14
6719.82 2.1504e-14
6721.07 2.1358e-14
6722.32 2.134e-14
6723.58 2.1277e-14
6724.83 2.1254e-14
6726.08 2.132e-14
6727.34 2.1279e-14
6728.59 2.1263e-14
6729.84 2.1041e-14
6731.1 2.0937e-14
6732.35 2.1131e-14
6733.6 2.0926e-14
6734.86 2.0973e-14
6736.11 2.1049e-14
6737.36 2.0957e-14
6738.62 2.0903e-14
6739.87 2.0294e-14
6741.12 2.0763e-14
6742.38 2.0772e-14
6743.63 2.0813e-14
6744.88 2.0753e-14
6746.14 2.069e-14
6747.39 2.0596e-14
6748.64 2.0161e-14
6749.9 2.1665e-14
6751.15 2.1524e-14
6752.4 2.0856e-14
6753.66 2.0773e-14
6754.91 2.0941e-14
6756.16 2.0931e-14
6757.42 2.0245e-14
6758.67 2.0173e-14
6759.92 2.0257e-14
6761.18 2.0143e-14
6762.43 2.0152e-14
6763.69 2.0122e-14
6764.94 2.0058e-14
6766.19 2.0012e-14
6767.45 1.9991e-14
6768.7 1.9959e-14
6769.95 1.9927e-14
6771.21 1.9829e-14
6772.46 1.9718e-14
6773.71 1.9677e-14
6774.97 1.965e-14
6776.22 1.965e-14
6777.47 1.9708e-14
6778.73 1.9712e-14
6779.98 1.9656e-14
6781.23 1.9599e-14
6782.49 1.947e-14
6783.74 1.9506e-14
6784.99 1.9375e-14
6786.25 1.9367e-14
6787.5 1.9299e-14
6788.75 1.926e-14
6790.01 1.9181e-14
6791.26 1.9263e-14
6792.51 1.9241e-14
6793.77 1.9245e-14
6795.02 1.9191e-14
6796.27 1.9244e-14
6797.53 1.9094e-14
6798.78 1.9025e-14
6800.03 1.8986e-14
6801.29 1.8973e-14
6802.54 1.887e-14
6803.79 1.8859e-14
6805.05 1.8758e-14
6806.3 1.8727e-14
6807.55 1.8772e-14
6808.81 1.8612e-14
6810.06 1.8659e-14
6811.31 1.861e-14
6812.57 1.8571e-14
6813.82 1.8594e-14
6815.07 1.8444e-14
6816.33 1.8462e-14
6817.58 1.8408e-14
6818.83 1.8413e-14
6820.09 1.8302e-14
6821.34 1.8339e-14
6822.59 1.8292e-14
6823.85 1.8239e-14
6825.1 1.8122e-14
6826.35 1.8088e-14
6827.61 1.8079e-14
6828.86 1.8111e-14
6830.11 1.7816e-14
6831.37 1.7984e-14
6832.62 1.7866e-14
6833.87 1.7942e-14
6835.13 1.7919e-14
6836.38 1.785e-14
6837.63 1.7803e-14
6838.89 1.7809e-14
6840.14 1.7697e-14
6841.4 1.7623e-14
6842.65 1.7685e-14
6843.9 1.7573e-14
6845.16 1.7509e-14
6846.41 1.7553e-14
6847.66 1.7492e-14
6848.92 1.7553e-14
6850.17 1.7411e-14
6851.42 1.7444e-14
6852.68 1.7532e-14
6853.93 1.74e-14
6855.18 1.7458e-14
6856.44 1.7407e-14
6857.69 1.74e-14
6858.94 1.7347e-14
6860.2 1.7251e-14
6861.45 1.7133e-14
6862.7 1.7098e-14
6863.96 1.7133e-14
6865.21 1.7214e-14
6866.46 1.7397e-14
6867.72 1.7637e-14
6868.97 1.6978e-14
6870.22 1.6557e-14
6871.48 1.6807e-14
6872.73 1.6584e-14
6873.98 1.6742e-14
6875.24 1.6745e-14
6876.49 1.6741e-14
6877.74 1.6702e-14
6879.0 1.6732e-14
6880.25 1.6692e-14
6881.5 1.672e-14
6882.76 1.6498e-14
6884.01 1.6976e-14
6885.26 1.6875e-14
6886.52 1.6978e-14
6887.77 1.6745e-14
6889.02 1.678e-14
6890.28 1.6788e-14
6891.53 1.6643e-14
6892.78 1.6944e-14
6894.04 1.6638e-14
6895.29 1.6583e-14
6896.54 1.6816e-14
6897.8 1.654e-14
6899.05 1.6496e-14
6900.3 1.6927e-14
6901.56 1.6626e-14
6902.81 1.6512e-14
6904.06 1.6646e-14
6905.32 1.6701e-14
6906.57 1.6412e-14
6907.82 1.6592e-14
6909.08 1.6828e-14
6910.33 1.6529e-14
6911.58 1.6141e-14
6912.84 1.6522e-14
6914.09 1.657e-14
6915.34 1.6432e-14
6916.6 1.6211e-14
6917.85 1.6402e-14
6919.11 1.6378e-14
6920.36 1.6223e-14
6921.61 1.6286e-14
6922.87 1.6038e-14
6924.12 1.6058e-14
6925.37 1.6064e-14
6926.63 1.6122e-14
6927.88 1.6151e-14
6929.13 1.5926e-14
6930.39 1.5698e-14
6931.64 1.5465e-14
6932.89 1.577e-14
6934.15 1.5627e-14
6935.4 1.5702e-14
6936.65 1.5959e-14
6937.91 1.5967e-14
6939.16 1.5495e-14
6940.41 1.52e-14
6941.67 1.5224e-14
6942.92 1.5275e-14
6944.17 1.5536e-14
6945.43 1.5993e-14
6946.68 1.6275e-14
6947.93 1.5842e-14
6949.19 1.5473e-14
6950.44 1.5694e-14
6951.69 1.6126e-14
6952.95 1.6197e-14
6954.2 1.6192e-14
6955.45 1.6085e-14
6956.71 1.5599e-14
6957.96 1.5521e-14
6959.21 1.5949e-14
6960.47 1.5924e-14
6961.72 1.5774e-14
6962.97 1.6046e-14
6964.23 1.6487e-14
6965.48 1.6562e-14
6966.73 1.6598e-14
6967.99 1.686e-14
6969.24 1.6864e-14
6970.49 1.6742e-14
6971.75 1.651e-14
6973.0 1.6517e-14
6974.25 1.6794e-14
6975.51 1.6829e-14
6976.76 1.67e-14
6978.01 1.6529e-14
6979.27 1.6486e-14
6980.52 1.6489e-14
6981.77 1.6483e-14
6983.03 1.6454e-14
6984.28 1.6547e-14
6985.53 1.6392e-14
6986.79 1.5984e-14
6988.04 1.5751e-14
6989.29 1.568e-14
6990.55 1.5713e-14
6991.8 1.5922e-14
6993.05 1.5959e-14
6994.31 1.5642e-14
6995.56 1.5753e-14
6996.82 1.629e-14
6998.07 1.6284e-14
6999.32 1.5693e-14
7000.58 1.5723e-14
7001.83 1.6165e-14
7003.08 1.6288e-14
7004.34 1.6004e-14
7005.59 1.5317e-14
7006.84 1.5446e-14
7008.1 1.6049e-14
7009.35 1.6277e-14
7010.6 1.6067e-14
7011.86 1.5834e-14
7013.11 1.5944e-14
7014.36 1.6244e-14
7015.62 1.5921e-14
7016.87 1.5322e-14
7018.12 1.5518e-14
7019.38 1.5955e-14
7020.63 1.5944e-14
7021.88 1.5979e-14
7023.14 1.5794e-14
7024.39 1.5524e-14
7025.64 1.5736e-14
7026.9 1.553e-14
7028.15 1.5001e-14
7029.4 1.3455e-14
7030.66 1.3058e-14
7031.91 1.2658e-14
7033.16 1.2204e-14
7034.42 1.2208e-14
7035.67 1.3364e-14
7036.92 1.3802e-14
7038.18 1.3588e-14
7039.43 1.4594e-14
7040.68 1.5279e-14
7041.94 1.5633e-14
7043.19 1.5963e-14
7044.44 1.6087e-14
7045.7 1.5912e-14
7046.95 1.5786e-14
7048.2 1.5832e-14
7049.46 1.5857e-14
7050.71 1.5648e-14
7051.96 1.5423e-14
7053.22 1.5255e-14
7054.47 1.5551e-14
7055.72 1.5825e-14
7056.98 1.5707e-14
7058.23 1.5643e-14
7059.48 1.5652e-14
7060.74 1.5574e-14
7061.99 1.5625e-14
7063.24 1.5639e-14
7064.5 1.5723e-14
7065.75 1.568e-14
7067.0 1.5527e-14
7068.26 1.5597e-14
7069.51 1.5779e-14
7070.76 1.5778e-14
7072.02 1.57e-14
7073.27 1.5636e-14
7074.53 1.5674e-14
7075.78 1.5668e-14
7077.03 1.5667e-14
7078.29 1.5454e-14
7079.54 1.5318e-14
7080.79 1.5373e-14
7082.05 1.5712e-14
7083.3 1.5818e-14
7084.55 1.5663e-14
7085.81 1.5645e-14
7087.06 1.5675e-14
7088.31 1.556e-14
7089.57 1.5406e-14
7090.82 1.5626e-14
7092.07 1.5734e-14
7093.33 1.5597e-14
7094.58 1.5509e-14
7095.83 1.5638e-14
7097.09 1.5477e-14
7098.34 1.5463e-14
7099.59 1.5422e-14
7100.85 1.5375e-14
7102.1 1.5355e-14
7103.35 1.5464e-14
7104.61 1.5431e-14
7105.86 1.5372e-14
7107.11 1.5471e-14
7108.37 1.5374e-14
7109.62 1.5447e-14
7110.87 1.5443e-14
7112.13 1.5352e-14
7113.38 1.5451e-14
7114.63 1.5479e-14
7115.89 1.5487e-14
7117.14 1.5505e-14
7118.39 1.5388e-14
7119.65 1.5232e-14
7120.9 1.5407e-14
7122.15 1.5422e-14
7123.41 1.5453e-14
7124.66 1.5382e-14
7125.91 1.5302e-14
7127.17 1.531e-14
7128.42 1.5325e-14
7129.67 1.5173e-14
7130.93 1.5227e-14
7132.18 1.5315e-14
7133.43 1.5348e-14
7134.69 1.5225e-14
7135.94 1.5392e-14
7137.19 1.5255e-14
7138.45 1.5159e-14
7139.7 1.5194e-14
7140.95 1.5278e-14
7142.21 1.5206e-14
7143.46 1.517e-14
7144.71 1.5215e-14
7145.97 1.5295e-14
7147.22 1.5149e-14
7148.47 1.4967e-14
7149.73 1.5026e-14
7150.98 1.4979e-14
7152.24 1.4894e-14
7153.49 1.5089e-14
7154.74 1.5305e-14
7156.0 1.5183e-14
7157.25 1.5042e-14
7158.5 1.5e-14
7159.76 1.4916e-14
7161.01 1.502e-14
7162.26 1.5141e-14
7163.52 1.4917e-14
7164.77 1.4752e-14
7166.02 1.455e-14
7167.28 1.4193e-14
7168.53 1.3667e-14
7169.78 1.3539e-14
7171.04 1.3688e-14
7172.29 1.3695e-14
7173.54 1.3393e-14
7174.8 1.2868e-14
7176.05 1.3577e-14
7177.3 1.3417e-14
7178.56 1.2742e-14
7179.81 1.3425e-14
7181.06 1.4524e-14
7182.32 1.3848e-14
7183.57 1.3732e-14
7184.82 1.3854e-14
7186.08 1.2903e-14
7187.33 1.2164e-14
7188.58 1.2568e-14
7189.84 1.3929e-14
7191.09 1.4445e-14
7192.34 1.3363e-14
7193.6 1.261e-14
7194.85 1.284e-14
7196.1 1.344e-14
7197.36 1.3646e-14
7198.61 1.3551e-14
7199.86 1.3414e-14
7201.12 1.306e-14
7202.37 1.2886e-14
7203.62 1.3643e-14
7204.88 1.3513e-14
7206.13 1.3322e-14
7207.38 1.3613e-14
7208.64 1.4169e-14
7209.89 1.4267e-14
7211.14 1.4146e-14
7212.4 1.4525e-14
7213.65 1.5009e-14
7214.9 1.5183e-14
7216.16 1.4797e-14
7217.41 1.432e-14
7218.66 1.4365e-14
7219.92 1.4746e-14
7221.17 1.5137e-14
7222.42 1.5145e-14
7223.68 1.44e-14
7224.93 1.4142e-14
7226.18 1.4673e-14
7227.44 1.4552e-14
7228.69 1.3956e-14
7229.95 1.4555e-14
7231.2 1.4781e-14
7232.45 1.4201e-14
7233.71 1.3181e-14
7234.96 1.2709e-14
7236.21 1.2797e-14
7237.47 1.345e-14
7238.72 1.4404e-14
7239.97 1.4095e-14
7241.23 1.2939e-14
7242.48 1.3244e-14
7243.73 1.3921e-14
7244.99 1.3273e-14
7246.24 1.3434e-14
7247.49 1.3506e-14
7248.75 1.3725e-14
7250.0 1.3798e-14
7251.25 1.3974e-14
7252.51 1.3596e-14
7253.76 1.199e-14
7255.01 1.28e-14
7256.27 1.4354e-14
7257.52 1.3756e-14
7258.77 1.3171e-14
7260.03 1.356e-14
7261.28 1.3802e-14
7262.53 1.3548e-14
7263.79 1.3661e-14
7265.04 1.3116e-14
7266.29 1.2655e-14
7267.55 1.3548e-14
7268.8 1.4446e-14
7270.05 1.4035e-14
7271.31 1.3696e-14
7272.56 1.3973e-14
7273.81 1.3531e-14
7275.07 1.3514e-14
7276.32 1.3147e-14
7277.57 1.1767e-14
7278.83 1.2234e-14
7280.08 1.3237e-14
7281.33 1.3785e-14
7282.59 1.3789e-14
7283.84 1.411e-14
7285.09 1.4491e-14
7286.35 1.4507e-14
7287.6 1.3883e-14
7288.85 1.3358e-14
7290.11 1.3263e-14
7291.36 1.2853e-14
7292.61 1.2705e-14
7293.87 1.3024e-14
7295.12 1.3116e-14
7296.37 1.3442e-14
7297.63 1.3972e-14
7298.88 1.4138e-14
7300.13 1.3616e-14
7301.39 1.338e-14
7302.64 1.3125e-14
7303.89 1.262e-14
7305.15 1.2638e-14
7306.4 1.3324e-14
7307.66 1.4233e-14
7308.91 1.3705e-14
7310.16 1.3054e-14
7311.42 1.294e-14
7312.67 1.325e-14
7313.92 1.3447e-14
7315.18 1.3625e-14
7316.43 1.3565e-14
7317.68 1.3075e-14
7318.94 1.2737e-14
7320.19 1.3209e-14
7321.44 1.4062e-14
7322.7 1.4403e-14
7323.95 1.4407e-14
7325.2 1.4093e-14
7326.46 1.4254e-14
7327.71 1.3987e-14
7328.96 1.4063e-14
7330.22 1.4434e-14
7331.47 1.4162e-14
7332.72 1.4039e-14
7333.98 1.369e-14
7335.23 1.36e-14
7336.48 1.3994e-14
7337.74 1.4444e-14
7338.99 1.4655e-14
7340.24 1.453e-14
7341.5 1.4441e-14
7342.75 1.4542e-14
7344.0 1.4178e-14
7345.26 1.3925e-14
7346.51 1.4206e-14
7347.76 1.4483e-14
7349.02 1.4176e-14
7350.27 1.3733e-14
7351.52 1.4044e-14
7352.78 1.4381e-14
7354.03 1.4294e-14
7355.28 1.4269e-14
7356.54 1.4219e-14
7357.79 1.4139e-14
7359.04 1.4158e-14
7360.3 1.4204e-14
7361.55 1.3907e-14
7362.8 1.4004e-14
7364.06 1.4081e-14
7365.31 1.3967e-14
7366.56 1.4133e-14
7367.82 1.4223e-14
7369.07 1.4066e-14
7370.32 1.398e-14
7371.58 1.4147e-14
7372.83 1.4269e-14
7374.08 1.4426e-14
7375.34 1.4477e-14
7376.59 1.453e-14
7377.84 1.4323e-14
7379.1 1.4281e-14
7380.35 1.4466e-14
7381.6 1.4346e-14
7382.86 1.4182e-14
7384.11 1.4008e-14
7385.37 1.4181e-14
7386.62 1.4497e-14
7387.87 1.4656e-14
7389.13 1.4494e-14
7390.38 1.4352e-14
7391.63 1.4211e-14
7392.89 1.4155e-14
7394.14 1.4577e-14
7395.39 1.4564e-14
7396.65 1.4342e-14
7397.9 1.4277e-14
7399.15 1.4492e-14
7400.41 1.4691e-14
7401.66 1.4607e-14
7402.91 1.4621e-14
7404.17 1.452e-14
7405.42 1.4492e-14
7406.67 1.4632e-14
7407.93 1.4496e-14
7409.18 1.4628e-14
7410.43 1.4545e-14
7411.69 1.4462e-14
7412.94 1.46e-14
7414.19 1.4621e-14
7415.45 1.4442e-14
7416.7 1.4418e-14
7417.95 1.4508e-14
7419.21 1.4588e-14
7420.46 1.4346e-14
7421.71 1.2734e-14
7422.97 1.2695e-14
7424.22 1.2479e-14
7425.47 1.2478e-14
7426.73 1.2371e-14
7427.98 1.2485e-14
7429.23 1.255e-14
7430.49 1.2549e-14
7431.74 1.2484e-14
7432.99 1.26e-14
7434.25 1.3382e-14
7435.5 1.4504e-14
7436.75 1.4417e-14
7438.01 1.4543e-14
7439.26 1.45e-14
7440.51 1.4425e-14
7441.77 1.4482e-14
7443.02 1.4435e-14
7444.27 1.4475e-14
7445.53 1.4547e-14
7446.78 1.4477e-14
7448.03 1.441e-14
7449.29 1.4428e-14
7450.54 1.4414e-14
7451.79 1.4425e-14
7453.05 1.4328e-14
7454.3 1.4306e-14
7455.55 1.4272e-14
7456.81 1.4314e-14
7458.06 1.4203e-14
7459.31 1.4208e-14
7460.57 1.4336e-14
7461.82 1.3953e-14
7463.08 1.1873e-14
7464.33 1.1257e-14
7465.58 1.1227e-14
7466.84 1.1224e-14
7468.09 1.0985e-14
7469.34 8.8687e-15
7470.6 9.2376e-15
7471.85 1.0694e-14
7473.1 1.4436e-14
7474.36 1.4197e-14
7475.61 1.4058e-14
7476.86 1.4102e-14
7478.12 1.4015e-14
7479.37 1.4042e-14
7480.62 1.3993e-14
7481.88 1.4006e-14
7483.13 1.3963e-14
7484.38 1.3949e-14
7485.64 1.3968e-14
7486.89 1.3956e-14
7488.14 1.3801e-14
7489.4 1.385e-14
7490.65 1.3744e-14
7491.9 1.3823e-14
7493.16 1.3656e-14
7494.41 1.3651e-14
7495.66 1.3647e-14
7496.92 1.3762e-14
7498.17 1.3648e-14
7499.42 1.3583e-14
7500.68 1.3685e-14
7501.93 1.3538e-14
7503.18 1.3481e-14
7504.44 1.3414e-14
7505.69 1.3284e-14
7506.94 1.333e-14
7508.2 1.3426e-14
7509.45 1.3349e-14
7510.7 1.3475e-14
7511.96 1.3371e-14
7513.21 1.3046e-14
7514.46 1.3234e-14
7515.72 1.3194e-14
7516.97 1.3239e-14
7518.22 1.3204e-14
7519.48 1.3115e-14
7520.73 1.309e-14
7521.98 1.2961e-14
7523.24 1.2905e-14
7524.49 1.2918e-14
7525.74 1.2987e-14
7527.0 1.2894e-14
7528.25 1.2833e-14
7529.5 1.1902e-14
7530.76 1.1036e-14
7532.01 1.0904e-14
7533.26 1.0789e-14
7534.52 1.0693e-14
7535.77 1.0703e-14
7537.02 1.0689e-14
7538.28 1.0602e-14
7539.53 1.0538e-14
7540.79 1.1735e-14
7542.04 1.2432e-14
7543.29 1.2512e-14
7544.55 1.2399e-14
7545.8 1.2314e-14
7547.05 1.2447e-14
7548.31 1.2387e-14
7549.56 1.2357e-14
7550.81 1.2386e-14
7552.07 1.2415e-14
7553.32 1.2242e-14
7554.57 1.2329e-14
7555.83 1.2314e-14
7557.08 1.2289e-14
7558.33 1.2346e-14
7559.59 1.2233e-14
7560.84 1.2143e-14
7562.09 1.2018e-14
7563.35 1.1988e-14
7564.6 1.2072e-14
7565.85 1.1994e-14
7567.11 1.1993e-14
7568.36 1.1922e-14
7569.61 1.2001e-14
7570.87 1.1938e-14
7572.12 1.198e-14
7573.37 1.196e-14
7574.63 1.1865e-14
7575.88 1.1919e-14
7577.13 1.1944e-14
7578.39 1.1895e-14
7579.64 1.1797e-14
7580.89 1.1684e-14
7582.15 1.1726e-14
7583.4 1.1703e-14
7584.65 1.168e-14
7585.91 1.1681e-14
7587.16 1.1749e-14
7588.41 1.1819e-14
7589.67 1.1809e-14
7590.92 1.1766e-14
7592.17 1.182e-14
7593.43 1.2305e-14
7594.68 1.2621e-14
7595.93 1.1877e-14
7597.19 1.0998e-14
7598.44 1.1911e-14
7599.69 9.9224e-15
7600.95 1.1387e-14
7602.2 1.1108e-14
7603.45 1.117e-14
7604.71 1.0558e-14
7605.96 1.0084e-14
7607.21 1.0727e-14
7608.47 1.0248e-14
7609.72 1.065e-14
7610.97 1.0319e-14
7612.23 1.0772e-14
7613.48 1.0512e-14
7614.73 9.7079e-15
7615.99 1.1232e-14
7617.24 1.0677e-14
7618.5 1.1065e-14
7619.75 1.1716e-14
7621.0 1.1878e-14
7622.26 1.1775e-14
7623.51 1.1926e-14
7624.76 1.1045e-14
7626.02 1.0957e-14
7627.27 1.1438e-14
7628.52 1.0766e-14
7629.78 1.1322e-14
7631.03 1.2451e-14
7632.28 1.0762e-14
7633.54 1.0783e-14
7634.79 1.2677e-14
7636.04 1.1985e-14
7637.3 1.0906e-14
7638.55 1.2535e-14
7639.8 1.3234e-14
7641.06 1.0844e-14
7642.31 1.1337e-14
7643.56 1.3444e-14
7644.82 1.4369e-14
7646.07 1.1182e-14
7647.32 1.1519e-14
7648.58 1.2865e-14
7649.83 1.3019e-14
7651.08 1.272e-14
7652.34 1.1915e-14
7653.59 1.3214e-14
7654.84 1.4242e-14
7656.1 1.2368e-14
7657.35 1.2233e-14
7658.6 1.2996e-14
7659.86 1.3109e-14
7661.11 1.2551e-14
7662.36 1.2311e-14
7663.62 1.2671e-14
7664.87 1.2985e-14
7666.12 1.2561e-14
7667.38 1.2585e-14
7668.63 1.2837e-14
7669.88 1.3099e-14
7671.14 1.308e-14
7672.39 1.2759e-14
7673.64 1.2835e-14
7674.9 1.3035e-14
7676.15 1.3158e-14
7677.4 1.3124e-14
7678.66 1.2861e-14
7679.91 1.2863e-14
7681.16 1.2912e-14
7682.42 1.299e-14
7683.67 1.2933e-14
7684.92 1.3007e-14
7686.18 1.3022e-14
7687.43 1.326e-14
7688.68 1.3163e-14
7689.94 1.3442e-14
7691.19 1.3324e-14
7692.44 1.3187e-14
7693.7 1.3262e-14
7694.95 1.3249e-14
7696.21 1.2985e-14
7697.46 1.2742e-14
7698.71 1.2844e-14
7699.97 1.3109e-14
7701.22 1.3308e-14
7702.47 1.3252e-14
7703.73 1.3121e-14
7704.98 1.3192e-14
7706.23 1.3331e-14
7707.49 1.3401e-14
7708.74 1.3417e-14
7709.99 1.3425e-14
7711.25 1.3422e-14
7712.5 1.3277e-14
7713.75 1.3413e-14
7715.01 1.3406e-14
7716.26 1.3452e-14
7717.51 1.3299e-14
7718.77 1.332e-14
7720.02 1.3428e-14
7721.27 1.3485e-14
7722.53 1.3336e-14
7723.78 1.3482e-14
7725.03 1.3483e-14
7726.29 1.3515e-14
7727.54 1.3557e-14
7728.79 1.3513e-14
7730.05 1.3581e-14
7731.3 1.354e-14
7732.55 1.3685e-14
7733.81 1.3618e-14
7735.06 1.3668e-14
7736.31 1.3606e-14
7737.57 1.3655e-14
7738.82 1.3588e-14
7740.07 1.3526e-14
7741.33 1.3663e-14
7742.58 1.3658e-14
7743.83 1.3732e-14
7745.09 1.3611e-14
7746.34 1.367e-14
7747.59 1.3682e-14
7748.85 1.3823e-14
7750.1 1.3739e-14
7751.35 1.3781e-14
7752.61 1.3584e-14
7753.86 1.3766e-14
7755.11 1.3651e-14
7756.37 1.3684e-14
7757.62 1.3733e-14
7758.87 1.3783e-14
7760.13 1.3881e-14
7761.38 1.3808e-14
7762.63 1.382e-14
7763.89 1.3833e-14
7765.14 1.3968e-14
7766.39 1.4002e-14
7767.65 1.4038e-14
7768.9 1.4093e-14
7770.15 1.4031e-14
7771.41 1.39e-14
7772.66 1.3918e-14
7773.92 1.3934e-14
7775.17 1.3895e-14
7776.42 1.3941e-14
7777.68 1.397e-14
7778.93 1.3981e-14
7780.18 1.3987e-14
7781.44 1.3996e-14
7782.69 1.4043e-14
7783.94 1.4015e-14
7785.2 1.4012e-14
7786.45 1.4104e-14
7787.7 1.4035e-14
7788.96 1.3988e-14
7790.21 1.3891e-14
7791.46 1.3893e-14
7792.72 1.3985e-14
7793.97 1.3935e-14
7795.22 1.3979e-14
7796.48 1.3888e-14
7797.73 1.3947e-14
7798.98 1.3928e-14
7800.24 1.4033e-14
7801.49 1.3979e-14
7802.74 1.3949e-14
7804.0 1.4006e-14
7805.25 1.4042e-14
7806.5 1.4031e-14
7807.76 1.4004e-14
7809.01 1.3834e-14
7810.26 1.3856e-14
7811.52 1.3724e-14
7812.77 1.3729e-14
7814.02 1.388e-14
7815.28 1.38e-14
7816.53 1.3801e-14
7817.78 1.3834e-14
7819.04 1.3933e-14
7820.29 1.3874e-14
7821.54 1.3971e-14
7822.8 1.3835e-14
7824.05 1.3931e-14
7825.3 1.3875e-14
7826.56 1.3755e-14
7827.81 1.3819e-14
7829.06 1.369e-14
7830.32 1.3648e-14
7831.57 1.3703e-14
7832.82 1.371e-14
7834.08 1.3795e-14
7835.33 1.38e-14
7836.58 1.3785e-14
7837.84 1.3755e-14
7839.09 1.3722e-14
7840.34 1.3794e-14
7841.6 1.3914e-14
7842.85 9.4718e-15
7844.1 9.0378e-15
7845.36 8.2188e-15
7846.61 1.0737e-14
7847.86 1.1435e-14
7849.12 1.3547e-14
7850.37 1.3523e-14
7851.63 1.3442e-14
7852.88 1.3531e-14
7854.13 1.345e-14
7855.39 1.3398e-14
7856.64 1.349e-14
7857.89 1.3566e-14
7859.15 1.3548e-14
7860.4 1.3647e-14
7861.65 1.3574e-14
7862.91 1.3475e-14
7864.16 1.3431e-14
7865.41 1.3268e-14
7866.67 1.3277e-14
7867.92 1.3269e-14
7869.17 1.3403e-14
7870.43 1.3202e-14
7871.68 1.302e-14
7872.93 1.3089e-14
7874.19 1.3228e-14
7875.44 1.3131e-14
7876.69 1.2942e-14
7877.95 1.2954e-14
7879.2 1.3265e-14
7880.45 1.3187e-14
7881.71 1.3103e-14
7882.96 1.3192e-14
7884.21 1.3312e-14
7885.47 1.3165e-14
7886.72 1.3077e-14
7887.97 1.2839e-14
7889.23 1.2781e-14
7890.48 1.2893e-14
7891.73 1.2819e-14
7892.99 1.2541e-14
7894.24 1.2595e-14
7895.49 1.2553e-14
7896.75 1.2347e-14
7898.0 1.281e-14
7899.25 1.3151e-14
7900.51 1.3191e-14
7901.76 1.2795e-14
7903.01 1.2411e-14
7904.27 1.265e-14
7905.52 1.2933e-14
7906.77 1.289e-14
7908.03 1.276e-14
7909.28 1.2224e-14
7910.53 1.2273e-14
7911.79 1.2556e-14
7913.04 1.2742e-14
7914.29 1.3081e-14
7915.55 1.3032e-14
7916.8 1.2683e-14
7918.05 1.2679e-14
7919.31 1.2825e-14
7920.56 1.2611e-14
7921.81 1.2327e-14
7923.07 1.2469e-14
7924.32 1.2431e-14
7925.57 1.2313e-14
7926.83 1.2634e-14
7928.08 1.2479e-14
7929.34 1.211e-14
7930.59 1.2358e-14
7931.84 1.26e-14
7933.1 1.2562e-14
7934.35 1.2662e-14
7935.6 1.2683e-14
7936.86 1.2691e-14
7938.11 1.2585e-14
7939.36 1.2553e-14
7940.62 1.2511e-14
7941.87 1.2446e-14
7943.12 1.2419e-14
7944.38 1.2431e-14
7945.63 1.2554e-14
7946.88 1.2494e-14
7948.14 1.25e-14
7949.39 1.2454e-14
7950.64 1.2502e-14
7951.9 1.2486e-14
7953.15 1.2509e-14
7954.4 1.2421e-14
7955.66 1.234e-14
7956.91 1.2386e-14
7958.16 1.2149e-14
7959.42 1.1846e-14
7960.67 1.1772e-14
7961.92 1.1637e-14
7963.18 1.1529e-14
7964.43 1.1656e-14
7965.68 1.2118e-14
7966.94 1.2379e-14
7968.19 1.2211e-14
7969.44 1.2287e-14
7970.7 1.24e-14
7971.95 1.2351e-14
7973.2 1.2221e-14
7974.46 1.2238e-14
7975.71 1.2185e-14
7976.96 1.2207e-14
7978.22 1.2315e-14
7979.47 1.2172e-14
7980.72 1.2132e-14
7981.98 1.2073e-14
7983.23 1.2292e-14
7984.48 1.2083e-14
7985.74 1.2109e-14
7986.99 1.2339e-14
7988.24 1.2318e-14
7989.5 1.2433e-14
7990.75 1.24e-14
7992.0 1.2366e-14
7993.26 1.2398e-14
7994.51 1.2299e-14
7995.76 1.2161e-14
7997.02 1.2198e-14
7998.27 1.2027e-14
7999.52 1.1822e-14
8000.78 1.1762e-14
8002.03 1.1907e-14
8003.28 1.2234e-14
8004.54 1.2341e-14
8005.79 1.2263e-14
8007.05 1.2126e-14
8008.3 1.1726e-14
8009.55 1.2099e-14
8010.81 1.242e-14
8012.06 1.2192e-14
8013.31 1.1831e-14
8014.57 1.1716e-14
8015.82 1.2166e-14
8017.07 1.213e-14
8018.33 1.2171e-14
8019.58 1.2101e-14
8020.83 1.2152e-14
8022.09 1.2128e-14
8023.34 1.1937e-14
8024.59 1.1899e-14
8025.85 1.2079e-14
8027.1 1.2208e-14
8028.35 1.2081e-14
8029.61 1.1937e-14
8030.86 1.2065e-14
8032.11 1.2192e-14
8033.37 1.2057e-14
8034.62 1.1762e-14
8035.87 1.1706e-14
8037.13 1.1701e-14
8038.38 1.1754e-14
8039.63 1.188e-14
8040.89 1.1882e-14
8042.14 1.1996e-14
8043.39 1.2046e-14
8044.65 1.1863e-14
8045.9 1.1913e-14
8047.15 1.2172e-14
8048.41 1.2271e-14
8049.66 1.2232e-14
8050.91 1.2138e-14
8052.17 1.2108e-14
8053.42 1.2041e-14
8054.67 1.1865e-14
8055.93 1.1891e-14
8057.18 1.2103e-14
8058.43 1.1833e-14
8059.69 1.176e-14
8060.94 1.18e-14
8062.19 1.1874e-14
8063.45 1.1874e-14
8064.7 1.1938e-14
8065.95 1.2017e-14
8067.21 1.2178e-14
8068.46 1.2192e-14
8069.71 1.2015e-14
8070.97 1.1785e-14
8072.22 1.1977e-14
8073.47 1.2034e-14
8074.73 1.2016e-14
8075.98 1.189e-14
8077.23 1.1879e-14
8078.49 1.1813e-14
8079.74 1.1695e-14
8080.99 1.1671e-14
8082.25 1.1701e-14
8083.5 1.1795e-14
8084.76 1.1698e-14
8086.01 1.1588e-14
8087.26 1.1793e-14
8088.52 1.1971e-14
8089.77 1.1921e-14
8091.02 1.1881e-14
8092.28 1.1987e-14
8093.53 1.1962e-14
8094.78 1.1916e-14
8096.04 1.1864e-14
8097.29 1.168e-14
8098.54 1.1647e-14
8099.8 1.1634e-14
8101.05 1.1596e-14
8102.3 1.1559e-14
8103.56 1.1632e-14
8104.81 1.1671e-14
8106.06 1.1582e-14
8107.32 1.1451e-14
8108.57 1.1338e-14
8109.82 1.1365e-14
8111.08 1.1468e-14
8112.33 1.146e-14
8113.58 1.1278e-14
8114.84 1.1126e-14
8116.09 1.1576e-14
8117.34 1.1953e-14
8118.6 1.1687e-14
8119.85 1.1416e-14
8121.1 1.1294e-14
8122.36 1.1095e-14
8123.61 1.0968e-14
8124.86 1.1158e-14
8126.12 1.1006e-14
8127.37 1.1099e-14
8128.62 1.1351e-14
8129.88 1.1301e-14
8131.13 1.0692e-14
8132.38 1.0869e-14
8133.64 1.09e-14
8134.89 1.0192e-14
8136.14 1.0141e-14
8137.4 1.0598e-14
8138.65 1.1151e-14
8139.9 1.0907e-14
8141.16 1.0565e-14
8142.41 1.0193e-14
8143.66 1.0358e-14
8144.92 1.0556e-14
8146.17 1.0732e-14
8147.42 1.0267e-14
8148.68 1.0079e-14
8149.93 9.682e-15
8151.18 1.0314e-14
8152.44 1.0769e-14
8153.69 1.0171e-14
8154.94 9.4514e-15
8156.2 9.9291e-15
8157.45 1.0504e-14
8158.7 1.0235e-14
8159.96 1.0228e-14
8161.21 1.0502e-14
8162.47 9.1447e-15
8163.72 8.8903e-15
8164.97 9.2908e-15
8166.23 9.7213e-15
8167.48 1.0738e-14
8168.73 1.0764e-14
8169.99 9.3335e-15
8171.24 9.492e-15
8172.49 1.0724e-14
8173.75 1.0959e-14
8175.0 1.0616e-14
8176.25 1.0601e-14
8177.51 9.3934e-15
8178.76 8.0842e-15
8180.01 8.7451e-15
8181.27 1.0061e-14
8182.52 1.0143e-14
8183.77 1.0033e-14
8185.03 1.0549e-14
8186.28 1.0588e-14
8187.53 1.0319e-14
8188.79 1.0346e-14
8190.04 9.5062e-15
8191.29 9.7573e-15
8192.55 1.0322e-14
8193.8 9.7441e-15
8195.05 9.9827e-15
8196.31 1.0561e-14
8197.56 1.0209e-14
8198.81 9.3945e-15
8200.07 9.3521e-15
8201.32 9.4727e-15
8202.57 9.9249e-15
8203.83 1.0605e-14
8205.08 1.0527e-14
8206.33 1.0306e-14
8207.59 1.036e-14
8208.84 1.0274e-14
8210.09 9.8441e-15
8211.35 9.5543e-15
8212.6 9.552e-15
8213.85 9.6647e-15
8215.11 9.7694e-15
8216.36 9.9781e-15
8217.61 9.6729e-15
8218.87 9.4539e-15
8220.12 9.6563e-15
8221.37 9.7385e-15
8222.63 9.3704e-15
8223.88 9.2701e-15
8225.13 9.0165e-15
8226.39 8.6945e-15
8227.64 7.9455e-15
8228.89 6.4392e-15
8230.15 6.7368e-15
8231.4 7.3911e-15
8232.65 7.6047e-15
8233.91 8.4368e-15
8235.16 8.4111e-15
8236.41 8.8154e-15
8237.67 9.0216e-15
8238.92 9.1844e-15
8240.18 9.244e-15
8241.43 9.1989e-15
8242.68 9.2181e-15
8243.94 8.3014e-15
8245.19 8.3094e-15
8246.44 8.9449e-15
8247.7 8.9116e-15
8248.95 8.8828e-15
8250.2 8.7559e-15
8251.46 8.7117e-15
8252.71 8.2465e-15
8253.96 8.0839e-15
8255.22 8.4627e-15
8256.47 8.2586e-15
8257.72 7.8679e-15
8258.98 8.2015e-15
8260.23 8.3016e-15
8261.48 8.2767e-15
8262.74 8.4405e-15
8263.99 8.1736e-15
8265.24 8.0526e-15
8266.5 8.3382e-15
8267.75 8.3884e-15
8269.0 8.3602e-15
8270.26 8.1999e-15
8271.51 7.8677e-15
8272.76 7.4565e-15
8274.02 7.2165e-15
8275.27 7.0015e-15
8276.52 7.0975e-15
8277.78 7.157e-15
8279.03 7.4241e-15
8280.28 7.408e-15
8281.54 7.4766e-15
8282.79 7.3574e-15
8284.04 7.8366e-15
8285.3 8.3673e-15
8286.55 8.3884e-15
8287.8 7.964e-15
8289.06 7.0606e-15
8290.31 7.319e-15
8291.56 8.0136e-15
8292.82 8.0651e-15
8294.07 7.7161e-15
8295.32 6.9004e-15
8296.58 7.2482e-15
8297.83 7.9386e-15
8299.08 8.0448e-15
8300.34 7.695e-15
8301.59 7.4733e-15
8302.84 7.9609e-15
8304.1 7.9897e-15
8305.35 7.4197e-15
8306.6 7.4535e-15
8307.86 7.9941e-15
8309.11 8.3794e-15
8310.36 8.3893e-15
8311.62 7.9798e-15
8312.87 7.9246e-15
8314.12 7.8558e-15
8315.38 8.0119e-15
8316.63 7.8029e-15
8317.89 7.5331e-15
8319.14 7.5854e-15
8320.39 8.0265e-15
8321.65 7.5592e-15
8322.9 7.2063e-15
8324.15 8.2783e-15
8325.41 8.3981e-15
8326.66 8.3142e-15
8327.91 8.2151e-15
8329.17 7.9474e-15
8330.42 7.7605e-15
8331.67 7.9322e-15
8332.93 8.068e-15
8334.18 7.9865e-15
8335.43 8.0796e-15
8336.69 8.4033e-15
8337.94 8.4664e-15
8339.19 8.3082e-15
8340.45 8.2549e-15
8341.7 8.6572e-15
8342.95 8.7627e-15
8344.21 8.5425e-15
8345.46 8.8598e-15
8346.71 9.0292e-15
8347.97 8.7158e-15
8349.22 8.4241e-15
8350.47 8.2402e-15
8351.73 8.5492e-15
8352.98 8.5762e-15
8354.23 8.2386e-15
8355.49 8.3704e-15
8356.74 8.3353e-15
8357.99 8.1092e-15
8359.25 8.3654e-15
8360.5 8.593e-15
8361.75 8.467e-15
8363.01 8.2528e-15
8364.26 8.5283e-15
8365.51 8.8271e-15
8366.77 8.7612e-15
8368.02 8.5234e-15
8369.27 8.6676e-15
8370.53 8.8779e-15
8371.78 8.8729e-15
8373.03 8.7975e-15
8374.29 8.5093e-15
8375.54 8.3676e-15
8376.79 8.3256e-15
8378.05 8.2391e-15
8379.3 8.4956e-15
8380.55 8.7235e-15
8381.81 8.6666e-15
8383.06 8.7687e-15
8384.31 8.7305e-15
8385.57 8.7753e-15
8386.82 8.9561e-15
8388.07 9.0028e-15
8389.33 8.886e-15
8390.58 8.9522e-15
8391.83 8.977e-15
8393.09 8.8565e-15
8394.34 8.6732e-15
8395.6 8.6112e-15
8396.85 8.7062e-15
8398.1 8.543e-15
8399.36 8.827e-15
8400.61 9.1128e-15
8401.86 8.9639e-15
8403.12 8.9921e-15
8404.37 9.0379e-15
8405.62 9.0269e-15
8406.88 9.1494e-15
8408.13 9.1802e-15
8409.38 9.0674e-15
8410.64 9.1382e-15
8411.89 9.3451e-15
8413.14 9.384e-15
8414.4 9.2414e-15
8415.65 9.203e-15
8416.9 9.081e-15
8418.16 9.0544e-15
8419.41 9.0574e-15
8420.66 9.1439e-15
8421.92 9.1515e-15
8423.17 9.2436e-15
8424.42 9.4021e-15
8425.68 9.4027e-15
8426.93 9.3972e-15
8428.18 9.4074e-15
8429.44 9.4026e-15
8430.69 9.3368e-15
8431.94 9.3246e-15
8433.2 9.5132e-15
8434.45 9.533e-15
8435.7 9.2787e-15
8436.96 8.7743e-15
8438.21 9.0562e-15
8439.46 9.4794e-15
8440.72 9.5934e-15
8441.97 9.4902e-15
8443.22 9.4953e-15
8444.48 9.5728e-15
8445.73 9.5309e-15
8446.98 9.581e-15
8448.24 9.5076e-15
8449.49 9.5734e-15
8450.74 9.5367e-15
8452.0 9.6072e-15
8453.25 9.6433e-15
8454.5 9.8556e-15
8455.76 9.9059e-15
8457.01 9.9631e-15
8458.26 1.0121e-14
8459.52 1.0052e-14
8460.77 9.9707e-15
8462.02 9.8408e-15
8463.28 9.9847e-15
8464.53 9.9835e-15
8465.78 9.9076e-15
8467.04 9.7406e-15
8468.29 9.8004e-15
8469.54 9.7947e-15
8470.8 9.8102e-15
8472.05 9.7733e-15
8473.31 9.759e-15
8474.56 9.9143e-15
8475.81 1.0043e-14
8477.07 1.0073e-14
8478.32 1.0177e-14
8479.57 1.0168e-14
8480.83 1.0143e-14
8482.08 1.0166e-14
8483.33 1.029e-14
8484.59 1.0185e-14
8485.84 1.0184e-14
8487.09 1.0069e-14
8488.35 1.0041e-14
8489.6 1.0156e-14
8490.85 1.0128e-14
8492.11 1.0145e-14
8493.36 1.031e-14
8494.61 1.0426e-14
8495.87 1.0673e-14
8497.12 1.0566e-14
8498.37 1.0695e-14
8499.63 1.0738e-14
8500.88 1.0724e-14
8502.13 1.0795e-14
8503.39 1.0765e-14
8504.64 1.0703e-14
8505.89 1.0611e-14
8507.15 1.0421e-14
8508.4 1.0519e-14
8509.65 1.0473e-14
8510.91 1.0463e-14
8512.16 1.0328e-14
8513.41 1.0306e-14
8514.67 1.0611e-14
8515.92 1.0753e-14
8517.17 1.0761e-14
8518.43 1.0999e-14
8519.68 1.0936e-14
8520.93 1.0921e-14
8522.19 1.0994e-14
8523.44 1.0924e-14
8524.69 1.0933e-14
8525.95 1.0842e-14
8527.2 1.0824e-14
8528.45 1.082e-14
8529.71 1.0813e-14
8530.96 1.0865e-14
8532.21 1.099e-14
8533.47 1.1024e-14
8534.72 1.1164e-14
8535.97 1.1168e-14
8537.23 1.1187e-14
8538.48 1.1056e-14
8539.73 1.098e-14
8540.99 1.0885e-14
8542.24 1.081e-14
8543.49 1.0893e-14
8544.75 1.0791e-14
8546.0 1.0881e-14
8547.25 1.0817e-14
8548.51 1.0867e-14
8549.76 1.0999e-14
8551.02 1.1086e-14
8552.27 1.1141e-14
8553.52 1.1206e-14
8554.78 1.1196e-14
8556.03 1.1161e-14
8557.28 1.1159e-14
8558.54 1.1136e-14
8559.79 1.1059e-14
8561.04 1.1013e-14
8562.3 1.0707e-14
8563.55 1.0745e-14
8564.8 1.0755e-14
8566.06 1.0835e-14
8567.31 1.0863e-14
8568.56 1.0999e-14
8569.82 1.1162e-14
8571.07 1.1286e-14
8572.32 1.1392e-14
8573.58 1.1441e-14
8574.83 1.1431e-14
8576.08 1.1386e-14
8577.34 1.1336e-14
8578.59 1.1287e-14
8579.84 1.1115e-14
8581.1 1.1069e-14
8582.35 1.0887e-14
8583.6 1.0912e-14
8584.86 1.0803e-14
8586.11 1.0863e-14
8587.36 1.0858e-14
8588.62 1.0909e-14
8589.87 1.102e-14
8591.12 1.1014e-14
8592.38 1.112e-14
8593.63 1.1225e-14
8594.88 1.1399e-14
8596.14 1.1344e-14
8597.39 1.1504e-14
8598.64 1.127e-14
8599.9 1.143e-14
8601.15 1.143e-14
8602.4 1.1377e-14
8603.66 1.1177e-14
8604.91 1.1124e-14
8606.16 1.0994e-14
8607.42 1.0757e-14
8608.67 1.0787e-14
8609.92 1.0854e-14
8611.18 1.0856e-14
8612.43 1.0956e-14
8613.68 1.1066e-14
8614.94 1.115e-14
8616.19 1.1155e-14
8617.44 1.124e-14
8618.7 1.1367e-14
8619.95 1.128e-14
8621.2 1.1347e-14
8622.46 1.1247e-14
8623.71 1.1214e-14
8624.96 1.117e-14
8626.22 1.1131e-14
8627.47 1.1104e-14
8628.73 1.1069e-14
8629.98 1.1021e-14
8631.23 1.1016e-14
8632.49 1.0916e-14
8633.74 1.094e-14
8634.99 1.0682e-14
8636.25 1.0614e-14
8637.5 1.0603e-14
8638.75 1.0666e-14
8640.01 1.074e-14
8641.26 1.0821e-14
8642.51 1.0928e-14
8643.77 1.1008e-14
8645.02 1.1201e-14
8646.27 1.1322e-14
8647.53 1.1287e-14
8648.78 1.1222e-14
8650.03 1.1073e-14
8651.29 1.0883e-14
8652.54 1.0876e-14
8653.79 1.0739e-14
8655.05 1.0581e-14
8656.3 1.0612e-14
8657.55 1.0644e-14
8660.06 1.0666e-14
8661.31 1.0683e-14
8662.57 1.0921e-14
8663.82 1.1032e-14
8665.07 1.1054e-14
8666.33 1.1199e-14
8667.58 1.1172e-14
8668.83 1.1144e-14
8670.09 1.1193e-14
8671.34 1.1105e-14
8672.59 1.1017e-14
8673.85 1.0814e-14
8675.1 1.0816e-14
8676.35 1.0744e-14
8677.61 1.0894e-14
8678.86 1.0797e-14
8680.11 1.0668e-14
8681.37 1.0802e-14
8682.62 1.0852e-14
8683.87 1.0943e-14
8685.13 1.0916e-14
8686.38 1.0797e-14
8687.63 1.0863e-14
8688.89 1.0844e-14
8690.14 1.0873e-14
8691.39 1.0782e-14
8692.65 1.0644e-14
8693.9 1.069e-14
8695.15 1.0779e-14
8696.41 1.071e-14
8697.66 1.0683e-14
8698.91 1.0759e-14
8700.17 1.0638e-14
8701.42 1.0659e-14
8702.67 1.0583e-14
8703.93 1.0485e-14
8705.18 1.0481e-14
8706.44 1.0484e-14
8707.69 1.0556e-14
8708.94 1.0584e-14
8710.2 1.0561e-14
8711.45 1.0566e-14
8712.7 1.0643e-14
8713.96 1.0676e-14
8715.21 1.0631e-14
8716.46 1.0619e-14
8717.72 1.0584e-14
8718.97 1.0531e-14
8720.22 1.0549e-14
8721.48 1.0465e-14
8722.73 1.0429e-14
8723.98 1.0425e-14
8725.24 1.0362e-14
8726.49 1.0497e-14
8727.74 1.048e-14
8729.0 1.0635e-14
8730.25 1.0551e-14
8731.5 1.0654e-14
8732.76 1.0402e-14
8734.01 1.0407e-14
8735.26 1.0482e-14
8736.52 1.0345e-14
8737.77 1.0452e-14
8739.02 1.0381e-14
8740.28 1.0354e-14
8741.53 1.0467e-14
8742.78 1.0283e-14
8744.04 1.0305e-14
8745.29 1.0314e-14
8746.54 1.0362e-14
8747.8 1.0292e-14
8749.05 1.0296e-14
8750.3 1.028e-14
8751.56 1.019e-14
8752.81 1.024e-14
8754.06 1.0303e-14
8755.32 1.0384e-14
8756.57 1.0314e-14
8757.82 1.035e-14
8759.08 1.012e-14
8760.33 1.012e-14
8761.58 9.8861e-15
8762.84 9.9001e-15
8764.09 9.8408e-15
8765.34 1.0103e-14
8766.6 1.0159e-14
8767.85 1.0369e-14
8769.1 1.0496e-14
8770.36 1.043e-14
8771.61 1.0677e-14
8772.86 1.0557e-14
8774.12 1.0454e-14
8775.37 1.0441e-14
8776.62 1.0395e-14
8777.88 1.0388e-14
8779.13 1.0256e-14
8780.38 1.0131e-14
8781.64 1.0081e-14
8782.89 1.0018e-14
8784.15 9.8553e-15
8785.4 9.7185e-15
8786.65 9.8495e-15
8787.91 9.7763e-15
8789.16 9.749e-15
8790.41 9.8935e-15
8791.67 1.0046e-14
8792.92 1.0188e-14
8794.17 1.0248e-14
8795.43 1.0427e-14
8796.68 1.0389e-14
8797.93 1.0237e-14
8799.19 1.0287e-14
8800.44 1.0123e-14
8801.69 9.9997e-15
8802.95 9.8997e-15
8804.2 9.7226e-15
8805.45 9.6998e-15
8806.71 9.7118e-15
8807.96 9.6945e-15
8809.21 9.6871e-15
8810.47 9.6082e-15
8811.72 9.7307e-15
8812.97 9.9843e-15
8814.23 1.0145e-14
8815.48 1.0189e-14
8816.73 1.0228e-14
8817.99 1.0136e-14
8819.24 1.011e-14
8820.49 9.9207e-15
8821.75 1.005e-14
8823.0 9.8691e-15
8824.25 9.7858e-15
8825.51 9.6223e-15
8826.76 9.6966e-15
8828.01 9.6737e-15
8829.27 9.6985e-15
8830.52 9.4754e-15
8831.77 9.5386e-15
8833.03 9.472e-15
8834.28 9.6553e-15
8835.53 9.5968e-15
8836.79 9.619e-15
8838.04 9.7334e-15
8839.29 9.7213e-15
8840.55 9.6913e-15
8841.8 9.7087e-15
8843.05 9.9527e-15
8844.31 9.8717e-15
8845.56 9.8887e-15
8846.81 9.8837e-15
8848.07 9.7293e-15
8849.32 9.7939e-15
8850.57 9.7553e-15
8851.83 9.5442e-15
8853.08 9.4495e-15
8854.33 9.3871e-15
8855.59 9.4749e-15
8856.84 9.547e-15
8858.09 9.3003e-15
8859.35 9.2637e-15
8860.6 9.5121e-15
8861.86 9.5175e-15
8863.11 9.5254e-15
8864.36 9.5631e-15
8865.62 9.5393e-15
8866.87 9.3364e-15
8868.12 9.3029e-15
8869.38 9.3627e-15
8870.63 9.3183e-15
8871.88 9.385e-15
8873.14 9.251e-15
8874.39 9.1942e-15
8875.64 9.4198e-15
8876.9 9.3576e-15
8878.15 9.3339e-15
8879.4 9.2091e-15
8880.66 9.1588e-15
8881.91 9.2716e-15
8883.16 9.4193e-15
8884.42 9.6003e-15
8885.67 9.6195e-15
8886.92 9.76e-15
8888.18 9.8217e-15
8889.43 9.5554e-15
8890.68 9.4076e-15
8891.94 9.4515e-15
8893.19 9.3848e-15
8894.44 9.3075e-15
8895.7 9.158e-15
8896.95 9.1703e-15
8898.2 9.0557e-15
8899.46 9.0102e-15
8900.71 8.88e-15
8901.96 9.0517e-15
8903.22 9.0042e-15
8904.47 9.1321e-15
8905.72 9.3351e-15
8906.98 9.2551e-15
8908.23 9.0636e-15
8909.48 9.1489e-15
8910.74 9.1381e-15
8911.99 9.1804e-15
8913.24 9.2331e-15
8914.5 9.2727e-15
8915.75 9.2084e-15
8917.0 9.1068e-15
8918.26 8.9732e-15
8919.51 9.0732e-15
8920.76 9.1472e-15
8922.02 9.2936e-15
8923.27 9.3016e-15
8924.52 9.2608e-15
8925.78 9.4445e-15
8927.03 9.174e-15
8928.28 9.1479e-15
8929.54 8.6144e-15
8930.79 8.4036e-15
8932.04 8.7157e-15
8933.3 8.7498e-15
8934.55 8.4104e-15
8935.8 8.4053e-15
8937.06 8.9783e-15
8938.31 8.8279e-15
8939.57 8.5959e-15
8940.82 8.3157e-15
8942.07 8.3127e-15
8943.33 8.1537e-15
8944.58 8.3814e-15
8945.83 8.4528e-15
8947.09 7.9866e-15
8948.34 7.9966e-15
8949.59 8.278e-15
8950.85 8.3319e-15
8952.1 8.1496e-15
8953.35 7.963e-15
8954.61 7.7789e-15
8955.86 7.7403e-15
8957.11 8.5181e-15
8958.37 8.3067e-15
8959.62 8.1571e-15
8960.87 8.4248e-15
8962.13 7.9462e-15
8963.38 6.9169e-15
8964.63 6.7871e-15
8965.89 6.8729e-15
8967.14 6.9121e-15
8968.39 7.7499e-15
8969.65 8.1152e-15
8970.9 7.8191e-15
8972.15 6.7791e-15
8973.41 6.8758e-15
8974.66 7.1417e-15
8975.91 7.1971e-15
8977.17 7.7645e-15
8978.42 8.2489e-15
8979.67 8.2815e-15
8980.93 7.4129e-15
8982.18 7.0675e-15
8983.43 7.8233e-15
8984.69 8.0727e-15
8985.94 7.7264e-15
8987.19 6.7562e-15
8988.45 5.1444e-15
8989.7 5.5549e-15
8990.95 5.899e-15
8992.21 5.4352e-15
8993.46 6.2458e-15
8994.71 7.4282e-15
8995.97 7.9793e-15
8997.22 8.3091e-15
8998.47 8.4141e-15
8999.73 8.6174e-15
9000.98 7.0928e-15
9002.23 6.6612e-15
9003.49 7.5504e-15
9004.74 6.9035e-15
9005.99 7.4676e-15
9007.25 7.4458e-15
9008.5 6.7114e-15
9009.75 7.0723e-15
9011.01 7.6804e-15
9012.26 7.1424e-15
9013.51 7.029e-15
9014.77 7.4928e-15
9016.02 7.4793e-15
9017.28 6.2845e-15
9018.53 6.2283e-15
9019.78 7.204e-15
9021.04 7.6463e-15
9022.29 7.5621e-15
9023.54 6.8668e-15
9024.8 7.1019e-15
9026.05 6.9827e-15
9027.3 6.81e-15
9028.56 7.4476e-15
9029.81 7.4796e-15
9031.06 7.4009e-15
9032.32 6.9738e-15
9033.57 7.0665e-15
9034.82 7.3434e-15
9036.08 7.3005e-15
9037.33 7.3927e-15
9038.58 7.3658e-15
9039.84 7.2056e-15
9041.09 6.7139e-15
9042.34 6.3074e-15
9043.6 6.0993e-15
9044.85 6.8233e-15
9046.1 7.453e-15
9047.36 7.3824e-15
9048.61 7.3527e-15
9049.86 7.4725e-15
9051.12 7.6551e-15
9052.37 7.4383e-15
9053.62 7.0203e-15
9054.88 7.097e-15
9056.13 7.5589e-15
9057.38 7.6243e-15
9058.64 7.4118e-15
9059.89 7.2122e-15
9061.14 6.7254e-15
9062.4 6.2995e-15
9063.65 6.0967e-15
9064.9 6.3712e-15
9066.16 6.7235e-15
9067.41 7.1188e-15
9068.66 6.8382e-15
9069.92 6.2638e-15
9071.17 6.4841e-15
9072.42 6.5193e-15
9073.68 6.4442e-15
9074.93 6.8631e-15
9076.18 7.3169e-15
9077.44 7.8589e-15
9078.69 7.5155e-15
9079.94 6.2018e-15
9081.2 5.4315e-15
9082.45 5.9921e-15
9083.7 6.8765e-15
9084.96 7.2688e-15
9086.21 6.7527e-15
9087.46 5.9909e-15
9088.72 6.4512e-15
9089.97 7.0506e-15
9091.22 6.9403e-15
9092.48 7.0031e-15
9093.73 6.5603e-15
9094.99 6.6962e-15
9096.24 6.9908e-15
9097.49 7.5151e-15
9098.75 7.2384e-15
9100.0 6.2074e-15
9101.25 5.962e-15
9102.51 7.0389e-15
9103.76 7.7793e-15
9105.01 7.4765e-15
9106.27 6.5445e-15
9107.52 5.8787e-15
9108.77 6.0345e-15
9110.03 6.9611e-15
9111.28 7.9445e-15
9112.53 8.1074e-15
9113.79 8.2184e-15
9115.04 7.9832e-15
9116.29 7.5678e-15
9117.55 7.0696e-15
9118.8 6.3244e-15
9120.05 6.2269e-15
9121.31 7.3437e-15
9122.56 8.1924e-15
9123.81 8.1176e-15
9125.07 7.5846e-15
9126.32 7.6707e-15
9127.57 7.7809e-15
9128.83 6.9675e-15
9130.08 6.3549e-15
9131.33 5.9821e-15
9132.59 6.615e-15
9133.84 7.2443e-15
9135.09 6.7109e-15
9136.35 5.7063e-15
9137.6 5.5695e-15
9138.85 7.1073e-15
9140.11 7.9932e-15
9141.36 7.7636e-15
9142.61 7.6902e-15
9143.87 7.3964e-15
9145.12 7.3167e-15
9146.37 7.6698e-15
9147.63 7.9259e-15
9148.88 7.8919e-15
9150.13 7.4335e-15
9151.39 6.9524e-15
9152.64 5.9505e-15
9153.89 5.5865e-15
9155.15 6.4449e-15
9156.4 6.1635e-15
9157.65 6.592e-15
9158.91 7.6528e-15
9160.16 7.5944e-15
9161.41 7.3381e-15
9162.67 7.6343e-15
9163.92 7.8302e-15
9165.17 7.8587e-15
9166.43 8.1798e-15
9167.68 8.024e-15
9168.93 7.2796e-15
9170.19 7.2863e-15
9171.44 7.5783e-15
9172.7 6.9877e-15
9173.95 6.4328e-15
9175.2 5.7218e-15
9176.46 5.8944e-15
9177.71 6.4258e-15
9178.96 6.9058e-15
9180.22 7.5735e-15
9181.47 7.7289e-15
9182.72 7.6862e-15
9183.98 7.4003e-15
9185.23 6.6982e-15
9186.48 7.2766e-15
9187.74 8.1817e-15
9188.99 8.3502e-15
9190.24 8.247e-15
9191.5 7.8093e-15
9192.75 7.5009e-15
9194.0 7.3781e-15
9195.26 7.0271e-15
9196.51 6.3936e-15
9197.76 7.486e-15
9199.02 8.4607e-15
9200.27 8.5502e-15
9201.52 8.8768e-15
9202.78 8.8522e-15
9204.03 8.6663e-15
9205.28 8.2988e-15
9206.54 7.6402e-15
9207.79 7.3362e-15
9209.04 7.3667e-15
9210.3 7.7667e-15
9211.55 8.0085e-15
9212.8 7.6526e-15
9214.06 7.2797e-15
9215.31 6.7364e-15
9216.56 6.7188e-15
9217.82 6.7119e-15
9219.07 7.3321e-15
9220.32 8.2354e-15
9221.58 8.3266e-15
9222.83 8.1045e-15
9224.08 8.0779e-15
9225.34 7.789e-15
9226.59 7.7431e-15
9227.84 8.1734e-15
9229.1 7.8744e-15
9230.35 7.4169e-15
9231.6 7.4924e-15
9232.86 7.528e-15
9234.11 7.4834e-15
9235.36 7.0884e-15
9236.62 7.1945e-15
9237.87 7.2009e-15
9239.12 6.9161e-15
9240.38 7.0818e-15
9241.63 7.661e-15
9242.88 7.5571e-15
9244.14 7.2781e-15
9245.39 6.7241e-15
9246.64 6.7768e-15
9247.9 7.3058e-15
9249.15 7.7112e-15
9250.41 6.0274e-15
9251.66 4.2583e-15
9252.91 4.1691e-15
9254.17 4.4469e-15
9255.42 3.9456e-15
9256.67 3.9142e-15
9257.93 4.0077e-15
9259.18 4.1148e-15
9260.43 4.2669e-15
9261.69 5.3379e-15
9262.94 7.1019e-15
9264.19 7.7207e-15
9265.45 8.1879e-15
9266.7 7.985e-15
9267.95 7.9288e-15
9269.21 7.7616e-15
9270.46 7.5731e-15
9271.71 7.4783e-15
9272.97 6.9931e-15
9274.22 6.6768e-15
9275.47 6.969e-15
9276.73 7.0908e-15
9277.98 6.5583e-15
9279.23 5.7416e-15
9280.49 5.2306e-15
9281.74 5.8808e-15
9282.99 6.7699e-15
9284.25 6.5509e-15
9285.5 5.6055e-15
9286.75 5.2558e-15
9288.01 5.7212e-15
9289.26 6.2194e-15
9290.51 6.5904e-15
9291.77 6.4296e-15
9293.02 6.0796e-15
9294.27 5.8354e-15
9295.53 5.3462e-15
9296.78 5.5276e-15
