# wavelength flux
3300.0 7.108060825492635e-15
3301.0 7.107957852228594e-15
3302.0 7.107854877309117e-15
3303.0 7.107751900730187e-15
3304.0 7.107648922487777e-15
3305.0 7.107545942577842e-15
3306.0 7.107442960996355e-15
3307.0 7.107339977739267e-15
3308.0 7.107236992802527e-15
3309.0 7.107134006182081e-15
3310.0 7.10703101787387e-15
3311.0 7.106928027873829e-15
3312.0 7.106825036177888e-15
3313.0 7.106722042781968e-15
3314.0 7.106619047681991e-15
3315.0 7.106516050873869e-15
3316.0 7.106413052353513e-15
3317.0 7.10631005211682e-15
3318.0 7.106207050159694e-15
3319.0 7.106104046478026e-15
3320.0 7.106001041067702e-15
3321.0 7.105898033924608e-15
3322.0 7.105795025044615e-15
3323.0 7.105692014423598e-15
3324.0 7.105589002057417e-15
3325.0 7.10548598794194e-15
3326.0 7.105382972073019e-15
3327.0 7.105279954446506e-15
3328.0 7.105176935058242e-15
3329.0 7.105073913904068e-15
3330.0 7.1049708909798155e-15
3331.0 7.104867866281318e-15
3332.0 7.104764839804395e-15
3333.0 7.104661811544862e-15
3334.0 7.1045587814985366e-15
3335.0 7.1044557496612216e-15
3336.0 7.104352716028718e-15
3337.0 7.104249680596825e-15
3338.0 7.104146643361329e-15
3339.0 7.104043604318018e-15
3340.0 7.1039405634626725e-15
3341.0 7.103837520791064e-15
3342.0 7.103734476298962e-15
3343.0 7.1036314299821295e-15
3344.0 7.1035283818363246e-15
3345.0 7.103425331857299e-15
3346.0 7.103322280040802e-15
3347.0 7.103219226382572e-15
3348.0 7.103116170878347e-15
3349.0 7.103013113523853e-15
3350.0 7.10291005431482e-15
3351.0 7.102806993246964e-15
3352.0 7.102703930316e-15
3353.0 7.102600865517635e-15
3354.0 7.102497798847574e-15
3355.0 7.102394730301509e-15
3356.0 7.102291659875137e-15
3357.0 7.102188587564142e-15
3358.0 7.1020855133642025e-15
3359.0 7.101982437270996e-15
3360.0 7.10187935928019e-15
3361.0 7.1017762793874486e-15
3362.0 7.101673197588431e-15
3363.0 7.101570113878786e-15
3364.0 7.101467028254163e-15
3365.0 7.101363940710204e-15
3366.0 7.1012608512425415e-15
3367.0 7.101157759846807e-15
3368.0 7.1010546665186255e-15
3369.0 7.1009515712536144e-15
3370.0 7.100848474047389e-15
3371.0 7.10074537489555e-15
3372.0 7.100642273793705e-15
3373.0 7.100539170737449e-15
3374.0 7.10043606572237e-15
3375.0 7.100332958744053e-15
3376.0 7.100229849798078e-15
3377.0 7.100126738880019e-15
3378.0 7.1000236259854394e-15
3379.0 7.099920511109904e-15
3380.0 7.099817394248964e-15
3381.0 7.099714275398177e-15
3382.0 7.09961115455308e-15
3383.0 7.099508031709218e-15
3384.0 7.0994049068621204e-15
3385.0 7.099301780007313e-15
3386.0 7.0991986511403214e-15
3387.0 7.099095520256655e-15
3388.0 7.098992387351827e-15
3389.0 7.098889252421341e-15
3390.0 7.098786115460696e-15
3391.0 7.098682976465381e-15
3392.0 7.098579835430887e-15
3393.0 7.098476692352692e-15
3394.0 7.09837354722627e-15
3395.0 7.098270400047089e-15
3396.0 7.098167250810615e-15
3397.0 7.098064099512305e-15
3398.0 7.097960946147608e-15
3399.0 7.0978577907119684e-15
3400.0 7.0977546332008305e-15
3401.0 7.0976514736096265e-15
3402.0 7.0975483119337795e-15
3403.0 7.0974451481687165e-15
3404.0 7.097341982309852e-15
3405.0 7.097238814352593e-15
3406.0 7.0971356442923476e-15
3407.0 7.097032472124512e-15
3408.0 7.0969292978444794e-15
3409.0 7.096826121447634e-15
3410.0 7.0967229429293554e-15
3411.0 7.096619762285023e-15
3412.0 7.096516579509999e-15
3413.0 7.0964133945996506e-15
3414.0 7.096310207549329e-15
3415.0 7.09620701835439e-15
3416.0 7.096103827010173e-15
3417.0 7.096000633512019e-15
3418.0 7.0958974378552604e-15
3419.0 7.095794240035222e-15
3420.0 7.095691040047226e-15
3421.0 7.095587837886582e-15
3422.0 7.095484633548603e-15
3423.0 7.095381427028588e-15
3424.0 7.095278218321834e-15
3425.0 7.095175007423631e-15
3426.0 7.095071794329263e-15
3427.0 7.0949685790340056e-15
3428.0 7.094865361533132e-15
3429.0 7.094762141821909e-15
3430.0 7.094658919895592e-15
3431.0 7.094555695749439e-15
3432.0 7.094452469378693e-15
3433.0 7.094349240778595e-15
3434.0 7.094246009944383e-15
3435.0 7.0941427768712846e-15
3436.0 7.094039541554519e-15
3437.0 7.093936303989305e-15
3438.0 7.093833064170851e-15
3439.0 7.093729822094363e-15
3440.0 7.09362657775504e-15
3441.0 7.09352333114807e-15
3442.0 7.0934200822686385e-15
3443.0 7.093316831111925e-15
3444.0 7.093213577673106e-15
3445.0 7.09311032194734e-15
3446.0 7.093007063929795e-15
3447.0 7.092903803615622e-15
3448.0 7.0928005409999675e-15
3449.0 7.092697276077976e-15
3450.0 7.092594008844778e-15
3451.0 7.092490739295508e-15
3452.0 7.092387467425286e-15
3453.0 7.0922841932292275e-15
3454.0 7.0921809167024445e-15
3455.0 7.092077637840036e-15
3456.0 7.0919743566371064e-15
3457.0 7.091871073088741e-15
3458.0 7.091767787190026e-15
3459.0 7.0916644989360425e-15
3460.0 7.0915612083218595e-15
3461.0 7.091457915342542e-15
3462.0 7.091354619993151e-15
3463.0 7.0912513222687395e-15
3464.0 7.091148022164353e-15
3465.0 7.091044719675031e-15
3466.0 7.090941414795808e-15
3467.0 7.0908381075217124e-15
3468.0 7.090734797847761e-15
3469.0 7.090631485768973e-15
3470.0 7.090528171280352e-15
3471.0 7.090424854376902e-15
3472.0 7.090321535053617e-15
3473.0 7.090218213305485e-15
3474.0 7.090114889127489e-15
3475.0 7.090011562514604e-15
3476.0 7.089908233461798e-15
3477.0 7.089804901964038e-15
3478.0 7.089701568016274e-15
3479.0 7.089598231613458e-15
3480.0 7.089494892750534e-15
3481.0 7.089391551422439e-15
3482.0 7.0892882076240985e-15
3483.0 7.089184861350439e-15
3484.0 7.089081512596376e-15
3485.0 7.0889781613568224e-15
3486.0 7.08887480762668e-15
3487.0 7.088771451400844e-15
3488.0 7.088668092674208e-15
3489.0 7.088564731441653e-15
3490.0 7.088461367698058e-15
3491.0 7.088358001438293e-15
3492.0 7.088254632657221e-15
3493.0 7.088151261349701e-15
3494.0 7.088047887510584e-15
3495.0 7.087944511134711e-15
3496.0 7.0878411322169226e-15
3497.0 7.0877377507520454e-15
3498.0 7.0876343667349074e-15
3499.0 7.087530980160324e-15
3500.0 7.0874275910231066e-15
3501.0 7.087324199318057e-15
3501.3 1.3742e-15
3503.04 1.2975e-15
3504.78 1.2736e-15
3506.52 1.3812e-15
3508.26 1.1653e-15
3509.99 1.2686e-15
3511.73 1.2244e-15
3513.47 1.3241e-15
3515.21 1.1979e-15
3516.95 1.0726e-15
3518.69 1.1971e-15
3520.43 1.1536e-15
3522.17 1.2373e-15
3523.91 1.236e-15
3525.64 1.2635e-15
3527.38 1.356e-15
3529.12 1.2873e-15
3530.86 1.105e-15
3532.6 1.2646e-15
3534.34 1.333e-15
3536.08 1.2297e-15
3537.82 1.2008e-15
3539.56 1.3174e-15
3541.29 1.4047e-15
3543.03 1.3148e-15
3544.77 1.2814e-15
3546.51 1.4362e-15
3548.25 1.3879e-15
3549.99 1.374e-15
3551.73 1.3308e-15
3553.47 1.2918e-15
3555.21 1.3341e-15
3556.94 1.4746e-15
3558.68 1.442e-15
3560.42 1.4988e-15
3562.16 1.5036e-15
3563.9 1.4025e-15
3565.64 1.5281e-15
3567.38 1.3709e-15
3569.12 1.4041e-15
3570.86 1.383e-15
3572.59 1.3998e-15
3574.33 1.5139e-15
3576.07 1.2986e-15
3577.81 1.4152e-15
3579.55 1.4802e-15
3581.29 1.3513e-15
3583.03 1.5808e-15
3584.77 1.551e-15
3586.5 1.4113e-15
3588.24 1.3894e-15
3589.98 1.4754e-15
3591.72 1.4004e-15
3593.46 1.4123e-15
3595.2 1.5098e-15
3596.94 1.4678e-15
3598.68 1.4833e-15
3600.42 1.5385e-15
3602.15 1.4667e-15
3603.89 1.4645e-15
3605.63 1.4554e-15
3607.37 1.4599e-15
3609.11 1.3642e-15
3610.85 1.3985e-15
3612.59 1.3478e-15
3614.33 1.3047e-15
3616.07 1.3057e-15
3617.8 1.3354e-15
3619.54 1.3954e-15
3621.28 1.2992e-15
3623.02 1.3393e-15
3624.76 1.3735e-15
3626.5 1.353e-15
3628.24 1.2872e-15
3629.98 1.3474e-15
3631.72 1.4605e-15
3633.45 1.4252e-15
3635.19 1.3711e-15
3636.93 1.3218e-15
3638.67 1.2885e-15
3640.41 1.1612e-15
3642.15 1.261e-15
3643.89 1.3403e-15
3645.63 1.2889e-15
3647.37 1.3941e-15
3649.1 1.342e-15
3650.84 1.3076e-15
3652.58 1.4621e-15
3654.32 1.3276e-15
3656.06 1.158e-15
3657.8 1.2882e-15
3659.54 1.3413e-15
3661.28 1.3191e-15
3663.02 1.4134e-15
3664.75 1.3177e-15
3666.49 1.3241e-15
3668.23 1.33e-15
3669.97 1.3781e-15
3671.71 1.3263e-15
3673.45 1.4313e-15
3675.19 1.359e-15
3676.93 1.2795e-15
3678.67 1.3177e-15
3680.4 1.3874e-15
3682.14 1.4582e-15
3683.88 1.4185e-15
3685.62 1.4932e-15
3687.36 1.4872e-15
3689.1 1.5028e-15
3690.84 1.6465e-15
3692.58 1.7328e-15
3694.32 1.7494e-15
3696.05 1.7323e-15
3697.79 1.8301e-15
3699.53 1.8008e-15
3701.27 1.8638e-15
3703.01 2.0272e-15
3704.75 2.1062e-15
3706.49 2.0312e-15
3708.23 2.0424e-15
3709.96 2.147e-15
3711.7 2.1765e-15
3713.44 2.3003e-15
3715.18 2.1681e-15
3716.92 2.2828e-15
3718.66 2.4646e-15
3720.4 2.5948e-15
3722.14 2.5984e-15
3723.88 2.7358e-15
3725.61 2.6005e-15
3727.35 2.7728e-15
3729.09 2.8282e-15
3730.83 2.867e-15
3732.57 2.8535e-15
3734.31 2.8652e-15
3736.05 2.8677e-15
3737.79 2.8728e-15
3739.53 2.9506e-15
3741.26 3.0095e-15
3743.0 2.9284e-15
3744.74 2.9178e-15
3746.48 3.0201e-15
3748.22 2.999e-15
3749.96 2.984e-15
3751.7 3.004e-15
3753.44 3.1428e-15
3755.18 3.1235e-15
3756.91 2.9999e-15
3758.65 3.0788e-15
3760.39 3.0861e-15
3762.13 3.0658e-15
3763.87 3.0869e-15
3765.61 2.9264e-15
3767.35 3.0646e-15
3769.09 3.0686e-15
3770.83 3.1354e-15
3772.56 3.0321e-15
3774.3 3.0523e-15
3776.04 3.0656e-15
3777.78 2.8424e-15
3779.52 2.9277e-15
3781.26 2.9413e-15
3783.0 2.9695e-15
3784.74 3.0555e-15
3786.48 2.9683e-15
3788.21 2.9792e-15
3789.95 2.9425e-15
3791.69 2.8253e-15
3793.43 2.8134e-15
3795.17 2.7863e-15
3796.91 2.6648e-15
3798.65 2.773e-15
3800.39 2.6644e-15
3802.13 2.6208e-15
3803.86 2.5765e-15
3805.6 2.4985e-15
3807.34 2.3103e-15
3809.08 2.2244e-15
3810.82 2.2327e-15
3812.56 2.2383e-15
3814.3 2.1786e-15
3816.04 2.1181e-15
3817.77 1.9586e-15
3819.51 1.9081e-15
3821.25 1.834e-15
3822.99 1.708e-15
3824.73 1.8043e-15
3826.47 1.7141e-15
3828.21 1.674e-15
3829.95 1.7246e-15
3831.69 1.6669e-15
3833.42 1.6184e-15
3835.16 1.5773e-15
3836.9 1.5608e-15
3838.64 1.5068e-15
3840.38 1.425e-15
3842.12 1.5104e-15
3843.86 1.4259e-15
3845.6 1.3504e-15
3847.34 1.542e-15
3849.07 1.4744e-15
3850.81 1.3788e-15
3852.55 1.3342e-15
3854.29 1.1746e-15
3856.03 1.3329e-15
3857.77 1.4661e-15
3859.51 1.401e-15
3861.25 1.4367e-15
3862.99 1.5213e-15
3864.72 1.5792e-15
3866.46 1.4915e-15
3868.2 1.5667e-15
3869.94 1.6121e-15
3871.68 1.5682e-15
3873.42 1.7867e-15
3875.16 1.7956e-15
3876.9 1.7712e-15
3878.64 1.9029e-15
3880.37 1.9536e-15
3882.11 1.9208e-15
3883.85 2.0161e-15
3885.59 2.0271e-15
3887.33 2.1609e-15
3889.07 2.1749e-15
3890.81 2.274e-15
3892.55 2.3054e-15
3894.29 2.3683e-15
3896.02 2.4718e-15
3897.76 2.5781e-15
3899.5 2.6147e-15
3901.24 2.6183e-15
3902.98 2.8126e-15
3904.72 2.9028e-15
3906.46 2.9606e-15
3908.2 3.0842e-15
3909.94 3.2561e-15
3911.67 3.2468e-15
3913.41 3.4559e-15
3915.15 3.4707e-15
3916.89 3.6806e-15
3918.63 3.8021e-15
3920.37 3.9494e-15
3922.11 4.11e-15
3923.85 4.166e-15
3925.58 4.2706e-15
3927.32 4.2802e-15
3929.06 4.393e-15
3930.8 4.4713e-15
3932.54 4.4767e-15
3934.28 4.7404e-15
3936.02 4.8945e-15
3937.76 5.0971e-15
3939.5 5.1057e-15
3941.23 5.017e-15
3942.97 5.3359e-15
3944.71 5.4644e-15
3946.45 5.3403e-15
3948.19 5.3915e-15
3949.93 5.6185e-15
3951.67 5.5716e-15
3953.41 5.6455e-15
3955.15 5.7843e-15
3956.88 5.8563e-15
3958.62 5.8608e-15
3960.36 5.7414e-15
3962.1 5.7469e-15
3963.84 5.8552e-15
3965.58 5.9291e-15
3967.32 5.9046e-15
3969.06 6.0379e-15
3970.8 5.9125e-15
3972.53 6.0751e-15
3974.27 6.1865e-15
3976.01 6.1952e-15
3977.75 6.2754e-15
3979.49 6.4079e-15
3981.23 6.3517e-15
3982.97 6.3771e-15
3984.71 6.3955e-15
3986.45 6.3284e-15
3988.18 6.4234e-15
3989.92 6.4594e-15
3991.66 6.5164e-15
3993.4 6.5936e-15
3995.14 6.5123e-15
3996.88 6.5892e-15
3998.62 6.5753e-15
4000.36 6.5601e-15
4002.1 6.4532e-15
4003.83 6.519e-15
4005.57 6.5563e-15
4007.31 6.5408e-15
4009.05 6.5152e-15
4010.79 6.4614e-15
4012.53 6.3578e-15
4014.27 6.3411e-15
4016.01 6.2471e-15
4017.75 6.3613e-15
4019.48 6.3671e-15
4021.22 6.2421e-15
4022.96 6.2981e-15
4024.7 6.0941e-15
4026.44 5.9102e-15
4028.18 5.8128e-15
4029.92 5.9277e-15
4031.66 5.8258e-15
4033.39 5.7009e-15
4035.13 5.5785e-15
4036.87 5.7758e-15
4038.61 5.7505e-15
4040.35 5.6573e-15
4042.09 5.6524e-15
4043.83 5.7844e-15
4045.57 5.5847e-15
4047.31 5.5184e-15
4049.04 5.5732e-15
4050.78 5.6424e-15
4052.52 5.5805e-15
4054.26 5.6764e-15
4056.0 5.7513e-15
4057.74 5.8155e-15
4059.48 5.8197e-15
4061.22 5.7223e-15
4062.96 5.7605e-15
4064.69 5.8388e-15
4066.43 5.6556e-15
4068.17 5.6401e-15
4069.91 5.7043e-15
4071.65 5.8065e-15
4073.39 5.7432e-15
4075.13 5.7499e-15
4076.87 5.6675e-15
4078.61 5.6074e-15
4080.34 5.6185e-15
4082.08 5.7617e-15
4083.82 5.6591e-15
4085.56 5.5902e-15
4087.3 5.6296e-15
4089.04 5.6583e-15
4090.78 5.6571e-15
4092.52 5.7407e-15
4094.26 5.6432e-15
4095.99 5.5505e-15
4097.73 5.5025e-15
4099.47 5.5722e-15
4101.21 5.6481e-15
4102.95 5.6064e-15
4104.69 5.52e-15
4106.43 5.462e-15
4108.17 5.527e-15
4109.91 5.5528e-15
4111.64 5.5181e-15
4113.38 5.4391e-15
4115.12 5.4926e-15
4116.86 5.5005e-15
4118.6 5.4753e-15
4120.34 5.6517e-15
4122.08 5.561e-15
4123.82 5.3811e-15
4125.56 5.5239e-15
4127.29 5.4269e-15
4129.03 5.3679e-15
4130.77 5.3653e-15
4132.51 5.307e-15
4134.25 5.3366e-15
4135.99 5.4357e-15
4137.73 5.5397e-15
4139.47 5.4271e-15
4141.2 5.3186e-15
4142.94 5.3204e-15
4144.68 5.1994e-15
4146.42 5.1476e-15
4148.16 5.1579e-15
4149.9 5.0789e-15
4151.64 5.0123e-15
4153.38 4.8373e-15
4155.12 4.7826e-15
4156.85 4.6598e-15
4158.59 4.6019e-15
4160.33 4.5191e-15
4162.07 4.3783e-15
4163.81 4.4035e-15
4165.55 4.2834e-15
4167.29 4.1157e-15
4169.03 4.1173e-15
4170.77 4.0992e-15
4172.5 3.9718e-15
4174.24 3.8806e-15
4175.98 3.7083e-15
4177.72 3.6729e-15
4179.46 3.6261e-15
4181.2 3.5954e-15
4182.94 3.5587e-15
4184.68 3.5086e-15
4186.42 3.4748e-15
4188.15 3.6031e-15
4189.89 3.5922e-15
4191.63 3.5263e-15
4193.37 3.5738e-15
4195.11 3.5962e-15
4196.85 3.5136e-15
4198.59 3.4257e-15
4200.33 3.5318e-15
4202.07 3.542e-15
4203.8 3.4219e-15
4205.54 3.3689e-15
4207.28 3.3852e-15
4209.02 3.3483e-15
4210.76 3.2862e-15
4212.5 3.2351e-15
4214.24 3.3305e-15
4215.98 3.3276e-15
4217.72 3.2226e-15
4219.45 3.1664e-15
4221.19 3.1009e-15
4222.93 3.0886e-15
4224.67 3.0682e-15
4226.41 2.937e-15
4228.15 2.9848e-15
4229.89 2.9804e-15
4231.63 2.9262e-15
4233.37 2.9069e-15
4235.1 2.9252e-15
4236.84 2.9691e-15
4238.58 2.9834e-15
4240.32 2.8304e-15
4242.06 2.8616e-15
4243.8 2.8862e-15
4245.54 2.9159e-15
4247.28 2.9316e-15
4249.01 2.8185e-15
4250.75 2.7829e-15
4252.49 2.8825e-15
4254.23 2.8708e-15
4255.97 2.9146e-15
4257.71 2.9766e-15
4259.45 2.9636e-15
4261.19 3.0429e-15
4262.93 2.9812e-15
4264.66 2.9503e-15
4266.4 3.0596e-15
4268.14 3.0251e-15
4269.88 3.048e-15
4271.62 3.0971e-15
4273.36 3.1537e-15
4275.1 3.1562e-15
4276.84 3.2994e-15
4278.58 3.3705e-15
4280.31 3.3428e-15
4282.05 3.4745e-15
4283.79 3.4981e-15
4285.53 3.4768e-15
4287.27 3.7856e-15
4289.01 3.8368e-15
4290.75 3.862e-15
4292.49 3.9929e-15
4294.23 4.1169e-15
4295.96 4.1643e-15
4297.7 4.1864e-15
4299.44 4.2102e-15
4301.18 4.3798e-15
4302.92 4.2338e-15
4304.66 4.1949e-15
4306.4 4.1421e-15
4308.14 4.1897e-15
4309.88 4.1839e-15
4311.61 4.1998e-15
4313.35 4.2987e-15
4315.09 4.1302e-15
4316.83 4.0991e-15
4318.57 4.0614e-15
4320.31 4.101e-15
4322.05 4.1411e-15
4323.79 4.0032e-15
4325.53 4.1404e-15
4327.26 4.1993e-15
4329.0 4.1812e-15
4330.74 4.1185e-15
4332.48 4.1266e-15
4334.22 4.1143e-15
4335.96 4.1767e-15
4337.7 4.2559e-15
4339.44 4.0899e-15
4341.18 4.0875e-15
4342.91 4.2155e-15
4344.65 4.2841e-15
4346.39 4.2095e-15
4348.13 4.3275e-15
4349.87 4.3525e-15
4351.61 4.4167e-15
4353.35 4.3891e-15
4355.09 4.309e-15
4356.82 4.2955e-15
4358.56 4.3383e-15
4360.3 4.3574e-15
4362.04 4.621e-15
4363.78 4.7946e-15
4365.52 4.8177e-15
4367.26 4.7944e-15
4369.0 4.8017e-15
4370.74 4.8342e-15
4372.47 4.8461e-15
4374.21 4.8667e-15
4375.95 4.8836e-15
4377.69 4.8436e-15
4379.43 4.7132e-15
4381.17 4.7336e-15
4382.91 4.8652e-15
4384.65 4.9245e-15
4386.39 4.7731e-15
4388.12 4.7213e-15
4389.86 4.7714e-15
4391.6 4.8098e-15
4393.34 4.7932e-15
4395.08 4.6512e-15
4396.82 4.4793e-15
4398.56 4.3882e-15
4400.3 4.4756e-15
4402.04 4.5747e-15
4403.77 4.471e-15
4405.51 4.4964e-15
4407.25 4.3352e-15
4408.99 4.2432e-15
4410.73 4.173e-15
4412.47 4.4008e-15
4414.21 4.147e-15
4415.95 4.2178e-15
4417.69 4.1661e-15
4419.42 4.0461e-15
4421.16 4.0672e-15
4422.9 4.1255e-15
4424.64 4.0219e-15
4426.38 4.0319e-15
4428.12 4.1001e-15
4429.86 4.0412e-15
4431.6 3.9381e-15
4433.34 3.9086e-15
4435.07 4.0907e-15
4436.81 4.167e-15
4438.55 3.963e-15
4440.29 4.0741e-15
4442.03 4.0992e-15
4443.77 3.9498e-15
4445.51 3.9758e-15
4447.25 4.1189e-15
4448.99 4.0461e-15
4450.72 4.0708e-15
4452.46 4.1594e-15
4454.2 3.943e-15
4455.94 4.0499e-15
4457.68 4.1327e-15
4459.42 3.9899e-15
4461.16 4.0286e-15
4462.9 4.0141e-15
4464.63 4.0656e-15
4466.37 4.0835e-15
4468.11 4.0109e-15
4469.85 3.9951e-15
4471.59 3.9885e-15
4473.33 4.1089e-15
4475.07 4.1387e-15
4476.81 4.0774e-15
4478.55 4.0797e-15
4480.28 4.0957e-15
4482.02 4.041e-15
4483.76 4.0715e-15
4485.5 4.0223e-15
4487.24 4.1728e-15
4488.98 4.3497e-15
4490.72 4.3282e-15
4492.46 4.4386e-15
4494.2 4.5537e-15
4495.93 4.5469e-15
4497.67 4.6395e-15
4499.41 4.8331e-15
4501.15 4.8812e-15
4502.89 5.0135e-15
4504.63 5.027e-15
4506.37 5.0875e-15
4508.11 5.2868e-15
4509.85 5.4585e-15
4511.58 5.5412e-15
4513.32 5.6835e-15
4515.06 5.7387e-15
4516.8 5.7923e-15
4518.54 6.077e-15
4520.28 6.2843e-15
4522.02 6.3932e-15
4523.76 6.4791e-15
4525.5 6.532e-15
4527.23 6.7069e-15
4528.97 6.9242e-15
4530.71 6.9932e-15
4532.45 7.0617e-15
4534.19 7.145e-15
4535.93 7.3959e-15
4537.67 7.3208e-15
4539.41 7.3871e-15
4541.15 7.4203e-15
4542.88 7.2732e-15
4544.62 7.395e-15
4546.36 7.6928e-15
4548.1 7.6323e-15
4549.84 7.684e-15
4551.58 7.5213e-15
4553.32 7.7153e-15
4555.06 7.783e-15
4556.8 7.9634e-15
4558.53 8.0444e-15
4560.27 7.9642e-15
4562.01 7.9668e-15
4563.75 7.8708e-15
4565.49 7.9939e-15
4567.23 8.2098e-15
4568.97 8.221e-15
4570.71 8.0131e-15
4572.44 8.1965e-15
4574.18 8.314e-15
4575.92 8.1801e-15
4577.66 8.2352e-15
4579.4 8.2723e-15
4581.14 8.3124e-15
4582.88 8.5527e-15
4584.62 8.4912e-15
4586.36 8.4643e-15
4588.09 8.8432e-15
4589.83 9.0244e-15
4591.57 9.0131e-15
4593.31 9.1602e-15
4595.05 9.2532e-15
4596.79 9.325e-15
4598.53 9.4824e-15
4600.27 9.5023e-15
4602.01 9.573e-15
4603.74 9.6794e-15
4605.48 9.8005e-15
4607.22 9.7394e-15
4608.96 9.6593e-15
4610.7 9.6616e-15
4612.44 9.7248e-15
4614.18 9.653e-15
4615.92 9.841e-15
4617.66 9.85e-15
4619.39 9.6515e-15
4621.13 9.593e-15
4622.87 9.6247e-15
4624.61 9.658e-15
4626.35 9.5798e-15
4628.09 9.5087e-15
4629.83 9.4401e-15
4631.57 9.5135e-15
4633.31 9.5759e-15
4635.04 9.5937e-15
4636.78 9.5621e-15
4638.52 9.4118e-15
4640.26 9.3433e-15
4642.0 9.4096e-15
4643.74 9.3261e-15
4645.48 9.2448e-15
4647.22 9.2221e-15
4648.96 9.0435e-15
4650.69 8.9443e-15
4652.43 8.8858e-15
4654.17 8.8776e-15
4655.91 8.8257e-15
4657.65 8.7807e-15
4659.39 8.614e-15
4661.13 8.3978e-15
4662.87 8.2375e-15
4664.61 8.0932e-15
4666.34 8.0872e-15
4668.08 8.0167e-15
4669.82 7.951e-15
4671.56 7.6764e-15
4673.3 7.5197e-15
4675.04 7.693e-15
4676.78 7.4851e-15
4678.52 7.3e-15
4680.25 7.2131e-15
4681.99 7.165e-15
4683.73 7.0405e-15
4685.47 6.9779e-15
4687.21 6.7962e-15
4688.95 6.688e-15
4690.69 6.6352e-15
4692.43 6.6515e-15
4694.17 6.6782e-15
4695.9 6.3668e-15
4697.64 6.3268e-15
4699.38 6.3091e-15
4701.12 6.1146e-15
4702.86 5.8867e-15
4704.6 6.0466e-15
4706.34 5.8978e-15
4708.08 5.7858e-15
4709.82 5.8274e-15
4711.55 5.8486e-15
4713.29 5.7558e-15
4715.03 5.6057e-15
4716.77 5.5794e-15
4718.51 5.6159e-15
4720.25 5.5944e-15
4721.99 5.599e-15
4723.73 5.4806e-15
4725.47 5.3883e-15
4727.2 5.2717e-15
4728.94 5.2591e-15
4730.68 5.3719e-15
4732.42 5.3224e-15
4734.16 5.2071e-15
4735.9 5.151e-15
4737.64 4.9989e-15
4739.38 4.9962e-15
4741.12 5.036e-15
4742.85 4.9723e-15
4744.59 4.8501e-15
4746.33 4.7423e-15
4748.07 4.7373e-15
4749.81 4.726e-15
4751.55 4.7801e-15
4753.29 4.6734e-15
4755.03 4.615e-15
4756.77 4.6064e-15
4758.5 4.6929e-15
4760.24 4.671e-15
4761.98 4.6237e-15
4763.72 4.593e-15
4765.46 4.509e-15
4767.2 4.6435e-15
4768.94 4.6178e-15
4770.68 4.6695e-15
4772.42 4.8008e-15
4774.15 4.8432e-15
4775.89 4.9041e-15
4777.63 4.861e-15
4779.37 5.0749e-15
4781.11 5.1757e-15
4782.85 5.2087e-15
4784.59 5.3686e-15
4786.33 5.4545e-15
4788.07 5.6524e-15
4789.8 5.7977e-15
4791.54 5.9067e-15
4793.28 6.0003e-15
4795.02 6.1566e-15
4796.76 6.339e-15
4798.5 6.552e-15
4800.24 6.6408e-15
4801.98 6.7722e-15
4803.71 6.9205e-15
4805.45 7.0861e-15
4807.19 7.232e-15
4808.93 7.3307e-15
4810.67 7.3765e-15
4812.41 7.5173e-15
4814.15 7.6471e-15
4815.89 7.7454e-15
4817.63 7.6157e-15
4819.36 7.8459e-15
4821.1 7.98e-15
4822.84 7.9519e-15
4824.58 7.973e-15
4826.32 8.1307e-15
4828.06 8.1317e-15
4829.8 8.0612e-15
4831.54 8.0733e-15
4833.28 8.2216e-15
4835.01 8.2179e-15
4836.75 8.2847e-15
4838.49 8.3649e-15
4840.23 8.4628e-15
4841.97 8.4123e-15
4843.71 8.3665e-15
4845.45 8.5251e-15
4847.19 8.5831e-15
4848.93 8.6788e-15
4850.66 8.924e-15
4852.4 9.0248e-15
4854.14 9.0866e-15
4855.88 9.2296e-15
4857.62 9.2641e-15
4859.36 9.3797e-15
4861.1 9.4203e-15
4862.84 9.4602e-15
4864.58 9.5616e-15
4866.31 9.6714e-15
4868.05 9.7498e-15
4869.79 9.9314e-15
4871.53 9.9247e-15
4873.27 9.8839e-15
4875.01 9.9373e-15
4876.75 9.8727e-15
4878.49 9.8812e-15
4880.23 9.9762e-15
4881.96 9.8551e-15
4883.7 9.7806e-15
4885.44 9.6593e-15
4887.18 9.5848e-15
4888.92 9.6314e-15
4890.66 9.5447e-15
4892.4 9.4073e-15
4894.14 9.3719e-15
4895.88 9.3662e-15
4897.61 9.2283e-15
4899.35 9.0774e-15
4901.09 8.9279e-15
4902.83 8.8385e-15
4904.57 8.7082e-15
4906.31 8.5921e-15
4908.05 8.4397e-15
4909.79 8.3314e-15
4911.52 8.228e-15
4913.26 8.1354e-15
4915.0 8.0487e-15
4916.74 7.9378e-15
4918.48 7.8528e-15
4920.22 7.7733e-15
4921.96 7.6871e-15
4923.7 7.6446e-15
4925.44 7.6472e-15
4927.17 7.6576e-15
4928.91 7.6311e-15
4930.65 7.6624e-15
4932.39 7.7444e-15
4934.13 7.7338e-15
4935.87 7.7195e-15
4937.61 7.7879e-15
4939.35 7.8918e-15
4941.09 7.9595e-15
4942.82 8.0419e-15
4944.56 8.1718e-15
4946.3 8.2574e-15
4948.04 8.4359e-15
4949.78 8.613e-15
4951.52 8.715e-15
4953.26 8.8889e-15
4955.0 9.0485e-15
4956.74 9.0801e-15
4958.47 9.126e-15
4960.21 9.1942e-15
4961.95 9.3257e-15
4963.69 9.4727e-15
4965.43 9.5696e-15
4967.17 9.6396e-15
4968.91 9.6439e-15
4970.65 9.667e-15
4972.39 9.8035e-15
4974.12 9.8904e-15
4975.86 9.7749e-15
4977.6 9.7315e-15
4979.34 9.6657e-15
4981.08 9.722e-15
4982.82 9.6908e-15
4984.56 9.6658e-15
4986.3 9.7593e-15
4988.04 9.7457e-15
4989.77 9.7022e-15
4991.51 9.7672e-15
4993.25 9.7737e-15
4994.99 9.7502e-15
4996.73 9.7564e-15
4998.47 9.7339e-15
5000.21 9.7459e-15
5001.95 9.6819e-15
5003.69 9.5118e-15
5005.42 9.4112e-15
5007.16 9.3798e-15
5008.9 9.3235e-15
5010.64 9.1742e-15
5012.38 9.034e-15
5014.12 8.8926e-15
5015.86 8.727e-15
5017.6 8.5595e-15
5019.33 8.5054e-15
5021.07 8.2985e-15
5022.81 8.1559e-15
5024.55 8.0842e-15
5026.29 7.9925e-15
5028.03 7.8617e-15
5029.77 7.7561e-15
5031.51 7.6031e-15
5033.25 7.4299e-15
5034.98 7.1981e-15
5036.72 7.1656e-15
5038.46 6.9827e-15
5040.2 6.8903e-15
5041.94 6.6974e-15
5043.68 6.6253e-15
5045.42 6.4842e-15
5047.16 6.4823e-15
5048.9 6.382e-15
5050.63 6.1994e-15
5052.37 6.1209e-15
5054.11 6.0083e-15
5055.85 5.9058e-15
5057.59 5.8721e-15
5059.33 5.777e-15
5061.07 5.6682e-15
5062.81 5.5872e-15
5064.55 5.4859e-15
5066.28 5.4099e-15
5068.02 5.3436e-15
5069.76 5.319e-15
5071.5 5.2625e-15
5073.24 5.154e-15
5074.98 5.0992e-15
5076.72 5.1132e-15
5078.46 5.106e-15
5080.2 5.1554e-15
5081.93 5.1764e-15
5083.67 5.1053e-15
5085.41 5.014e-15
5087.15 5.0116e-15
5088.89 5.0626e-15
5090.63 5.0904e-15
5092.37 5.0992e-15
5094.11 5.09e-15
5095.85 5.1169e-15
5097.58 5.1696e-15
5099.32 5.2084e-15
5101.06 5.2378e-15
5102.8 5.2827e-15
5104.54 5.3985e-15
5106.28 5.4533e-15
5108.02 5.5985e-15
5109.76 5.6979e-15
5111.5 5.6985e-15
5113.23 5.7549e-15
5114.97 5.7988e-15
5116.71 5.8674e-15
5118.45 5.9154e-15
5120.19 6.0272e-15
5121.93 6.0889e-15
5123.67 6.236e-15
5125.41 6.3374e-15
5127.14 6.3854e-15
5128.88 6.4805e-15
5130.62 6.4814e-15
5132.36 6.5137e-15
5134.1 6.583e-15
5135.84 6.629e-15
5137.58 6.7723e-15
5139.32 6.8046e-15
5141.06 6.8983e-15
5142.79 6.9376e-15
5144.53 6.9878e-15
5146.27 7.0103e-15
5148.01 7.0407e-15
5149.75 7.138e-15
5151.49 7.1993e-15
5153.23 7.2829e-15
5154.97 7.1861e-15
5156.71 7.2466e-15
5158.44 7.3003e-15
5160.18 7.2785e-15
5161.92 7.3017e-15
5163.66 7.4232e-15
5165.4 7.4317e-15
5167.14 7.4242e-15
5168.88 7.4638e-15
5170.62 7.5532e-15
5172.36 7.6663e-15
5174.09 7.72e-15
5175.83 7.6802e-15
5177.57 7.6979e-15
5179.31 7.7034e-15
5181.05 7.6867e-15
5182.79 7.6598e-15
5184.53 7.6877e-15
5186.27 7.8541e-15
5188.01 7.8901e-15
5189.74 7.8172e-15
5191.48 7.855e-15
5193.22 7.8682e-15
5194.96 7.8499e-15
5196.7 7.9175e-15
5198.44 7.8209e-15
5200.18 7.8335e-15
5201.92 7.9102e-15
5203.66 7.8844e-15
5205.39 7.8117e-15
5207.13 7.7832e-15
5208.87 7.762e-15
5210.61 7.6752e-15
5212.35 7.6669e-15
5214.09 7.7478e-15
5215.83 7.7983e-15
5217.57 7.6301e-15
5219.31 7.6262e-15
5221.04 7.639e-15
5222.78 7.5984e-15
5224.52 7.6045e-15
5226.26 7.6586e-15
5228.0 7.6296e-15
5229.74 7.5897e-15
5231.48 7.5787e-15
5233.22 7.6092e-15
5234.95 7.552e-15
5236.69 7.6764e-15
5238.43 7.7484e-15
5240.17 7.7917e-15
5241.91 7.8378e-15
5243.65 7.8076e-15
5245.39 7.7888e-15
5247.13 7.791e-15
5248.87 7.8795e-15
5250.6 7.9829e-15
5252.34 8.0805e-15
5254.08 8.1058e-15
5255.82 8.2429e-15
5257.56 8.2382e-15
5259.3 8.228e-15
5261.04 8.3236e-15
5262.78 8.4108e-15
5264.52 8.5101e-15
5266.25 8.5318e-15
5267.99 8.4455e-15
5269.73 8.4817e-15
5271.47 8.5834e-15
5273.21 8.6409e-15
5274.95 8.5784e-15
5276.69 8.6118e-15
5278.43 8.7735e-15
5280.17 8.8109e-15
5281.9 8.7862e-15
5283.64 8.718e-15
5285.38 8.7776e-15
5287.12 8.8693e-15
5288.86 8.7877e-15
5290.6 8.8743e-15
5292.34 8.9037e-15
5294.08 8.9809e-15
5295.82 8.9487e-15
5297.55 9.0661e-15
5299.29 9.1019e-15
5301.03 9.1547e-15
5302.77 9.193e-15
5304.51 9.1334e-15
5306.25 9.104e-15
5307.99 9.1805e-15
5309.73 9.0912e-15
5311.47 9.2797e-15
5313.2 9.2524e-15
5314.94 9.1631e-15
5316.68 9.2281e-15
5318.42 9.2315e-15
5320.16 9.2248e-15
5321.9 9.2115e-15
5323.64 9.2344e-15
5325.38 9.2057e-15
5327.12 9.2663e-15
5328.85 9.3477e-15
5330.59 9.5125e-15
5332.33 9.4897e-15
5334.07 9.4924e-15
5335.81 9.5483e-15
5337.55 9.5283e-15
5339.29 9.5958e-15
5341.03 9.6522e-15
5342.76 9.7151e-15
5344.5 9.7356e-15
5346.24 9.7567e-15
5347.98 9.9035e-15
5349.72 9.9146e-15
5351.46 9.945e-15
5353.2 9.9512e-15
5354.94 1.0031e-14
5356.68 9.9549e-15
5358.41 1.0044e-14
5360.15 9.9853e-15
5361.89 1.0012e-14
5363.63 1.0135e-14
5365.37 1.0059e-14
5367.11 9.9932e-15
5368.85 1.0052e-14
5370.59 1.0041e-14
5372.33 9.923e-15
5374.06 9.936e-15
5375.8 9.9306e-15
5377.54 9.8716e-15
5379.28 9.8769e-15
5381.02 9.7789e-15
5382.76 9.6919e-15
5384.5 9.585e-15
5386.24 9.5026e-15
5387.98 9.414e-15
5389.71 9.4352e-15
5391.45 9.3581e-15
5393.19 9.3164e-15
5394.93 9.3726e-15
5396.67 9.2312e-15
5398.41 9.1488e-15
5400.15 9.1162e-15
5401.89 9.0796e-15
5403.63 8.9873e-15
5405.36 8.9614e-15
5407.1 8.987e-15
5408.84 8.9064e-15
5410.58 8.8524e-15
5412.32 8.911e-15
5414.06 8.7216e-15
5415.8 8.7748e-15
5417.54 8.7553e-15
5419.28 8.7812e-15
5421.01 8.8622e-15
5422.75 8.6909e-15
5424.49 8.6873e-15
5426.23 8.6887e-15
5427.97 8.7266e-15
5429.71 8.7829e-15
5431.45 8.7083e-15
5433.19 8.7435e-15
5434.93 8.7216e-15
5436.66 8.731e-15
5438.4 8.8231e-15
5440.14 8.8682e-15
5441.88 9.0035e-15
5443.62 9.0162e-15
5445.36 8.9766e-15
5447.1 9.0957e-15
5448.84 9.1851e-15
5450.57 9.3515e-15
5452.31 9.4245e-15
5454.05 9.5199e-15
5455.79 9.6358e-15
5457.53 9.6357e-15
5459.27 9.7591e-15
5461.01 9.8576e-15
5462.75 9.9625e-15
5464.49 1.0061e-14
5466.22 1.017e-14
5467.96 1.0349e-14
5469.7 1.0383e-14
5471.44 1.0481e-14
5473.18 1.0635e-14
5474.92 1.0703e-14
5476.66 1.0601e-14
5478.4 1.058e-14
5480.14 1.0704e-14
5481.87 1.0676e-14
5483.61 1.0752e-14
5485.35 1.0792e-14
5487.09 1.0877e-14
5488.83 1.0943e-14
5490.57 1.0945e-14
5492.31 1.0945e-14
5494.05 1.0888e-14
5495.79 1.0792e-14
5497.52 1.0837e-14
5499.26 1.0727e-14
5501.0 1.0725e-14
5502.74 1.0766e-14
5504.48 1.0819e-14
5506.22 1.0693e-14
5507.96 1.0695e-14
5509.7 1.0674e-14
5511.44 1.0684e-14
5513.17 1.0633e-14
5514.91 1.062e-14
5516.65 1.0668e-14
5518.39 1.0547e-14
5520.13 1.0488e-14
5521.87 1.0462e-14
5523.61 1.0333e-14
5525.35 1.0246e-14
5527.09 1.0121e-14
5528.82 1.0133e-14
5530.56 1.0096e-14
5532.3 9.9624e-15
5534.04 9.8813e-15
5535.78 9.7475e-15
5537.52 9.447e-15
5539.26 9.3681e-15
5541.0 9.4192e-15
5542.74 9.2695e-15
5544.47 9.1341e-15
5546.21 9.076e-15
5547.95 9.0313e-15
5549.69 8.9009e-15
5551.43 8.7186e-15
5553.17 8.6963e-15
5554.91 8.7649e-15
5556.65 8.6767e-15
5558.38 8.6247e-15
5560.12 8.6254e-15
5561.86 8.4949e-15
5563.6 8.4209e-15
5565.34 8.3866e-15
5567.08 8.4809e-15
5568.82 8.5227e-15
5570.56 8.6311e-15
5572.3 8.5572e-15
5574.03 8.4369e-15
5575.77 8.5646e-15
5577.51 8.5939e-15
5579.25 8.5953e-15
5580.99 8.7635e-15
5582.73 8.6715e-15
5584.47 8.6137e-15
5586.21 8.6818e-15
5587.95 8.8363e-15
5589.68 8.9747e-15
5591.42 8.9648e-15
5593.16 9.0082e-15
5594.9 9.1852e-15
5596.64 9.2579e-15
5598.38 9.277e-15
5600.12 9.2642e-15
5601.86 9.3416e-15
5603.6 9.3879e-15
5605.33 9.3949e-15
5607.07 9.5276e-15
5608.81 9.5772e-15
5610.55 9.6744e-15
5612.29 9.6447e-15
5614.03 9.6055e-15
5615.77 9.7592e-15
5617.51 9.7816e-15
5619.25 9.8828e-15
5620.98 9.9047e-15
5622.72 9.944e-15
5624.46 1.0029e-14
5626.2 9.9697e-15
5627.94 9.9586e-15
5629.68 1.0007e-14
5631.42 9.9756e-15
5633.16 9.989e-15
5634.9 1.0038e-14
5636.63 1e-14
5638.37 9.9002e-15
5640.11 9.9449e-15
5641.85 9.9272e-15
5643.59 9.982e-15
5645.33 1.0006e-14
5647.07 9.9594e-15
5648.81 9.8994e-15
5650.55 9.9043e-15
5652.28 9.8428e-15
5654.02 9.8593e-15
5655.76 9.9316e-15
5657.5 9.7568e-15
5659.24 9.7067e-15
5660.98 9.7989e-15
5662.72 9.7535e-15
5664.46 9.8339e-15
5666.19 9.8041e-15
5667.93 9.7448e-15
5669.67 9.8181e-15
5671.41 9.6736e-15
5673.15 9.6292e-15
5674.89 9.6991e-15
5676.63 9.5642e-15
5678.37 9.5016e-15
5680.11 9.4664e-15
5681.84 9.2594e-15
5683.58 9.2826e-15
5685.32 9.233e-15
5687.06 9.1818e-15
5688.8 9.1716e-15
5690.54 8.9948e-15
5692.28 9.0424e-15
5694.02 9.048e-15
5695.76 9.0126e-15
5697.49 8.8814e-15
5699.23 9.0084e-15
5700.97 9.078e-15
5702.71 8.9224e-15
5704.45 8.9364e-15
5706.19 8.8575e-15
5707.93 8.8323e-15
5709.67 8.9671e-15
5711.41 8.8284e-15
5713.14 8.8156e-15
5714.88 8.8987e-15
5716.62 8.8013e-15
5718.36 8.6848e-15
5720.1 8.7789e-15
5721.84 8.8167e-15
5723.58 8.7715e-15
5725.32 8.7974e-15
5727.06 8.8197e-15
5728.79 8.7254e-15
5730.53 8.6297e-15
5732.27 8.5844e-15
5734.01 8.5641e-15
5735.75 8.5443e-15
5737.49 8.571e-15
5739.23 8.548e-15
5740.97 8.5239e-15
5742.71 8.5165e-15
5744.44 8.6375e-15
5746.18 8.5852e-15
5747.92 8.4241e-15
5749.66 8.5632e-15
5751.4 8.5801e-15
5753.14 8.4178e-15
5754.88 8.3853e-15
5756.62 8.409e-15
5758.36 8.446e-15
5760.09 8.2931e-15
5761.83 8.2552e-15
5763.57 8.2806e-15
5765.31 8.2322e-15
5767.05 8.2038e-15
5768.79 8.1572e-15
5770.53 8.1727e-15
5772.27 8.1421e-15
5774.0 7.9719e-15
5775.74 7.9077e-15
5777.48 7.9133e-15
5779.22 7.9298e-15
5780.96 7.9094e-15
5782.7 7.7992e-15
5784.44 7.9045e-15
5786.18 7.7501e-15
5787.92 7.6584e-15
5789.65 7.786e-15
5791.39 7.7178e-15
5793.13 7.604e-15
5794.87 7.7878e-15
5796.61 7.7945e-15
5798.35 7.8741e-15
5800.09 7.976e-15
5801.83 7.9096e-15
5803.57 7.8387e-15
5805.3 7.9e-15
5807.04 7.9424e-15
5808.78 8.1399e-15
5810.52 8.3556e-15
5812.26 8.3069e-15
5814.0 8.3259e-15
5815.74 8.2717e-15
5817.48 8.2939e-15
5819.22 8.4064e-15
5820.95 8.3653e-15
5822.69 8.41e-15
5824.43 8.5253e-15
5826.17 8.5927e-15
5827.91 8.5371e-15
5829.65 8.6603e-15
5831.39 8.8216e-15
5833.13 8.8903e-15
5834.87 8.7944e-15
5836.6 8.7928e-15
5838.34 8.9053e-15
5840.08 8.8443e-15
5841.82 8.8824e-15
5843.56 8.8454e-15
5845.3 9.0547e-15
5847.04 9.1786e-15
5848.78 9.035e-15
5850.52 9.1296e-15
5852.25 9.2655e-15
5853.99 9.1857e-15
5855.73 9.373e-15
5857.47 9.1403e-15
5859.21 9.1785e-15
5860.95 9.3465e-15
5862.69 9.4634e-15
5864.43 9.4825e-15
5866.17 9.4764e-15
5867.9 9.4595e-15
5869.64 9.4427e-15
5871.38 9.4366e-15
5873.12 9.4458e-15
5874.86 9.444e-15
5876.6 9.4104e-15
5878.34 9.347e-15
5880.08 9.2622e-15
5881.82 9.1811e-15
5883.55 9.1234e-15
5885.29 9.0758e-15
5887.03 9.0232e-15
5888.77 8.9557e-15
5890.51 8.8711e-15
5892.25 8.812e-15
5893.99 8.8148e-15
5895.73 8.8488e-15
5897.46 8.8786e-15
5899.2 8.9132e-15
5900.94 8.9633e-15
5902.68 9.0111e-15
5904.42 9.0386e-15
5906.16 9.0454e-15
5907.9 9.0357e-15
5909.64 9.0271e-15
5911.38 9.0371e-15
5913.11 9.0535e-15
5914.85 9.0585e-15
5916.59 9.0469e-15
5918.33 9.0179e-15
5920.07 8.9784e-15
5921.81 8.9382e-15
5923.55 8.91e-15
5925.29 8.9052e-15
5927.03 8.9178e-15
5928.76 8.9351e-15
5930.5 8.9485e-15
5932.24 8.9516e-15
5933.98 8.938e-15
5935.72 8.9033e-15
5937.46 8.8617e-15
5939.2 8.8347e-15
5940.94 8.8258e-15
5942.68 8.8296e-15
5944.41 8.8467e-15
5946.15 8.8794e-15
5947.89 8.9127e-15
5949.63 8.9239e-15
5951.37 8.9169e-15
5953.11 8.9098e-15
5954.85 8.909e-15
5956.59 8.9157e-15
5958.33 8.9265e-15
5960.06 8.9342e-15
5961.8 8.9402e-15
5963.54 8.9524e-15
5965.28 8.964e-15
5967.02 8.9575e-15
5968.76 8.9368e-15
5970.5 8.9212e-15
5972.24 8.9165e-15
5973.98 8.9185e-15
5975.71 8.9197e-15
5977.45 8.9076e-15
5979.19 8.8856e-15
5980.93 8.8727e-15
5982.67 8.8731e-15
5984.41 8.876e-15
5986.15 8.8757e-15
5987.89 8.87e-15
5989.63 8.8602e-15
5991.36 8.8524e-15
5993.1 8.847e-15
5994.84 8.8375e-15
5996.58 8.8197e-15
5998.32 8.7903e-15
6000.06 8.756e-15
6001.8 8.7392e-15
6003.54 8.7442e-15
6005.27 8.747e-15
6007.01 8.7336e-15
6008.75 8.706e-15
6010.49 8.6726e-15
6012.23 8.6547e-15
6013.97 8.6608e-15
6015.71 8.6726e-15
6017.45 8.6751e-15
6019.19 8.6607e-15
6020.92 8.6288e-15
6022.66 8.5982e-15
6024.4 8.5782e-15
6026.14 8.5482e-15
6027.88 8.5027e-15
6029.62 8.4805e-15
6031.36 8.5017e-15
6033.1 8.5326e-15
6034.84 8.5437e-15
6036.57 8.5249e-15
6038.31 8.4755e-15
6040.05 8.4221e-15
6041.79 8.387e-15
6043.53 8.3613e-15
6045.27 8.3369e-15
6047.01 8.3193e-15
6048.75 8.312e-15
6050.49 8.3062e-15
6052.22 8.296e-15
6053.96 8.2931e-15
6055.7 8.3073e-15
6057.44 8.3293e-15
6059.18 8.3494e-15
6060.92 8.3643e-15
6062.66 8.3738e-15
6064.4 8.4013e-15
6066.14 8.466e-15
6067.87 8.5285e-15
6069.61 8.5491e-15
6071.35 8.5611e-15
6073.09 8.6044e-15
6074.83 8.6648e-15
6076.57 8.7201e-15
6078.31 8.7539e-15
6080.05 8.7534e-15
6081.79 8.747e-15
6083.52 8.7696e-15
6085.26 8.7918e-15
6087.0 8.7723e-15
6088.74 8.7387e-15
6090.48 8.7335e-15
6092.22 8.7455e-15
6093.96 8.7485e-15
6095.7 8.7351e-15
6097.44 8.7034e-15
6099.17 8.6595e-15
6100.91 8.6127e-15
6102.65 8.5705e-15
6104.39 8.5401e-15
6106.13 8.5077e-15
6107.87 8.4512e-15
6109.61 8.3844e-15
6111.35 8.3362e-15
6113.08 8.3054e-15
6114.82 8.278e-15
6116.56 8.2359e-15
6118.3 8.1579e-15
6120.04 8.0598e-15
6121.78 7.9778e-15
6123.52 7.9203e-15
6125.26 7.8798e-15
6127.0 7.8442e-15
6128.73 7.7966e-15
6130.47 7.7438e-15
6132.21 7.7112e-15
6133.95 7.6929e-15
6135.69 7.6594e-15
6137.43 7.6122e-15
6139.17 7.5756e-15
6140.91 7.5603e-15
6142.65 7.5663e-15
6144.38 7.5863e-15
6146.12 7.6039e-15
6147.86 7.6205e-15
6149.6 7.6574e-15
6151.34 7.7135e-15
6153.08 7.7643e-15
6154.82 7.7996e-15
6156.56 7.8249e-15
6158.3 7.847e-15
6160.03 7.8746e-15
6161.77 7.9151e-15
6163.51 7.9741e-15
6165.25 8.0462e-15
6166.99 8.1095e-15
6168.73 8.1557e-15
6170.47 8.1989e-15
6172.21 8.2447e-15
6173.95 8.2841e-15
6175.68 8.315e-15
6177.42 8.3471e-15
6179.16 8.3845e-15
6180.9 8.4219e-15
6182.64 8.4542e-15
6184.38 8.4751e-15
6186.12 8.4831e-15
6187.86 8.4873e-15
6189.6 8.4963e-15
6191.33 8.5189e-15
6193.07 8.5543e-15
6194.81 8.5757e-15
6196.55 8.5673e-15
6198.29 8.548e-15
6200.03 8.5348e-15
6201.77 8.5349e-15
6203.51 8.5516e-15
6205.25 8.5802e-15
6206.98 8.6115e-15
6208.72 8.6247e-15
6210.46 8.6076e-15
6212.2 8.5779e-15
6213.94 8.5551e-15
6215.68 8.5606e-15
6217.42 8.6019e-15
6219.16 8.6216e-15
6220.89 8.5713e-15
6222.63 8.4775e-15
6224.37 8.3757e-15
6226.11 8.2952e-15
6227.85 8.2585e-15
6229.59 8.2476e-15
6231.33 8.2378e-15
6233.07 8.2256e-15
6234.81 8.2095e-15
6236.54 8.1701e-15
6238.28 8.0928e-15
6240.02 8.0153e-15
6241.76 7.9794e-15
6243.5 7.9649e-15
6245.24 7.9409e-15
6246.98 7.909e-15
6248.72 7.8766e-15
6250.46 7.842e-15
6252.19 7.8037e-15
6253.93 7.7587e-15
6255.67 7.7046e-15
6257.41 7.6594e-15
6259.15 7.6449e-15
6260.89 7.6465e-15
6262.63 7.6388e-15
6264.37 7.618e-15
6266.11 7.588e-15
6267.84 7.5588e-15
6269.58 7.5431e-15
6271.32 7.5395e-15
6273.06 7.5398e-15
6274.8 7.5435e-15
6276.54 7.5523e-15
6278.28 7.5627e-15
6280.02 7.5697e-15
6281.76 7.5673e-15
6283.49 7.5492e-15
6285.23 7.5301e-15
6286.97 7.5362e-15
6288.71 7.5694e-15
6290.45 7.6175e-15
6292.19 7.6662e-15
6293.93 7.699e-15
6295.67 7.7127e-15
6297.41 7.7132e-15
6299.14 7.7067e-15
6300.88 7.7019e-15
6302.62 7.6884e-15
6304.36 7.6388e-15
6306.1 7.5634e-15
6307.84 7.5059e-15
6309.58 7.4658e-15
6311.32 7.4021e-15
6313.06 7.3121e-15
6314.79 7.2291e-15
6316.53 7.1649e-15
6318.27 7.111e-15
6320.01 7.0593e-15
6321.75 6.9992e-15
6323.49 6.9308e-15
6325.23 6.8696e-15
6326.97 6.8184e-15
6328.7 6.7625e-15
6330.44 6.6994e-15
6332.18 6.646e-15
6333.92 6.5991e-15
6335.66 6.5256e-15
6337.4 6.4138e-15
6339.14 6.2844e-15
6340.88 6.1555e-15
6342.62 6.0424e-15
6344.35 5.9487e-15
6346.09 5.8545e-15
6347.83 5.7484e-15
6349.57 5.6357e-15
6351.31 5.5271e-15
6353.05 5.4485e-15
6354.79 5.4074e-15
6356.53 5.3649e-15
6358.27 5.2988e-15
6360.0 5.2353e-15
6361.74 5.1917e-15
6363.48 5.1564e-15
6365.22 5.1211e-15
6366.96 5.0906e-15
6368.7 5.0634e-15
6370.44 5.0127e-15
6372.18 4.9282e-15
6373.92 4.867e-15
6375.65 4.8661e-15
6377.39 4.8648e-15
6379.13 4.8162e-15
6380.87 4.7577e-15
6382.61 4.726e-15
6384.35 4.735e-15
6386.09 4.7862e-15
6387.83 4.8299e-15
6389.57 4.822e-15
6391.3 4.7806e-15
6393.04 4.7324e-15
6394.78 4.7025e-15
6396.52 4.7101e-15
6398.26 4.7283e-15
6400.0 4.7273e-15
6401.74 4.7195e-15
6403.48 4.7221e-15
6405.22 4.7327e-15
6406.95 4.7468e-15
6408.69 4.7707e-15
6410.43 4.8109e-15
6412.17 4.8576e-15
6413.91 4.8987e-15
6415.65 4.9416e-15
6417.39 4.9973e-15
6419.13 5.0568e-15
6420.87 5.1072e-15
6422.6 5.1579e-15
6424.34 5.2237e-15
6426.08 5.3054e-15
6427.82 5.3999e-15
6429.56 5.5025e-15
6431.3 5.6084e-15
6433.04 5.7153e-15
6434.78 5.8226e-15
6436.51 5.9345e-15
6438.25 6.0571e-15
6439.99 6.1933e-15
6441.73 6.3444e-15
6443.47 6.5097e-15
6445.21 6.6868e-15
6446.95 6.8789e-15
6448.69 7.0916e-15
6450.43 7.3252e-15
6452.16 7.577e-15
6453.9 7.8409e-15
6455.64 8.1071e-15
6457.38 8.3746e-15
6459.12 8.6486e-15
6460.86 8.9136e-15
6462.6 9.1401e-15
6464.34 9.334e-15
6466.08 9.5272e-15
6467.81 9.7247e-15
6469.55 9.912e-15
6471.29 1.0085e-14
6473.03 1.0246e-14
6474.77 1.0407e-14
6476.51 1.0591e-14
6478.25 1.0793e-14
6479.99 1.0979e-14
6481.73 1.1143e-14
6483.46 1.1301e-14
6485.2 1.1466e-14
6486.94 1.1647e-14
6488.68 1.1839e-14
6490.42 1.2017e-14
6492.16 1.2169e-14
6493.9 1.2301e-14
6495.64 1.2424e-14
6497.38 1.2556e-14
6499.11 1.2699e-14
6500.85 1.2827e-14
6502.59 1.2934e-14
6504.33 1.3054e-14
6506.07 1.3195e-14
6507.81 1.3313e-14
6509.55 1.3391e-14
6511.29 1.3447e-14
6513.03 1.3502e-14
6514.76 1.3573e-14
6516.5 1.3668e-14
6518.24 1.3779e-14
6519.98 1.3895e-14
6521.72 1.3996e-14
6523.46 1.4072e-14
6525.2 1.4132e-14
6526.94 1.4185e-14
6528.68 1.4224e-14
6530.41 1.4246e-14
6532.15 1.4261e-14
6533.89 1.4274e-14
6535.63 1.4296e-14
6537.37 1.4326e-14
6539.11 1.4336e-14
6540.85 1.4308e-14
6542.59 1.4268e-14
6544.32 1.4238e-14
6546.06 1.4197e-14
6547.8 1.4132e-14
6549.54 1.4071e-14
6551.28 1.404e-14
6553.02 1.4022e-14
6554.76 1.4e-14
6556.5 1.396e-14
6558.24 1.3898e-14
6559.97 1.3845e-14
6561.71 1.3834e-14
6563.45 1.3836e-14
6565.19 1.382e-14
6566.93 1.3773e-14
6568.67 1.3688e-14
6570.41 1.3595e-14
6572.15 1.3526e-14
6573.89 1.3468e-14
6575.62 1.34e-14
6577.36 1.3321e-14
6579.1 1.3232e-14
6580.84 1.3155e-14
6582.58 1.3114e-14
6584.32 1.3095e-14
6586.06 1.3077e-14
6587.8 1.3045e-14
6589.54 1.2991e-14
6591.27 1.2913e-14
6593.01 1.2811e-14
6594.75 1.2717e-14
6596.49 1.2668e-14
6598.23 1.2656e-14
6599.97 1.2653e-14
6601.71 1.2645e-14
6603.45 1.2624e-14
6605.19 1.2572e-14
6606.92 1.247e-14
6608.66 1.2351e-14
6610.4 1.2271e-14
6612.14 1.2229e-14
6613.88 1.2203e-14
6615.62 1.2167e-14
6617.36 1.2094e-14
6619.1 1.2009e-14
6620.84 1.197e-14
6622.57 1.196e-14
6624.31 1.1917e-14
6626.05 1.1848e-14
6627.79 1.1803e-14
6629.53 1.1783e-14
6631.27 1.1756e-14
6633.01 1.171e-14
6634.75 1.1644e-14
6636.49 1.1574e-14
6638.22 1.1529e-14
6639.96 1.1502e-14
6641.7 1.1456e-14
6643.44 1.1383e-14
6645.18 1.1304e-14
6646.92 1.123e-14
6648.66 1.1173e-14
6650.4 1.1124e-14
6652.13 1.1049e-14
6653.87 1.0945e-14
6655.61 1.0838e-14
6657.35 1.0751e-14
6659.09 1.0704e-14
6660.83 1.0691e-14
6662.57 1.0674e-14
6664.31 1.0637e-14
6666.05 1.0603e-14
6667.78 1.0577e-14
6669.52 1.0546e-14
6671.26 1.0501e-14
6673.0 1.0439e-14
6674.74 1.0363e-14
6676.48 1.0267e-14
6678.22 1.0166e-14
6679.96 1.0105e-14
6681.7 1.0094e-14
6683.43 1.007e-14
6685.17 9.9949e-15
6686.91 9.8972e-15
6688.65 9.801e-15
6690.39 9.7221e-15
6692.13 9.668e-15
6693.87 9.6187e-15
6695.61 9.5628e-15
6697.35 9.5256e-15
6699.08 9.5171e-15
6700.82 9.4933e-15
6702.56 9.4283e-15
6704.3 9.3625e-15
6706.04 9.3286e-15
6707.78 9.3201e-15
6709.52 9.3261e-15
6711.26 9.3291e-15
6713.0 9.3148e-15
6714.73 9.2938e-15
6716.47 9.2754e-15
6718.21 9.2438e-15
6719.95 9.188e-15
6721.69 9.1254e-15
6723.43 9.0746e-15
6725.17 9.0465e-15
6726.91 9.0453e-15
6728.65 9.0401e-15
6730.38 9.0021e-15
6732.12 8.953e-15
6733.86 8.9198e-15
6735.6 8.9058e-15
6737.34 8.9093e-15
6739.08 8.9127e-15
6740.82 8.8977e-15
6742.56 8.8739e-15
6744.3 8.8562e-15
6746.03 8.8485e-15
6747.77 8.8515e-15
6749.51 8.8496e-15
6751.25 8.8248e-15
6752.99 8.7892e-15
6754.73 8.7616e-15
6756.47 8.7425e-15
6758.21 8.7276e-15
6759.94 8.7044e-15
6761.68 8.6575e-15
6763.42 8.6118e-15
6765.16 8.6055e-15
6766.9 8.61e-15
6768.64 8.5732e-15
6770.38 8.5176e-15
6772.12 8.494e-15
6773.86 8.4927e-15
6775.59 8.4797e-15
6777.33 8.4485e-15
6779.07 8.4037e-15
6780.81 8.3623e-15
6782.55 8.3475e-15
6784.29 8.3568e-15
6786.03 8.3736e-15
6787.77 8.3788e-15
6789.51 8.3502e-15
6791.24 8.3015e-15
6792.98 8.2724e-15
6794.72 8.2558e-15
6796.46 8.213e-15
6798.2 8.1471e-15
6799.94 8.0911e-15
6801.68 8.0543e-15
6803.42 8.0302e-15
6805.16 8.0097e-15
6806.89 7.9812e-15
6808.63 7.9405e-15
6810.37 7.8902e-15
6812.11 7.8417e-15
6813.85 7.8153e-15
6815.59 7.8141e-15
6817.33 7.8236e-15
6819.07 7.8272e-15
6820.81 7.8038e-15
6822.54 7.7581e-15
6824.28 7.7302e-15
6826.02 7.7254e-15
6827.76 7.7013e-15
6829.5 7.6452e-15
6831.24 7.5841e-15
6832.98 7.5356e-15
6834.72 7.5058e-15
6836.46 7.4891e-15
6838.19 7.4578e-15
6839.93 7.4001e-15
6841.67 7.3332e-15
6843.41 7.2736e-15
6845.15 7.2388e-15
6846.89 7.2294e-15
6848.63 7.2075e-15
6850.37 7.1571e-15
6852.11 7.1136e-15
6853.84 7.1006e-15
6855.58 7.1144e-15
6857.32 7.1427e-15
6859.06 7.1512e-15
6860.8 7.1196e-15
6862.54 7.0707e-15
6864.28 7.0251e-15
6866.02 6.9895e-15
6867.75 6.9658e-15
6869.49 6.9387e-15
6871.23 6.8987e-15
6872.97 6.8605e-15
6874.71 6.8384e-15
6876.45 6.8428e-15
6878.19 6.8758e-15
6879.93 6.9109e-15
6881.67 6.9242e-15
6883.4 6.9191e-15
6885.14 6.9017e-15
6886.88 6.8665e-15
6888.62 6.8131e-15
6890.36 6.7663e-15
6892.1 6.7489e-15
6893.84 6.7522e-15
6895.58 6.7638e-15
6897.32 6.7917e-15
6899.05 6.8419e-15
6900.79 6.8921e-15
6902.53 6.9201e-15
6904.27 6.9331e-15
6906.01 6.9435e-15
6907.75 6.9644e-15
6909.49 7.0071e-15
6911.23 7.0371e-15
6912.97 7.015e-15
6914.7 6.9879e-15
6916.44 7.0179e-15
6918.18 7.0551e-15
6919.92 7.0275e-15
6921.66 6.9668e-15
6923.4 6.9313e-15
6925.14 6.9155e-15
6926.88 6.8955e-15
6928.62 6.8759e-15
6930.35 6.8678e-15
6932.09 6.8597e-15
6933.83 6.8337e-15
6935.57 6.792e-15
6937.31 6.7447e-15
6939.05 6.7091e-15
6940.79 6.7047e-15
6942.53 6.7285e-15
6944.27 6.7649e-15
6946.0 6.8088e-15
6947.74 6.8594e-15
6949.48 6.9057e-15
6951.22 6.9321e-15
6952.96 6.9414e-15
6954.7 6.9469e-15
6956.44 6.9556e-15
6958.18 6.9704e-15
6959.92 6.9899e-15
6961.65 7.0098e-15
6963.39 7.0231e-15
6965.13 7.0185e-15
6966.87 7.0121e-15
6968.61 7.0434e-15
6970.35 7.1011e-15
6972.09 7.1319e-15
6973.83 7.1267e-15
6975.56 7.1148e-15
6977.3 7.1125e-15
6979.04 7.1285e-15
6980.78 7.1474e-15
6982.52 7.1239e-15
6984.26 7.0604e-15
6986.0 7.0137e-15
6987.74 7.0044e-15
6989.48 7.0105e-15
6991.21 7.018e-15
6992.95 7.0201e-15
6994.69 7.0162e-15
6996.43 7.0186e-15
6998.17 7.0291e-15
6999.91 7.0315e-15
7001.65 7.0222e-15
7003.39 7.0171e-15
7005.13 7.0214e-15
7006.86 7.0218e-15
7008.6 7.0111e-15
7010.34 6.9918e-15
7012.08 6.9672e-15
7013.82 6.9435e-15
7015.56 6.9227e-15
7017.3 6.8949e-15
7019.04 6.8592e-15
7020.78 6.8344e-15
7022.51 6.8328e-15
7024.25 6.8497e-15
7025.99 6.8788e-15
7027.73 6.9135e-15
7029.47 6.9461e-15
7031.21 6.9679e-15
7032.95 6.9751e-15
7034.69 6.9802e-15
7036.43 6.9903e-15
7038.16 6.9874e-15
7039.9 6.9595e-15
7041.64 6.9216e-15
7043.38 6.8882e-15
7045.12 6.8669e-15
7046.86 6.8605e-15
7048.6 6.8557e-15
7050.34 6.8401e-15
7052.08 6.8156e-15
7053.81 6.7865e-15
7055.55 6.7582e-15
7057.29 6.7356e-15
7059.03 6.7141e-15
7060.77 6.6894e-15
7062.51 6.6691e-15
7064.25 6.6599e-15
7065.99 6.6546e-15
7067.73 6.6444e-15
7069.46 6.6301e-15
7071.2 6.6143e-15
7072.94 6.583e-15
7074.68 6.5237e-15
7076.42 6.4746e-15
7078.16 6.478e-15
7079.9 6.5115e-15
7081.64 6.5385e-15
7083.38 6.5431e-15
7085.11 6.5161e-15
7086.85 6.4717e-15
7088.59 6.4317e-15
7090.33 6.4017e-15
7092.07 6.3821e-15
7093.81 6.3641e-15
7095.55 6.3354e-15
7097.29 6.3094e-15
7099.02 6.3075e-15
7100.76 6.3265e-15
7102.5 6.3538e-15
7104.24 6.3821e-15
7105.98 6.4054e-15
7107.72 6.4305e-15
7109.46 6.4701e-15
7111.2 6.5221e-15
7112.94 6.5769e-15
7114.67 6.6309e-15
7116.41 6.6836e-15
7118.15 6.7305e-15
7119.89 6.7665e-15
7121.63 6.7886e-15
7123.37 6.7944e-15
7125.11 6.7962e-15
7126.85 6.8161e-15
7128.59 6.8499e-15
7130.32 6.875e-15
7132.06 6.8807e-15
7133.8 6.8633e-15
7135.54 6.8378e-15
7137.28 6.8354e-15
7139.02 6.8562e-15
7140.76 6.8731e-15
7142.5 6.868e-15
7144.24 6.8289e-15
7145.97 6.769e-15
7147.71 6.729e-15
7149.45 6.7234e-15
7151.19 6.7381e-15
7152.93 6.7578e-15
7154.67 6.7658e-15
7156.41 6.7479e-15
7158.15 6.693e-15
7159.89 6.6079e-15
7161.62 6.5251e-15
7163.36 6.454e-15
7165.1 6.369e-15
7166.84 6.262e-15
7168.58 6.152e-15
7170.32 6.0497e-15
7172.06 5.9513e-15
7173.8 5.8584e-15
7175.54 5.7818e-15
7177.27 5.7261e-15
7179.01 5.685e-15
7180.75 5.6524e-15
7182.49 5.6243e-15
7184.23 5.5963e-15
7185.97 5.5632e-15
7187.71 5.5251e-15
7189.45 5.4929e-15
7191.19 5.4758e-15
7192.92 5.4762e-15
7194.66 5.4944e-15
7196.4 5.5286e-15
7198.14 5.5739e-15
7199.88 5.6134e-15
7201.62 5.6424e-15
7203.36 5.704e-15
7205.1 5.825e-15
7206.83 5.9668e-15
7208.57 6.0924e-15
7210.31 6.1908e-15
7212.05 6.2575e-15
7213.79 6.3048e-15
7215.53 6.3456e-15
7217.27 6.3773e-15
7219.01 6.3956e-15
7220.75 6.3994e-15
7222.48 6.3871e-15
7224.22 6.3507e-15
7225.96 6.2857e-15
7227.7 6.2059e-15
7229.44 6.1271e-15
7231.18 6.0579e-15
7232.92 6.0045e-15
7234.66 5.9627e-15
7236.4 5.9271e-15
7238.13 5.9098e-15
7239.87 5.9224e-15
7241.61 5.9652e-15
7243.35 6.0331e-15
7245.09 6.0938e-15
7246.83 6.1141e-15
7248.57 6.1129e-15
7250.31 6.1214e-15
7252.05 6.1574e-15
7253.78 6.2333e-15
7255.52 6.3065e-15
7257.26 6.3221e-15
7259.0 6.302e-15
7260.74 6.2914e-15
7262.48 6.3136e-15
7264.22 6.3839e-15
7265.96 6.4577e-15
7267.7 6.4687e-15
7269.43 6.4281e-15
7271.17 6.379e-15
7272.91 6.3464e-15
7274.65 6.3474e-15
7276.39 6.3732e-15
7278.13 6.4006e-15
7279.87 6.4156e-15
7281.61 6.4087e-15
7283.35 6.3901e-15
7285.08 6.3817e-15
7286.82 6.3822e-15
7288.56 6.3754e-15
7290.3 6.3621e-15
7292.04 6.3521e-15
7293.78 6.3487e-15
7295.52 6.3525e-15
7297.26 6.3548e-15
7299.0 6.3376e-15
7300.73 6.314e-15
7302.47 6.3239e-15
7304.21 6.3616e-15
7305.95 6.3816e-15
7307.69 6.3759e-15
7309.43 6.3688e-15
7311.17 6.3715e-15
7312.91 6.3833e-15
7314.64 6.4021e-15
7316.38 6.4214e-15
7318.12 6.4383e-15
7319.86 6.4552e-15
7321.6 6.4683e-15
7323.34 6.4679e-15
7325.08 6.4496e-15
7326.82 6.4149e-15
7328.56 6.3753e-15
7330.29 6.3568e-15
7332.03 6.369e-15
7333.77 6.3971e-15
7335.51 6.4243e-15
7337.25 6.4287e-15
7338.99 6.4095e-15
7340.73 6.407e-15
7342.47 6.4376e-15
7344.21 6.4687e-15
7345.94 6.4824e-15
7347.68 6.4904e-15
7349.42 6.4997e-15
7351.16 6.5077e-15
7352.9 6.5133e-15
7354.64 6.5138e-15
7356.38 6.513e-15
7358.12 6.5372e-15
7359.86 6.5943e-15
7361.59 6.6384e-15
7363.33 6.6396e-15
7365.07 6.6199e-15
7366.81 6.6018e-15
7368.55 6.6028e-15
7370.29 6.6312e-15
7372.03 6.6657e-15
7373.77 6.6843e-15
7375.51 6.6736e-15
7377.24 6.6296e-15
7378.98 6.5756e-15
7380.72 6.5363e-15
7382.46 6.5322e-15
7384.2 6.5713e-15
7385.94 6.6082e-15
7387.68 6.6003e-15
7389.42 6.5528e-15
7391.16 6.4823e-15
7392.89 6.4307e-15
7394.63 6.4348e-15
7396.37 6.4753e-15
7398.11 6.5227e-15
7399.85 6.5513e-15
7401.59 6.5408e-15
7403.33 6.5135e-15
7405.07 6.4986e-15
7406.81 6.4998e-15
7408.54 6.5148e-15
7410.28 6.5381e-15
7412.02 6.5624e-15
7413.76 6.5822e-15
7415.5 6.5931e-15
7417.24 6.5932e-15
7418.98 6.5825e-15
7420.72 6.5609e-15
7422.45 6.5287e-15
7424.19 6.5019e-15
7425.93 6.4995e-15
7427.67 6.5088e-15
7429.41 6.5071e-15
7431.15 6.489e-15
7432.89 6.4555e-15
7434.63 6.4208e-15
7436.37 6.4052e-15
7438.1 6.4021e-15
7439.84 6.3937e-15
7441.58 6.3796e-15
7443.32 6.3657e-15
7445.06 6.3664e-15
7446.8 6.4005e-15
7448.54 6.4528e-15
7450.28 6.4891e-15
7452.02 6.5047e-15
7453.75 6.5106e-15
7455.49 6.5195e-15
7457.23 6.5464e-15
7458.97 6.5842e-15
7460.71 6.6093e-15
7462.45 6.6215e-15
7464.19 6.6376e-15
7465.93 6.6601e-15
7467.67 6.6831e-15
7469.4 6.6957e-15
7471.14 6.6802e-15
7472.88 6.6509e-15
7474.62 6.6542e-15
7476.36 6.687e-15
7478.1 6.6986e-15
7479.84 6.674e-15
7481.58 6.6316e-15
7483.32 6.596e-15
7485.05 6.6056e-15
7486.79 6.6493e-15
7488.53 6.6509e-15
7490.27 6.594e-15
7492.01 6.5414e-15
7493.75 6.5229e-15
7495.49 6.5237e-15
7497.23 6.5367e-15
7498.97 6.5636e-15
7500.7 6.5971e-15
7502.44 6.6197e-15
7504.18 6.6212e-15
7505.92 6.6006e-15
7507.66 6.5677e-15
7509.4 6.5521e-15
7511.14 6.5664e-15
7512.88 6.5882e-15
7514.62 6.5982e-15
7516.35 6.5984e-15
7518.09 6.5987e-15
7519.83 6.5989e-15
7521.57 6.5991e-15
7523.31 6.5994e-15
7525.05 6.5996e-15
7526.79 6.5998e-15
7528.53 6.6001e-15
7530.26 6.6003e-15
7532.0 6.6006e-15
7533.74 6.6008e-15
7535.48 6.601e-15
7537.22 6.6013e-15
7538.96 6.6015e-15
7540.7 6.6017e-15
7542.44 6.602e-15
7544.18 6.6022e-15
7545.91 6.6024e-15
7547.65 6.6027e-15
7549.39 6.6029e-15
7551.13 6.6032e-15
7552.87 6.6034e-15
7554.61 6.6036e-15
7556.35 6.6039e-15
7558.09 6.6041e-15
7559.83 6.6043e-15
7561.56 6.6046e-15
7563.3 6.6048e-15
7565.04 6.605e-15
7566.78 6.6053e-15
7568.52 6.6055e-15
7570.26 6.6057e-15
7572.0 6.606e-15
7573.74 6.6062e-15
7575.48 6.6065e-15
7577.21 6.6067e-15
7578.95 6.6069e-15
7580.69 6.6072e-15
7582.43 6.6074e-15
7584.17 6.6076e-15
7585.91 6.6079e-15
7587.65 6.6081e-15
7589.39 6.6083e-15
7591.13 6.6086e-15
7592.86 6.6088e-15
7594.6 6.609e-15
7596.34 6.6093e-15
7598.08 6.6095e-15
7599.82 6.6098e-15
7601.56 6.61e-15
7603.3 6.6102e-15
7605.04 6.6105e-15
7606.78 6.6107e-15
7608.51 6.6109e-15
7610.25 6.6112e-15
7611.99 6.6114e-15
7613.73 6.6116e-15
7615.47 6.6119e-15
7617.21 6.6121e-15
7618.95 6.6124e-15
7620.69 6.6126e-15
7622.43 6.6128e-15
7624.16 6.6131e-15
7625.9 6.6133e-15
7627.64 6.6135e-15
7629.38 6.6138e-15
7631.12 6.614e-15
7632.86 6.6142e-15
7634.6 6.6145e-15
7636.34 6.6147e-15
7638.07 6.6149e-15
7639.81 6.6152e-15
7641.55 6.6154e-15
7643.29 6.6157e-15
7645.03 6.6159e-15
7646.77 6.6161e-15
7648.51 6.6164e-15
7650.25 6.6166e-15
7651.99 6.6168e-15
7653.72 6.6171e-15
7655.46 6.6173e-15
7657.2 6.6175e-15
7658.94 6.6178e-15
7660.68 6.618e-15
7662.42 6.6183e-15
7664.16 6.6185e-15
7665.9 6.6187e-15
7667.64 6.619e-15
7669.37 6.6192e-15
7671.11 6.6194e-15
7672.85 6.6197e-15
7674.59 6.6199e-15
7676.33 6.6201e-15
7678.07 6.6204e-15
7679.81 6.6206e-15
7681.55 6.6208e-15
7683.29 6.6211e-15
7685.02 6.6213e-15
7686.76 6.6216e-15
7688.5 6.6218e-15
7690.24 6.622e-15
7691.98 6.6223e-15
7693.72 6.6225e-15
7695.46 6.6227e-15
7697.2 6.623e-15
7698.94 6.6232e-15
7700.67 6.6234e-15
7702.41 6.6237e-15
7704.15 6.6239e-15
7705.89 6.6242e-15
7707.63 6.6244e-15
7709.37 6.6246e-15
7711.11 6.6249e-15
7712.85 6.6251e-15
7714.59 6.6253e-15
7716.32 6.6256e-15
7718.06 6.6258e-15
7719.8 6.626e-15
7721.54 6.6263e-15
7723.28 6.6265e-15
7725.02 6.6267e-15
7726.76 6.627e-15
7728.5 6.6272e-15
7730.24 6.6275e-15
7731.97 6.6277e-15
7733.71 6.6279e-15
7735.45 6.6282e-15
7737.19 6.6284e-15
7738.93 6.6286e-15
7740.67 6.6289e-15
7742.41 6.6291e-15
7744.15 6.6293e-15
7745.88 6.6296e-15
7747.62 6.6298e-15
7749.36 6.63e-15
7751.1 6.6303e-15
7752.84 6.6355e-15
7754.58 6.6593e-15
7756.32 6.6601e-15
7758.06 6.6363e-15
7759.8 6.6002e-15
7761.53 6.5499e-15
7763.27 6.4807e-15
7765.01 6.4163e-15
7766.75 6.3895e-15
7768.49 6.3852e-15
7770.23 6.3698e-15
7771.97 6.3322e-15
7773.71 6.2703e-15
7775.45 6.2116e-15
7777.18 6.1977e-15
7778.92 6.2213e-15
7780.66 6.2504e-15
7782.4 6.2651e-15
7784.14 6.2518e-15
7785.88 6.2234e-15
7787.62 6.2083e-15
7789.36 6.2219e-15
7791.1 6.2725e-15
7792.83 6.3318e-15
7794.57 6.3437e-15
7796.31 6.3178e-15
7798.05 6.3153e-15
7799.79 6.3428e-15
7801.53 6.3649e-15
7803.27 6.3701e-15
7805.01 6.3635e-15
7806.75 6.3565e-15
7808.48 6.3698e-15
7810.22 6.3981e-15
7811.96 6.4075e-15
7813.7 6.3925e-15
7815.44 6.38e-15
7817.18 6.374e-15
7818.92 6.3521e-15
7820.66 6.3123e-15
7822.4 6.2763e-15
7824.13 6.2529e-15
7825.87 6.2348e-15
7827.61 6.2134e-15
7829.35 6.176e-15
7831.09 6.1225e-15
7832.83 6.0717e-15
7834.57 6.0384e-15
7836.31 6.0316e-15
7838.05 6.045e-15
7839.78 6.0435e-15
7841.52 6.0129e-15
7843.26 5.9827e-15
7845.0 5.9706e-15
7846.74 5.9678e-15
7848.48 5.9711e-15
7850.22 5.9919e-15
7851.96 6.0293e-15
7853.69 6.0508e-15
7855.43 6.0433e-15
7857.17 6.0456e-15
7858.91 6.082e-15
7860.65 6.1303e-15
7862.39 6.1699e-15
7864.13 6.1895e-15
7865.87 6.1843e-15
7867.61 6.172e-15
7869.34 6.1659e-15
7871.08 6.1474e-15
7872.82 6.1066e-15
7874.56 6.0744e-15
7876.3 6.0746e-15
7878.04 6.0966e-15
7879.78 6.1243e-15
7881.52 6.1277e-15
7883.26 6.0869e-15
7884.99 6.0501e-15
7886.73 6.0594e-15
7888.47 6.0755e-15
7890.21 6.0574e-15
7891.95 6.0129e-15
7893.69 5.9568e-15
7895.43 5.9068e-15
7897.17 5.8783e-15
7898.91 5.8568e-15
7900.64 5.8246e-15
7902.38 5.7992e-15
7904.12 5.8001e-15
7905.86 5.8078e-15
7907.6 5.7975e-15
7909.34 5.7749e-15
7911.08 5.7521e-15
7912.82 5.7286e-15
7914.56 5.7025e-15
7916.29 5.6868e-15
7918.03 5.6967e-15
7919.77 5.73e-15
7921.51 5.778e-15
7923.25 5.8356e-15
7924.99 5.8982e-15
7926.73 5.9512e-15
7928.47 5.9776e-15
7930.21 5.9905e-15
7931.94 6.0138e-15
7933.68 6.0444e-15
7935.42 6.0684e-15
7937.16 6.0843e-15
7938.9 6.0958e-15
7940.64 6.098e-15
7942.38 6.0829e-15
7944.12 6.0585e-15
7945.86 6.0404e-15
7947.59 6.0324e-15
7949.33 6.0323e-15
7951.07 6.0287e-15
7952.81 6.0043e-15
7954.55 5.9621e-15
7956.29 5.9183e-15
7958.03 5.8803e-15
7959.77 5.8508e-15
7961.5 5.824e-15
7963.24 5.7858e-15
7964.98 5.7428e-15
7966.72 5.7193e-15
7968.46 5.7113e-15
7970.2 5.6903e-15
7971.94 5.6549e-15
7973.68 5.6273e-15
7975.42 5.6159e-15
7977.15 5.6177e-15
7978.89 5.6245e-15
7980.63 5.6212e-15
7982.37 5.605e-15
7984.11 5.5896e-15
7985.85 5.5771e-15
7987.59 5.5556e-15
7989.33 5.5254e-15
7991.07 5.5017e-15
7992.8 5.4934e-15
7994.54 5.5014e-15
7996.28 5.5224e-15
7998.02 5.5477e-15
7999.76 5.5707e-15
8001.5 5.5912e-15
8003.24 5.6069e-15
8004.98 5.6129e-15
8006.72 5.6081e-15
8008.45 5.5972e-15
8010.19 5.5884e-15
8011.93 5.5957e-15
8013.67 5.6271e-15
8015.41 5.682e-15
8017.15 5.746e-15
8018.89 5.7704e-15
8020.63 5.7355e-15
8022.37 5.6978e-15
8024.1 5.6965e-15
8025.84 5.7135e-15
8027.58 5.7305e-15
8029.32 5.7344e-15
8031.06 5.7151e-15
8032.8 5.6718e-15
8034.54 5.6132e-15
8036.28 5.5798e-15
8038.02 5.5944e-15
8039.75 5.601e-15
8041.49 5.5551e-15
8043.23 5.4879e-15
8044.97 5.4315e-15
8046.71 5.3938e-15
8048.45 5.3774e-15
8050.19 5.3622e-15
8051.93 5.3303e-15
8053.67 5.2942e-15
8055.4 5.2682e-15
8057.14 5.255e-15
8058.88 5.2541e-15
8060.62 5.2496e-15
8062.36 5.2267e-15
8064.1 5.2019e-15
8065.84 5.1942e-15
8067.58 5.1873e-15
8069.31 5.1629e-15
8071.05 5.148e-15
8072.79 5.1727e-15
8074.53 5.2106e-15
8076.27 5.2258e-15
8078.01 5.2165e-15
8079.75 5.1896e-15
8081.49 5.1616e-15
8083.23 5.1512e-15
8084.96 5.1569e-15
8086.7 5.1703e-15
8088.44 5.1852e-15
8090.18 5.1955e-15
8091.92 5.1978e-15
8093.66 5.19e-15
8095.4 5.1832e-15
8097.14 5.1927e-15
8098.88 5.2077e-15
8100.61 5.2069e-15
8102.35 5.1942e-15
8104.09 5.1842e-15
8105.83 5.1716e-15
8107.57 5.1425e-15
8109.31 5.1013e-15
8111.05 5.0624e-15
8112.79 5.0212e-15
8114.53 4.9622e-15
8116.26 4.905e-15
8118.0 4.8901e-15
8119.74 4.8978e-15
8121.48 4.87e-15
8123.22 4.8135e-15
8124.96 4.779e-15
8126.7 4.7622e-15
8128.44 4.7208e-15
8130.18 4.6556e-15
8131.91 4.5975e-15
8133.65 4.5619e-15
8135.39 4.554e-15
8137.13 4.5628e-15
8138.87 4.561e-15
8140.61 4.5417e-15
8142.35 4.5205e-15
8144.09 4.4983e-15
8145.83 4.4593e-15
8147.56 4.4172e-15
8149.3 4.4188e-15
8151.04 4.4676e-15
8152.78 4.517e-15
8154.52 4.5385e-15
8156.26 4.5245e-15
8158.0 4.4887e-15
8159.74 4.4779e-15
8161.48 4.5111e-15
8163.21 4.5634e-15
8164.95 4.6183e-15
8166.69 4.6759e-15
8168.43 4.7252e-15
8170.17 4.7363e-15
8171.91 4.7088e-15
8173.65 4.6943e-15
8175.39 4.7221e-15
8177.13 4.7765e-15
8178.86 4.8392e-15
8180.6 4.8876e-15
8182.34 4.9083e-15
8184.08 4.9135e-15
8185.82 4.9123e-15
8187.56 4.9006e-15
8189.3 4.8778e-15
8191.04 4.8514e-15
8192.77 4.8269e-15
8194.51 4.8031e-15
8196.25 4.7817e-15
8197.99 4.7767e-15
8199.73 4.7943e-15
8201.47 4.8162e-15
8203.21 4.8236e-15
8204.95 4.8007e-15
8206.69 4.7404e-15
8208.42 4.665e-15
8210.16 4.5955e-15
8211.9 4.5284e-15
8213.64 4.457e-15
8215.38 4.375e-15
8217.12 4.2753e-15
8218.86 4.1441e-15
8220.6 3.9752e-15
8222.34 3.7934e-15
8224.07 3.6277e-15
8225.81 3.499e-15
8227.55 3.4226e-15
8229.29 3.3921e-15
8231.03 3.3948e-15
8232.77 3.4166e-15
8234.51 3.444e-15
8236.25 3.4853e-15
8237.99 3.5508e-15
8239.72 3.6275e-15
8241.46 3.6983e-15
8243.2 3.7511e-15
8244.94 3.7766e-15
8246.68 3.7721e-15
8248.42 3.7388e-15
8250.16 3.6871e-15
8251.9 3.6295e-15
8253.64 3.5662e-15
8255.37 3.4935e-15
8257.11 3.4136e-15
8258.85 3.3306e-15
8260.59 3.2435e-15
8262.33 3.1497e-15
8264.07 3.055e-15
8265.81 2.967e-15
8267.55 2.8874e-15
8269.29 2.8159e-15
8271.02 2.737e-15
8272.76 2.6293e-15
8274.5 2.5065e-15
8276.24 2.3997e-15
8277.98 2.313e-15
8279.72 2.2359e-15
8281.46 2.1673e-15
8283.2 2.1115e-15
8284.94 2.0572e-15
8286.67 1.9836e-15
8288.41 1.9065e-15
8290.15 1.8652e-15
8291.89 1.8614e-15
8293.63 1.8717e-15
8295.37 1.8757e-15
8297.11 1.8534e-15
8298.85 1.8111e-15
8300.58 1.7784e-15
8302.32 1.761e-15
8304.06 1.7443e-15
8305.8 1.7234e-15
8307.54 1.7006e-15
8309.28 1.6813e-15
8311.02 1.6768e-15
8312.76 1.6804e-15
8314.5 1.6644e-15
8316.23 1.6282e-15
8317.97 1.6033e-15
8319.71 1.6022e-15
8321.45 1.615e-15
8323.19 1.6312e-15
8324.93 1.6382e-15
8326.67 1.6308e-15
8328.41 1.6151e-15
8330.15 1.5994e-15
8331.88 1.5966e-15
8333.62 1.6081e-15
8335.36 1.6127e-15
8337.1 1.6043e-15
8338.84 1.6072e-15
8340.58 1.6285e-15
8342.32 1.6413e-15
8344.06 1.6334e-15
8345.8 1.6221e-15
8347.53 1.6211e-15
8349.27 1.6391e-15
8351.01 1.675e-15
8352.75 1.7018e-15
8354.49 1.7047e-15
8356.23 1.7053e-15
8357.97 1.7207e-15
8359.71 1.7484e-15
8361.45 1.7879e-15
8363.18 1.8506e-15
8364.92 1.9353e-15
8366.66 1.9982e-15
8368.4 2.0106e-15
8370.14 2.0043e-15
8371.88 2.0095e-15
8373.62 2.0295e-15
8375.36 2.0649e-15
8377.1 2.1133e-15
8378.83 2.17e-15
8380.57 2.2316e-15
8382.31 2.2945e-15
8384.05 2.3559e-15
8385.79 2.4141e-15
8387.53 2.4697e-15
8389.27 2.524e-15
8391.01 2.5774e-15
8392.75 2.6303e-15
8394.48 2.6818e-15
8396.22 2.731e-15
8397.96 2.7827e-15
8399.7 2.8407e-15
8401.44 2.8919e-15
8403.18 2.9222e-15
8404.92 2.9334e-15
8406.66 2.9317e-15
8408.39 2.9311e-15
8410.13 2.946e-15
8411.87 2.9652e-15
8413.61 2.972e-15
8415.35 2.9715e-15
8417.09 2.9744e-15
8418.83 2.9838e-15
8420.57 2.9994e-15
8422.31 3.0308e-15
8424.04 3.0898e-15
8425.78 3.1352e-15
8427.52 3.1114e-15
8429.26 3.0493e-15
8431.0 3.0115e-15
8432.74 3.0085e-15
8434.48 3.03e-15
8436.22 3.062e-15
8437.96 3.0856e-15
8439.69 3.1015e-15
8441.43 3.1205e-15
8443.17 3.1401e-15
8444.91 3.1521e-15
8446.65 3.1592e-15
8448.39 3.1698e-15
8450.13 3.1901e-15
8451.87 3.2253e-15
8453.61 3.2723e-15
8455.34 3.3233e-15
8457.08 3.3706e-15
8458.82 3.4064e-15
8460.56 3.4354e-15
8462.3 3.4725e-15
8464.04 3.5151e-15
8465.78 3.5479e-15
8467.52 3.5657e-15
8469.26 3.5704e-15
8470.99 3.5749e-15
8472.73 3.6033e-15
8474.47 3.6551e-15
8476.21 3.7064e-15
8477.95 3.74e-15
8479.69 3.7443e-15
8481.43 3.7288e-15
8483.17 3.7289e-15
8484.91 3.756e-15
8486.64 3.7932e-15
8488.38 3.8232e-15
8490.12 3.8253e-15
8491.86 3.803e-15
8493.6 3.7976e-15
8495.34 3.8222e-15
8497.08 3.8431e-15
8498.82 3.8486e-15
8500.56 3.8652e-15
8502.29 3.8983e-15
8504.03 3.9147e-15
8505.77 3.9086e-15
8507.51 3.9262e-15
8509.25 3.9887e-15
8510.99 4.0654e-15
8512.73 4.1331e-15
8514.47 4.1838e-15
8516.2 4.219e-15
8517.94 4.2631e-15
8519.68 4.3333e-15
8521.42 4.425e-15
8523.16 4.5286e-15
8524.9 4.6184e-15
8526.64 4.6835e-15
8528.38 4.7601e-15
8530.12 4.8742e-15
8531.85 5.0108e-15
8533.59 5.1519e-15
8535.33 5.2728e-15
8537.07 5.3596e-15
8538.81 5.4425e-15
8540.55 5.5481e-15
8542.29 5.6691e-15
8544.03 5.7952e-15
8545.77 5.9192e-15
8547.5 6.0326e-15
8549.24 6.1163e-15
8550.98 6.1595e-15
8552.72 6.2007e-15
8554.46 6.2751e-15
8556.2 6.3586e-15
8557.94 6.423e-15
8559.68 6.4756e-15
8561.42 6.5264e-15
8563.15 6.5666e-15
8564.89 6.5877e-15
8566.63 6.6009e-15
8568.37 6.6191e-15
8570.11 6.6489e-15
8571.85 6.6936e-15
8573.59 6.7281e-15
8575.33 6.7258e-15
8577.07 6.7165e-15
8578.8 6.7402e-15
8580.54 6.7977e-15
8582.28 6.8776e-15
8584.02 6.954e-15
8585.76 6.9978e-15
8587.5 7.0104e-15
8589.24 7.0059e-15
8590.98 6.9948e-15
8592.72 6.9862e-15
8594.45 6.9985e-15
8596.19 7.0514e-15
8597.93 7.1129e-15
8599.67 7.1324e-15
8601.41 7.1176e-15
8603.15 7.1008e-15
8604.89 7.1053e-15
8606.63 7.1507e-15
8608.37 7.2249e-15
8610.1 7.2979e-15
8611.84 7.3613e-15
8613.58 7.4193e-15
8615.32 7.4671e-15
8617.06 7.4977e-15
8618.8 7.5126e-15
8620.54 7.5159e-15
8622.28 7.5354e-15
8624.01 7.6144e-15
8625.75 7.7384e-15
8627.49 7.8525e-15
8629.23 7.922e-15
8630.97 7.9261e-15
8632.71 7.8881e-15
8634.45 7.8703e-15
8636.19 7.8948e-15
8637.93 7.9464e-15
8639.66 8.0016e-15
8641.4 8.0264e-15
8643.14 8.0096e-15
8644.88 7.9667e-15
8646.62 7.9118e-15
8648.36 7.8557e-15
8650.1 7.811e-15
8651.84 7.7927e-15
8653.58 7.7896e-15
8655.31 7.7571e-15
8657.05 7.6789e-15
8658.79 7.5771e-15
8660.53 7.4762e-15
8662.27 7.4056e-15
8664.01 7.3741e-15
8665.75 7.3538e-15
8667.49 7.3274e-15
8669.23 7.2981e-15
8670.96 7.2679e-15
8672.7 7.2393e-15
8674.44 7.2105e-15
8676.18 7.1654e-15
8677.92 7.1057e-15
8679.66 7.0753e-15
8681.4 7.0931e-15
8683.14 7.1168e-15
8684.88 7.1198e-15
8686.61 7.1196e-15
8688.35 7.1315e-15
8690.09 7.1678e-15
8691.83 7.2295e-15
8693.57 7.2816e-15
8695.31 7.3007e-15
8697.05 7.3067e-15
8698.79 7.3176e-15
8700.53 7.3332e-15
8702.26 7.353e-15
8704.0 7.3791e-15
8705.74 7.4102e-15
8707.48 7.431e-15
8709.22 7.4307e-15
8710.96 7.4268e-15
8712.7 7.4327e-15
8714.44 7.4207e-15
8716.18 7.3692e-15
8717.91 7.3177e-15
8719.65 7.3006e-15
8721.39 7.2806e-15
8723.13 7.2194e-15
8724.87 7.1302e-15
8726.61 7.0332e-15
8728.35 6.9555e-15
8730.09 6.9183e-15
8731.82 6.8753e-15
8733.56 6.7755e-15
8735.3 6.6582e-15
8737.04 6.5744e-15
8738.78 6.504e-15
8740.52 6.4155e-15
8742.26 6.3258e-15
8744.0 6.2592e-15
8745.74 6.1995e-15
8747.47 6.1233e-15
8749.21 6.0249e-15
8750.95 5.9049e-15
8752.69 5.7933e-15
8754.43 5.7278e-15
8756.17 5.689e-15
8757.91 5.6377e-15
8759.65 5.5832e-15
8761.39 5.5518e-15
8763.12 5.5145e-15
8764.86 5.4235e-15
8766.6 5.3166e-15
8768.34 5.2656e-15
8770.08 5.2614e-15
8771.82 5.2575e-15
8773.56 5.2524e-15
8775.3 5.2641e-15
8777.04 5.2836e-15
8778.77 5.2889e-15
8780.51 5.2824e-15
8782.25 5.2805e-15
8783.99 5.2797e-15
8785.73 5.2632e-15
8787.47 5.249e-15
8789.21 5.2781e-15
8790.95 5.3397e-15
8792.69 5.3876e-15
8794.42 5.4027e-15
8796.16 5.3862e-15
8797.9 5.346e-15
8799.64 5.2974e-15
8801.38 5.2503e-15
8803.12 5.2092e-15
8804.86 5.1675e-15
8806.6 5.106e-15
8808.34 5.0273e-15
8810.07 4.9584e-15
8811.81 4.904e-15
8813.55 4.8438e-15
8815.29 4.7747e-15
8817.03 4.715e-15
8818.77 4.6641e-15
8820.51 4.5962e-15
8822.25 4.5159e-15
8823.99 4.4711e-15
8825.72 4.4743e-15
8827.46 4.4858e-15
8829.2 4.4886e-15
8830.94 4.5007e-15
8832.68 4.5305e-15
8834.42 4.5739e-15
8836.16 4.6222e-15
8837.9 4.6583e-15
8839.63 4.6691e-15
8841.37 4.6469e-15
8843.11 4.6021e-15
8844.85 4.5851e-15
8846.59 4.6184e-15
8848.33 4.6569e-15
8850.07 4.6719e-15
8851.81 4.6834e-15
8853.55 4.7033e-15
8855.28 4.7209e-15
8857.02 4.7306e-15
8858.76 4.7398e-15
8860.5 4.7554e-15
8862.24 4.7819e-15
8863.98 4.8214e-15
8865.72 4.8688e-15
8867.46 4.9171e-15
8869.2 4.9552e-15
8870.93 4.9766e-15
8872.67 4.993e-15
8874.41 5.0164e-15
8876.15 5.0553e-15
8877.89 5.1122e-15
8879.63 5.1621e-15
8881.37 5.1843e-15
8883.11 5.2012e-15
8884.85 5.2345e-15
8886.58 5.2798e-15
8888.32 5.3267e-15
8890.06 5.3445e-15
8891.8 5.3077e-15
8893.54 5.2436e-15
8895.28 5.1865e-15
8897.02 5.1393e-15
8898.76 5.1002e-15
8900.5 5.0781e-15
8902.23 5.0789e-15
8903.97 5.0868e-15
8905.71 5.0822e-15
8907.45 5.0518e-15
8909.19 4.9881e-15
8910.93 4.9053e-15
8912.67 4.8232e-15
8914.41 4.7773e-15
8916.15 4.8018e-15
8917.88 4.8435e-15
8919.62 4.8258e-15
8921.36 4.7655e-15
8923.1 4.7096e-15
8924.84 4.6539e-15
8926.58 4.581e-15
8928.32 4.4925e-15
8930.06 4.3952e-15
8931.8 4.3119e-15
8933.53 4.2711e-15
8935.27 4.2588e-15
8937.01 4.2413e-15
8938.75 4.2198e-15
8940.49 4.2116e-15
8942.23 4.2152e-15
8943.97 4.2217e-15
8945.71 4.222e-15
8947.44 4.2072e-15
8949.18 4.1801e-15
8950.92 4.1497e-15
8952.66 4.1346e-15
8954.4 4.161e-15
8956.14 4.2135e-15
8957.88 4.247e-15
8959.62 4.2541e-15
8961.36 4.2569e-15
8963.09 4.2548e-15
8964.83 4.2291e-15
8966.57 4.189e-15
8968.31 4.1662e-15
8970.05 4.1676e-15
8971.79 4.177e-15
8973.53 4.1863e-15
8975.27 4.1938e-15
8977.01 4.1977e-15
8978.74 4.1988e-15
8980.48 4.1899e-15
8982.22 4.1552e-15
8983.96 4.0937e-15
8985.7 4.0208e-15
8987.44 3.9556e-15
8989.18 3.9212e-15
8990.92 3.9242e-15
8992.66 3.9474e-15
8994.39 3.974e-15
8996.13 3.9886e-15
8997.87 3.9886e-15
8999.61 3.9956e-15
9001.35 4.017e-15
9003.09 4.0339e-15
9004.83 4.0319e-15
9006.57 3.9986e-15
9008.31 3.9441e-15
9010.04 3.9295e-15
9011.78 3.9793e-15
9013.52 4.0346e-15
9015.26 4.0542e-15
9017.0 4.0423e-15
9018.74 4.0108e-15
9020.48 3.9912e-15
9022.22 4.0039e-15
9023.96 4.0301e-15
9025.69 4.0552e-15
9027.43 4.0852e-15
9029.17 4.1243e-15
9030.91 4.1725e-15
9032.65 4.2256e-15
9034.39 4.2595e-15
9036.13 4.2596e-15
9037.87 4.254e-15
9039.61 4.2652e-15
9041.34 4.2739e-15
9043.08 4.2633e-15
9044.82 4.2414e-15
9046.56 4.2172e-15
9048.3 4.1943e-15
9050.04 4.174e-15
9051.78 4.1491e-15
9053.52 4.1114e-15
9055.25 4.057e-15
9056.99 3.9845e-15
9058.73 3.8976e-15
9060.47 3.8028e-15
9062.21 3.7288e-15
9063.95 3.7e-15
9065.69 3.6772e-15
9067.43 3.6153e-15
9069.17 3.5203e-15
9070.9 3.4104e-15
9072.64 3.3136e-15
9074.38 3.2582e-15
9076.12 3.2205e-15
9077.86 3.1656e-15
9079.6 3.1139e-15
9081.34 3.097e-15
9083.08 3.094e-15
9084.82 3.0721e-15
9086.55 3.0253e-15
9088.29 2.9564e-15
9090.03 2.903e-15
9091.77 2.9127e-15
9093.51 2.9606e-15
9095.25 2.9957e-15
9096.99 3.001e-15
9098.73 2.9736e-15
9100.47 2.9364e-15
9102.2 2.9249e-15
9103.94 2.9434e-15
9105.68 2.981e-15
9107.42 3.0238e-15
9109.16 3.0556e-15
9110.9 3.0747e-15
9112.64 3.088e-15
9114.38 3.1031e-15
9116.12 3.1293e-15
9117.85 3.1596e-15
9119.59 3.1757e-15
9121.33 3.1817e-15
9123.07 3.1964e-15
9124.81 3.2226e-15
9126.55 3.2514e-15
9128.29 3.2796e-15
9130.03 3.3098e-15
9131.77 3.337e-15
9133.5 3.3477e-15
9135.24 3.3631e-15
9136.98 3.4358e-15
9138.72 3.5624e-15
9140.46 3.6849e-15
9142.2 3.7685e-15
9143.94 3.8008e-15
9145.68 3.7897e-15
9147.42 3.7699e-15
9149.15 3.7558e-15
9150.89 3.7344e-15
9152.63 3.7023e-15
9154.37 3.6662e-15
9156.11 3.6376e-15
9157.85 3.6357e-15
9159.59 3.6688e-15
9161.33 3.733e-15
9163.06 3.8043e-15
9164.8 3.8237e-15
9166.54 3.7766e-15
9168.28 3.7281e-15
9170.02 3.7144e-15
9171.76 3.7134e-15
9173.5 3.7137e-15
9175.24 3.7254e-15
9176.98 3.7509e-15
9178.71 3.7768e-15
9180.45 3.8027e-15
9182.19 3.865e-15
9183.93 3.9735e-15
9185.67 4.0667e-15
9187.41 4.1077e-15
9189.15 4.1329e-15
9190.89 4.1706e-15
9192.63 4.2152e-15
9194.36 4.2605e-15
9196.1 4.299e-15
9197.84 4.3244e-15
9199.58 4.3342e-15
9201.32 4.3334e-15
9203.06 4.3595e-15
9204.8 4.4344e-15
9206.54 4.5029e-15
9208.28 4.52e-15
9210.01 4.5171e-15
9211.75 4.5261e-15
9213.49 4.5445e-15
9215.23 4.5659e-15
9216.97 4.5703e-15
9218.71 4.5435e-15
9220.45 4.5272e-15
9222.19 4.5594e-15
9223.93 4.6137e-15
9225.66 4.6553e-15
9227.4 4.6605e-15
9229.14 4.6134e-15
9230.88 4.5509e-15
9232.62 4.5155e-15
9234.36 4.4848e-15
9236.1 4.4276e-15
9237.84 4.3642e-15
9239.58 4.3218e-15
9241.31 4.2876e-15
9243.05 4.242e-15
9244.79 4.1945e-15
9246.53 4.1603e-15
9248.27 4.1404e-15
9250.01 4.1306e-15
9251.75 4.1276e-15
9253.49 4.1284e-15
9255.23 4.109e-15
9256.96 4.0407e-15
9258.7 3.9551e-15
9260.44 3.904e-15
9262.18 3.8799e-15
9263.92 3.8526e-15
9265.66 3.8034e-15
9267.4 3.7179e-15
9269.14 3.6153e-15
9270.88 3.531e-15
9272.61 3.4692e-15
9274.35 3.4187e-15
9276.09 3.3659e-15
9277.83 3.2941e-15
9279.57 3.2136e-15
9281.31 3.1514e-15
9283.05 3.1068e-15
9284.79 3.063e-15
9286.52 3.0139e-15
9288.26 2.9585e-15
9290.0 2.9119e-15
9291.74 2.9011e-15
9293.48 2.922e-15
9295.22 2.9459e-15
9296.96 2.9573e-15
9298.7 2.9516e-15
9300.44 2.9308e-15
9302.17 2.901e-15
9303.91 2.8828e-15
9305.65 2.9124e-15
9307.39 2.9745e-15
9309.13 3.0019e-15
9310.87 2.9653e-15
9312.61 2.873e-15
9314.35 2.762e-15
9316.09 2.7104e-15
9317.82 2.7248e-15
9319.56 2.7132e-15
9321.3 2.6463e-15
9323.04 2.5856e-15
9324.78 2.5465e-15
9326.52 2.4792e-15
9328.26 2.3692e-15
9330.0 2.2522e-15
9331.74 2.1555e-15
9333.47 2.0966e-15
9335.21 2.0751e-15
9336.95 2.0578e-15
9338.69 2.0236e-15
9340.43 1.9746e-15
9342.17 1.9283e-15
9343.91 1.9374e-15
9345.65 2.0213e-15
9347.39 2.1215e-15
9349.12 2.1906e-15
9350.86 2.2178e-15
9352.6 2.201e-15
9354.34 2.1577e-15
9356.08 2.1089e-15
9357.82 2.0807e-15
9359.56 2.0818e-15
9361.3 2.0565e-15
9363.04 1.9761e-15
9364.77 1.927e-15
9366.51 1.9661e-15
9368.25 2.0155e-15
9369.99 2.0107e-15
9371.73 1.9745e-15
9373.47 1.9368e-15
9375.21 1.9268e-15
9376.95 1.969e-15
9378.69 2.0585e-15
9380.42 2.1832e-15
9382.16 2.3328e-15
9383.9 2.4941e-15
9385.64 2.6504e-15
9387.38 2.7868e-15
9389.12 2.9028e-15
9390.86 2.9994e-15
9392.6 3.0672e-15
9394.33 3.0982e-15
9396.07 3.0926e-15
9397.81 3.0548e-15
9399.55 3.0121e-15
9401.29 2.9918e-15
9403.03 2.9561e-15
9404.77 2.8612e-15
9406.51 2.7583e-15
9408.25 2.7145e-15
9409.98 2.7248e-15
9411.72 2.7641e-15
9413.46 2.8188e-15
9415.2 2.8755e-15
9416.94 2.9176e-15
9418.68 2.9314e-15
9420.42 2.9057e-15
9422.16 2.8332e-15
9423.9 2.75e-15
9425.63 2.7049e-15
9427.37 2.6951e-15
9429.11 2.6995e-15
9430.85 2.6833e-15
9432.59 2.6051e-15
9434.33 2.5147e-15
9436.07 2.5027e-15
9437.81 2.546e-15
9439.55 2.5651e-15
9441.28 2.5618e-15
9443.02 2.579e-15
9444.76 2.6001e-15
9446.5 2.579e-15
9448.24 2.524e-15
9449.98 2.4719e-15
9451.72 2.4499e-15
9453.46 2.4833e-15
9455.2 2.5315e-15
9456.93 2.5045e-15
9458.67 2.4118e-15
9460.41 2.3386e-15
9462.15 2.3119e-15
9463.89 2.3134e-15
9465.63 2.3394e-15
9467.37 2.3919e-15
9469.11 2.4727e-15
9470.85 2.5898e-15
9472.58 2.7104e-15
9474.32 2.7586e-15
9476.06 2.7303e-15
9477.8 2.7016e-15
9479.54 2.7021e-15
9481.28 2.704e-15
9483.02 2.7095e-15
9484.76 2.7573e-15
9486.5 2.8386e-15
9488.23 2.8829e-15
9489.97 2.8598e-15
9491.71 2.7959e-15
9493.45 2.7151e-15
9495.19 2.635e-15
9496.93 2.5759e-15
9498.67 2.5584e-15
9500.41 2.5888e-15
9502.14 2.6481e-15
9503.88 2.7241e-15
9505.62 2.8233e-15
9507.36 2.9404e-15
9509.1 3.0506e-15
9510.84 3.1282e-15
9512.58 3.1434e-15
9514.32 3.0845e-15
9516.06 2.9778e-15
9517.79 2.8524e-15
9519.53 2.7323e-15
9521.27 2.6368e-15
9523.01 2.5656e-15
9524.75 2.5211e-15
9526.49 2.5259e-15
9528.23 2.5889e-15
9529.97 2.6819e-15
9531.71 2.7755e-15
9533.44 2.8518e-15
9535.18 2.8974e-15
9536.92 2.9094e-15
9538.66 2.8915e-15
9540.4 2.8639e-15
9542.14 2.8426e-15
9543.88 2.802e-15
9545.62 2.7244e-15
9547.36 2.6526e-15
9549.09 2.6264e-15
9550.83 2.6408e-15
9552.57 2.6807e-15
9554.31 2.7155e-15
9556.05 2.7174e-15
9557.79 2.6992e-15
9559.53 2.6813e-15
9561.27 2.6782e-15
9563.01 2.7021e-15
9564.74 2.7405e-15
9566.48 2.7767e-15
9568.22 2.8315e-15
9569.96 2.9274e-15
9571.7 3.0127e-15
9573.44 3.0274e-15
9575.18 3.0046e-15
9576.92 2.9968e-15
9578.66 3.0167e-15
9580.39 3.0655e-15
9582.13 3.0959e-15
9583.87 3.0498e-15
9585.61 2.9631e-15
9587.35 2.9018e-15
9589.09 2.8664e-15
9590.83 2.836e-15
9592.57 2.8257e-15
9594.31 2.8594e-15
9596.04 2.9271e-15
9597.78 3.0055e-15
9599.52 3.08e-15
9601.26 3.1385e-15
9603.0 3.1924e-15
9604.74 3.2661e-15
9606.48 3.3378e-15
9608.22 3.3626e-15
9609.95 3.3498e-15
9611.69 3.3369e-15
9613.43 3.3386e-15
9615.17 3.3581e-15
9616.91 3.3771e-15
9618.65 3.3621e-15
9620.39 3.3162e-15
9622.13 3.2672e-15
9623.87 3.2342e-15
9625.6 3.2301e-15
9627.34 3.2535e-15
9629.08 3.2897e-15
9630.82 3.3257e-15
9632.56 3.3528e-15
9634.3 3.3583e-15
9636.04 3.3253e-15
9637.78 3.2723e-15
9639.52 3.2522e-15
9641.25 3.2784e-15
9642.99 3.3234e-15
9644.73 3.3623e-15
9646.47 3.3676e-15
9648.21 3.3483e-15
9649.95 3.3681e-15
9651.69 3.423e-15
9653.43 3.4143e-15
9655.17 3.3236e-15
9656.9 3.2439e-15
9658.64 3.2291e-15
9660.38 3.2791e-15
9662.12 3.374e-15
9663.86 3.4522e-15
9665.6 3.4933e-15
9667.34 3.5588e-15
9669.08 3.676e-15
9670.82 3.8105e-15
9672.55 3.9272e-15
9674.29 3.9825e-15
9676.03 3.9676e-15
9677.77 3.9578e-15
9679.51 3.9911e-15
9681.25 4.005e-15
9682.99 3.963e-15
9684.73 3.8934e-15
9686.47 3.8301e-15
9688.2 3.8298e-15
9689.94 3.9117e-15
9691.68 3.9718e-15
9693.42 3.9425e-15
9695.16 3.9035e-15
9696.9 3.9155e-15
9698.64 3.9414e-15
9700.38 3.9482e-15
9702.12 3.9401e-15
9703.85 3.9194e-15
9705.59 3.8757e-15
9707.33 3.805e-15
9709.07 3.7218e-15
9710.81 3.6448e-15
9712.55 3.6041e-15
9714.29 3.6206e-15
9716.03 3.6836e-15
9717.76 3.7689e-15
9719.5 3.7943e-15
9721.24 3.6931e-15
9722.98 3.5547e-15
9724.72 3.4783e-15
9726.46 3.417e-15
9728.2 3.3119e-15
9729.94 3.2067e-15
9731.68 3.1533e-15
9733.41 3.1396e-15
9735.15 3.1414e-15
9736.89 3.1335e-15
9738.63 3.0939e-15
9740.37 3.045e-15
9742.11 3.0195e-15
9743.85 3.0267e-15
9745.59 3.0681e-15
9747.33 3.1278e-15
9749.06 3.1848e-15
9750.8 3.236e-15
9752.54 3.2842e-15
9754.28 3.3325e-15
9756.02 3.3858e-15
9757.76 3.4285e-15
9759.5 3.4385e-15
9761.24 3.441e-15
9762.98 3.4792e-15
9764.71 3.5434e-15
9766.45 3.5998e-15
9768.19 3.6548e-15
9769.93 3.7332e-15
9771.67 3.8092e-15
9773.41 3.8341e-15
9775.15 3.8202e-15
9776.89 3.8109e-15
9778.63 3.8178e-15
9780.36 3.8372e-15
9782.1 3.8445e-15
9783.84 3.7996e-15
9785.58 3.7199e-15
9787.32 3.6608e-15
9789.06 3.6419e-15
9790.8 3.6578e-15
9792.54 3.6878e-15
9794.28 3.6972e-15
9796.01 3.6783e-15
9797.75 3.6484e-15
9799.49 3.6206e-15
9801.23 3.6007e-15
9802.97 3.6118e-15
9804.71 3.6971e-15
9806.45 3.823e-15
9808.19 3.8741e-15
9809.93 3.8292e-15
9811.66 3.771e-15
9813.4 3.7476e-15
9815.14 3.7746e-15
9816.88 3.8242e-15
9818.62 3.8037e-15
9820.36 3.6939e-15
9822.1 3.5765e-15
9823.84 3.5153e-15
9825.57 3.5573e-15
9827.31 3.6814e-15
9829.05 3.7448e-15
9830.79 3.6976e-15
9832.53 3.661e-15
9834.27 3.695e-15
9836.01 3.745e-15
9837.75 3.774e-15
9839.49 3.7711e-15
9841.22 3.7413e-15
9842.96 3.7321e-15
9844.7 3.7707e-15
9846.44 3.8299e-15
9848.18 3.8916e-15
9849.92 3.9667e-15
9851.66 4.0574e-15
9853.4 4.1448e-15
9855.14 4.2161e-15
9856.87 4.2751e-15
9858.61 4.3264e-15
9860.35 4.375e-15
9862.09 4.4224e-15
9863.83 4.452e-15
9865.57 4.4558e-15
9867.31 4.4653e-15
9869.05 4.5027e-15
9870.79 4.5423e-15
9872.52 4.5605e-15
9874.26 4.5571e-15
9876.0 4.5377e-15
9877.74 4.5373e-15
9879.48 4.5796e-15
9881.22 4.5927e-15
9882.96 4.5162e-15
9884.7 4.4382e-15
9886.44 4.4446e-15
9888.17 4.4618e-15
9889.91 4.4119e-15
9891.65 4.3602e-15
9893.39 4.3788e-15
9895.13 4.4381e-15
9896.87 4.4923e-15
9898.61 4.5029e-15
9900.35 4.4397e-15
9902.09 4.3385e-15
9903.82 4.25e-15
9905.56 4.1779e-15
9907.3 4.1148e-15
9909.04 4.0811e-15
9910.78 4.0972e-15
9912.52 4.1304e-15
9914.26 4.1363e-15
9916.0 4.1053e-15
9917.74 4.0394e-15
9919.47 3.9766e-15
9921.21 3.9671e-15
9922.95 3.9707e-15
9924.69 3.9161e-15
9926.43 3.8426e-15
9928.17 3.8314e-15
9929.91 3.8597e-15
9931.65 3.8604e-15
9933.38 3.8753e-15
9935.12 3.991e-15
9936.86 4.1531e-15
9938.6 4.242e-15
9940.34 4.2471e-15
9942.08 4.2147e-15
9943.82 4.1767e-15
9945.56 4.1575e-15
9947.3 4.1815e-15
9949.03 4.274e-15
9950.77 4.3847e-15
9952.51 4.4072e-15
9954.25 4.387e-15
9955.99 4.4795e-15
9957.73 4.6705e-15
9959.47 4.8218e-15
9961.21 4.8788e-15
9962.95 4.8484e-15
9964.68 4.7713e-15
9966.42 4.7236e-15
9968.16 4.7316e-15
9969.9 4.773e-15
9971.64 4.819e-15
9973.38 4.8286e-15
9975.12 4.8097e-15
9976.86 4.8317e-15
9978.6 4.8982e-15
9980.33 4.9312e-15
9982.07 4.9152e-15
9983.81 4.9189e-15
9985.55 4.9427e-15
9987.29 4.8915e-15
9989.03 4.758e-15
9990.77 4.661e-15
9992.51 4.6529e-15
9994.25 4.6876e-15
9995.98 4.7189e-15
9997.72 4.6917e-15
9999.46 4.5983e-15
