# wavelength flux
3300.0 1.4495784374470969e-15
3301.0 1.4495702133986916e-15
3302.0 1.4495619858103994e-15
3303.0 1.4495537546788032e-15
3304.0 1.449545520000482e-15
3305.0 1.4495372817720137e-15
3306.0 1.4495290399899703e-15
3307.0 1.4495207946509223e-15
3308.0 1.449512545751437e-15
3309.0 1.4495042932880776e-15
3310.0 1.4494960372574039e-15
3311.0 1.4494877776559732e-15
3312.0 1.4494795144803386e-15
3313.0 1.449471247727052e-15
3314.0 1.4494629773926587e-15
3315.0 1.449454703473704e-15
3316.0 1.4494464259667277e-15
3317.0 1.4494381448682672e-15
3318.0 1.4494298601748565e-15
3319.0 1.4494215718830263e-15
3320.0 1.449413279989304e-15
3321.0 1.4494049844902142e-15
3322.0 1.4493966853822765e-15
3323.0 1.4493883826620093e-15
3324.0 1.4493800763259266e-15
3325.0 1.449371766370539e-15
3326.0 1.4493634527923541e-15
3327.0 1.4493551355878767e-15
3328.0 1.4493468147536067e-15
3329.0 1.4493384902860424e-15
3330.0 1.4493301621816779e-15
3331.0 1.4493218304370036e-15
3332.0 1.4493134950485077e-15
3333.0 1.4493051560126743e-15
3334.0 1.4492968133259842e-15
3335.0 1.4492884669849147e-15
3336.0 1.4492801169859407e-15
3337.0 1.4492717633255321e-15
3338.0 1.4492634060001575e-15
3339.0 1.4492550450062798e-15
3340.0 1.4492466803403606e-15
3341.0 1.4492383119988571e-15
3342.0 1.449229939978224e-15
3343.0 1.4492215642749102e-15
3344.0 1.4492131848853647e-15
3345.0 1.4492048018060309e-15
3346.0 1.4491964150333493e-15
3347.0 1.4491880245637573e-15
3348.0 1.449179630393688e-15
3349.0 1.4491712325195726e-15
3350.0 1.4491628309378374e-15
3351.0 1.449154425644907e-15
3352.0 1.4491460166372008e-15
3353.0 1.4491376039111356e-15
3354.0 1.4491291874631252e-15
3355.0 1.4491207672895793e-15
3356.0 1.4491123433869044e-15
3357.0 1.4491039157515043e-15
3358.0 1.4490954843797779e-15
3359.0 1.4490870492681224e-15
3360.0 1.4490786104129302e-15
3361.0 1.4490701678105908e-15
3362.0 1.4490617214574905e-15
3363.0 1.4490532713500117e-15
3364.0 1.4490448174845337e-15
3365.0 1.4490363598574322e-15
3366.0 1.4490278984650794e-15
3367.0 1.4490194333038447e-15
3368.0 1.449010964370093e-15
3369.0 1.4490024916601862e-15
3370.0 1.448994015170483e-15
3371.0 1.4489855348973385e-15
3372.0 1.448977050837105e-15
3373.0 1.4489685629861292e-15
3374.0 1.4489600713407566e-15
3375.0 1.4489515758973282e-15
3376.0 1.448943076652182e-15
3377.0 1.448934573601652e-15
3378.0 1.448926066742069e-15
3379.0 1.4489175560697596e-15
3380.0 1.4489090415810491e-15
3381.0 1.4489005232722564e-15
3382.0 1.4488920011396993e-15
3383.0 1.4488834751796906e-15
3384.0 1.4488749453885401e-15
3385.0 1.4488664117625538e-15
3386.0 1.4488578742980351e-15
3387.0 1.4488493329912832e-15
3388.0 1.4488407878385938e-15
3389.0 1.448832238836259e-15
3390.0 1.4488236859805678e-15
3391.0 1.4488151292678048e-15
3392.0 1.4488065686942528e-15
3393.0 1.448798004256189e-15
3394.0 1.448789435949888e-15
3395.0 1.448780863771622e-15
3396.0 1.4487722877176572e-15
3397.0 1.4487637077842586e-15
3398.0 1.4487551239676862e-15
3399.0 1.4487465362641973e-15
3400.0 1.4487379446700447e-15
3401.0 1.4487293491814784e-15
3402.0 1.448720749794745e-15
3403.0 1.4487121465060866e-15
3404.0 1.4487035393117431e-15
3405.0 1.4486949282079494e-15
3406.0 1.448686313190938e-15
3407.0 1.4486776942569371e-15
3408.0 1.448669071402171e-15
3409.0 1.4486604446228618e-15
3410.0 1.4486518139152268e-15
3411.0 1.4486431792754798e-15
3412.0 1.4486345406998316e-15
3413.0 1.4486258981844897e-15
3414.0 1.4486172517256557e-15
3415.0 1.4486086013195311e-15
3416.0 1.4485999469623111e-15
3417.0 1.448591288650188e-15
3418.0 1.4485826263793514e-15
3419.0 1.4485739601459857e-15
3420.0 1.4485652899462733e-15
3421.0 1.4485566157763916e-15
3422.0 1.4485479376325154e-15
3423.0 1.4485392555108154e-15
3424.0 1.4485305694074584e-15
3425.0 1.4485218793186082e-15
3426.0 1.4485131852404248e-15
3427.0 1.4485044871690641e-15
3428.0 1.4484957851006785e-15
3429.0 1.4484870790314176e-15
3430.0 1.448478368957426e-15
3431.0 1.4484696548748457e-15
3432.0 1.4484609367798145e-15
3433.0 1.4484522146684667e-15
3434.0 1.4484434885369327e-15
3435.0 1.44843475838134e-15
3436.0 1.4484260241978112e-15
3437.0 1.4484172859824666e-15
3438.0 1.4484085437314214e-15
3439.0 1.4483997974407886e-15
3440.0 1.4483910471066764e-15
3441.0 1.4483822927251893e-15
3442.0 1.4483735342924291e-15
3443.0 1.4483647718044932e-15
3444.0 1.448356005257475e-15
3445.0 1.4483472346474648e-15
3446.0 1.448338459970549e-15
3447.0 1.4483296812228102e-15
3448.0 1.4483208984003272e-15
3449.0 1.4483121114991756e-15
3450.0 1.4483033205154266e-15
3451.0 1.4482945254451482e-15
3452.0 1.4482857262844043e-15
3453.0 1.4482769230292558e-15
3454.0 1.4482681156757579e-15
3455.0 1.4482593042199652e-15
3456.0 1.4482504886579255e-15
3457.0 1.4482416689856851e-15
3458.0 1.4482328451992846e-15
3459.0 1.4482240172947626e-15
3460.0 1.4482151852681531e-15
3461.0 1.4482063491154867e-15
3462.0 1.44819750883279e-15
3463.0 1.448188664416085e-15
3464.0 1.4481798158613916e-15
3465.0 1.448170963164725e-15
3466.0 1.4481621063220966e-15
3467.0 1.448153245329514e-15
3468.0 1.4481443801829811e-15
3469.0 1.4481355108784987e-15
3470.0 1.4481266374120625e-15
3471.0 1.4481177597796658e-15
3472.0 1.4481088779772963e-15
3473.0 1.44809999200094e-15
3474.0 1.4480911018465777e-15
3475.0 1.4480822075101868e-15
3476.0 1.4480733089877413e-15
3477.0 1.44806440627521e-15
3478.0 1.44805549936856e-15
3479.0 1.4480465882637522e-15
3480.0 1.4480376729567457e-15
3481.0 1.4480287534434954e-15
3482.0 1.448019829719951e-15
3483.0 1.4480109017820595e-15
3484.0 1.4480019696257643e-15
3485.0 1.447993033247004e-15
3486.0 1.4479840926417145e-15
3487.0 1.447975147805827e-15
3488.0 1.4479661987352684e-15
3489.0 1.4479572454259637e-15
3490.0 1.4479482878738316e-15
3491.0 1.4479393260747886e-15
3492.0 1.4479303600247467e-15
3493.0 1.4479213897196146e-15
3494.0 1.4479124151552962e-15
3495.0 1.447903436327692e-15
3496.0 1.4478944532326989e-15
3497.0 1.447885465866209e-15
3498.0 1.4478764742241123e-15
3499.0 1.4478674783022933e-15
3500.0 1.4478584780966324e-15
3500.54 2.9005e-16
3502.28 3.0946e-16
3504.02 3.6213e-16
3505.76 2.9039e-16
3507.5 2.9631e-16
3509.24 3.1098e-16
3510.98 3.815e-16
3512.72 2.8865e-16
3514.46 1.8104e-16
3516.19 2.0546e-16
3517.93 3.2747e-16
3519.67 4.6596e-16
3521.41 3.0505e-16
3523.15 3.1412e-16
3524.89 2.7987e-16
3526.63 1.6787e-16
3528.37 3.0427e-16
3530.11 2.3247e-16
3531.85 1.4335e-16
3533.58 1.8593e-16
3535.32 2.6297e-16
3537.06 3.3987e-16
3538.8 4.5466e-16
3540.54 3.5869e-16
3542.28 1.4071e-16
3544.02 1.7188e-16
3545.76 2.6682e-16
3547.5 2.9204e-16
3549.23 1.7819e-16
3550.97 2.2962e-16
3552.71 3.0532e-16
3554.45 2.3203e-16
3556.19 2.1623e-16
3557.93 2.6776e-16
3559.67 2.9369e-16
3561.41 2.304e-16
3563.15 3.8738e-16
3564.88 3.4292e-16
3566.62 2.7483e-16
3568.36 1.866e-16
3570.1 2.7196e-16
3571.84 3.056e-16
3573.58 4.0458e-16
3575.32 3.8749e-16
3577.06 3.2533e-16
3578.8 3.947e-16
3580.54 3.9991e-16
3582.27 2.3815e-16
3584.01 1.7551e-16
3585.75 2.2917e-16
3587.49 3.2272e-16
3589.23 3.6684e-16
3590.97 2.7385e-16
3592.71 2.494e-16
3594.45 3.0593e-16
3596.19 3.5074e-16
3597.92 3.9791e-16
3599.66 4.6466e-16
3601.4 2.8812e-16
3603.14 2.9095e-16
3604.88 3.007e-16
3606.62 2.9754e-16
3608.36 2.6863e-16
3610.1 2.7842e-16
3611.84 2.8417e-16
3613.57 1.8717e-16
3615.31 2.652e-16
3617.05 3.5596e-16
3618.79 1.7781e-16
3620.53 2.4067e-16
3622.27 2.5909e-16
3624.01 2.8894e-16
3625.75 2.6478e-16
3627.49 3.4207e-16
3629.23 3.0792e-16
3630.96 2.728e-16
3632.7 2.9046e-16
3634.44 3.2199e-16
3636.18 3.5673e-16
3637.92 4.5723e-16
3639.66 4.2524e-16
3641.4 3.3848e-16
3643.14 2.6927e-16
3644.88 3.0785e-16
3646.61 5.0903e-16
3648.35 2.9785e-16
3650.09 2.1112e-16
3651.83 3.51e-16
3653.57 3.4786e-16
3655.31 2.9687e-16
3657.05 3.2924e-16
3658.79 3.5838e-16
3660.53 2.056e-16
3662.27 2.5064e-16
3664.0 2.1384e-16
3665.74 2.3656e-16
3667.48 3.1182e-16
3669.22 3.4678e-16
3670.96 3.0618e-16
3672.7 2.7739e-16
3674.44 3.1857e-16
3676.18 2.8395e-16
3677.92 2.4938e-16
3679.65 2.1477e-16
3681.39 3.1669e-16
3683.13 3.2694e-16
3684.87 3.2338e-16
3686.61 3.4446e-16
3688.35 3.2831e-16
3690.09 3.0441e-16
3691.83 3.3555e-16
3693.57 4.2537e-16
3695.3 4.283e-16
3697.04 3.2292e-16
3698.78 3.1991e-16
3700.52 3.8835e-16
3702.26 4.1862e-16
3704.0 4.0793e-16
3705.74 4.3847e-16
3707.48 5.166e-16
3709.22 5.4083e-16
3710.96 5.2279e-16
3712.69 5.1609e-16
3714.43 4.9001e-16
3716.17 5.1255e-16
3717.91 5.5716e-16
3719.65 4.2727e-16
3721.39 5.2241e-16
3723.13 5.2458e-16
3724.87 5.5028e-16
3726.61 5.8178e-16
3728.34 6.3842e-16
3730.08 7.1252e-16
3731.82 6.7566e-16
3733.56 7.6526e-16
3735.3 7.818e-16
3737.04 6.7864e-16
3738.78 6.2461e-16
3740.52 6.5155e-16
3742.26 6.1839e-16
3744.0 6.633e-16
3745.73 5.0271e-16
3747.47 6.0519e-16
3749.21 6.7874e-16
3750.95 7.175e-16
3752.69 7.5055e-16
3754.43 7.5338e-16
3756.17 6.4485e-16
3757.91 7.2923e-16
3759.65 7.2123e-16
3761.38 7.2656e-16
3763.12 7.288e-16
3764.86 6.7985e-16
3766.6 7.9368e-16
3768.34 7.5256e-16
3770.08 7.187e-16
3771.82 6.7283e-16
3773.56 6.2849e-16
3775.3 5.8073e-16
3777.03 5.2146e-16
3778.77 5.6038e-16
3780.51 7.0553e-16
3782.25 7.067e-16
3783.99 6.1808e-16
3785.73 6.0778e-16
3787.47 6.6387e-16
3789.21 7.3856e-16
3790.95 8.2142e-16
3792.69 6.6917e-16
3794.42 6.6636e-16
3796.16 7.1014e-16
3797.9 6.869e-16
3799.64 6.7279e-16
3801.38 5.9469e-16
3803.12 5.6152e-16
3804.86 6.2288e-16
3806.6 4.1243e-16
3808.34 5.1827e-16
3810.07 5.8184e-16
3811.81 5.6395e-16
3813.55 5.6937e-16
3815.29 5.3297e-16
3817.03 4.654e-16
3818.77 6.1139e-16
3820.51 3.7377e-16
3822.25 4.3905e-16
3823.99 3.9411e-16
3825.72 4.3037e-16
3827.46 3.9301e-16
3829.2 3.1311e-16
3830.94 4.4605e-16
3832.68 3.9513e-16
3834.42 4.4582e-16
3836.16 3.9391e-16
3837.9 3.2568e-16
3839.64 3.5203e-16
3841.38 3.5367e-16
3843.11 3.1695e-16
3844.85 3.3677e-16
3846.59 3.427e-16
3848.33 3.4479e-16
3850.07 3.0704e-16
3851.81 2.7621e-16
3853.55 3.0231e-16
3855.29 2.6118e-16
3857.03 2.9109e-16
3858.76 3.5515e-16
3860.5 3.3479e-16
3862.24 2.5782e-16
3863.98 3.1017e-16
3865.72 3.1971e-16
3867.46 -3.1146e-16
3869.2 1.9032e-16
3870.94 3.8729e-16
3872.68 4.1031e-16
3874.42 3.9913e-16
3876.15 3.6506e-16
3877.89 4.3058e-16
3879.63 4.7658e-16
3881.37 4.7455e-16
3883.11 3.9822e-16
3884.85 4.5012e-16
3886.59 5.0018e-16
3888.33 5.0306e-16
3890.07 4.9313e-16
3891.8 4.8774e-16
3893.54 4.5159e-16
3895.28 5.2409e-16
3897.02 5.2331e-16
3898.76 5.1025e-16
3900.5 5.1474e-16
3902.24 5.7958e-16
3903.98 5.2829e-16
3905.72 5.814e-16
3907.45 7.2468e-16
3909.19 6.9176e-16
3910.93 7.4577e-16
3912.67 8.5035e-16
3914.41 7.3687e-16
3916.15 8.0571e-16
3917.89 7.1192e-16
3919.63 8.4076e-16
3921.37 9.507e-16
3923.11 9.3209e-16
3924.84 1.066e-15
3926.58 1.05e-15
3928.32 1.1268e-15
3930.06 1.1543e-15
3931.8 1.1152e-15
3933.54 1.068e-15
3935.28 1.2269e-15
3937.02 1.3011e-15
3938.76 1.2848e-15
3940.49 1.3097e-15
3942.23 1.2285e-15
3943.97 1.1728e-15
3945.71 1.2588e-15
3947.45 1.4109e-15
3949.19 1.3247e-15
3950.93 1.3051e-15
3952.67 1.4066e-15
3954.41 1.4578e-15
3956.15 1.4952e-15
3957.88 1.4056e-15
3959.62 1.4009e-15
3961.36 1.3911e-15
3963.1 1.5409e-15
3964.84 1.5108e-15
3966.58 1.4729e-15
3968.32 1.5036e-15
3970.06 1.3774e-15
3971.8 1.4471e-15
3973.53 1.5429e-15
3975.27 1.4968e-15
3977.01 1.5086e-15
3978.75 1.5352e-15
3980.49 1.5945e-15
3982.23 1.4979e-15
3983.97 1.5259e-15
3985.71 1.5575e-15
3987.45 1.5286e-15
3989.18 1.6399e-15
3990.92 1.4539e-15
3992.66 1.539e-15
3994.4 1.6709e-15
3996.14 1.6449e-15
3997.88 1.5204e-15
3999.62 1.6721e-15
4001.36 1.6438e-15
4003.1 1.5965e-15
4004.84 1.5575e-15
4006.57 1.6628e-15
4008.31 1.5594e-15
4010.05 1.5512e-15
4011.79 1.6993e-15
4013.53 1.5763e-15
4015.27 1.5372e-15
4017.01 1.6735e-15
4018.75 1.5107e-15
4020.49 1.4637e-15
4022.22 1.4056e-15
4023.96 1.31e-15
4025.7 1.4423e-15
4027.44 1.4257e-15
4029.18 1.4416e-15
4030.92 1.3698e-15
4032.66 1.3917e-15
4034.4 1.373e-15
4036.14 1.345e-15
4037.87 1.3933e-15
4039.61 1.4555e-15
4041.35 1.3012e-15
4043.09 1.3955e-15
4044.83 1.3689e-15
4046.57 1.409e-15
4048.31 1.44e-15
4050.05 1.3988e-15
4051.79 1.3909e-15
4053.53 1.3883e-15
4055.26 1.4137e-15
4057.0 1.3726e-15
4058.74 1.541e-15
4060.48 1.4947e-15
4062.22 1.5289e-15
4063.96 1.5083e-15
4065.7 1.4712e-15
4067.44 1.5187e-15
4069.18 1.4437e-15
4070.91 1.395e-15
4072.65 1.5298e-15
4074.39 1.4383e-15
4076.13 1.3503e-15
4077.87 1.5183e-15
4079.61 1.6158e-15
4081.35 1.5591e-15
4083.09 1.6011e-15
4084.83 1.4572e-15
4086.57 1.4139e-15
4088.3 1.5709e-15
4090.04 1.5452e-15
4091.78 1.4155e-15
4093.52 1.3826e-15
4095.26 1.4608e-15
4097.0 1.4479e-15
4098.74 1.3834e-15
4100.48 1.4487e-15
4102.22 1.4094e-15
4103.95 1.4977e-15
4105.69 1.4755e-15
4107.43 1.4352e-15
4109.17 1.4437e-15
4110.91 1.3783e-15
4112.65 1.3053e-15
4114.39 1.2942e-15
4116.13 1.3455e-15
4117.87 1.3931e-15
4119.6 1.3233e-15
4121.34 1.354e-15
4123.08 1.2827e-15
4124.82 1.2393e-15
4126.56 1.2489e-15
4128.3 1.2333e-15
4130.04 1.2776e-15
4131.78 1.2599e-15
4133.52 1.3854e-15
4135.26 1.2982e-15
4136.99 1.2992e-15
4138.73 1.3599e-15
4140.47 1.3668e-15
4142.21 1.2778e-15
4143.95 1.2372e-15
4145.69 1.3471e-15
4147.43 1.2999e-15
4149.17 1.3047e-15
4150.91 1.3539e-15
4152.64 1.2868e-15
4154.38 1.272e-15
4156.12 1.2127e-15
4157.86 1.187e-15
4159.6 1.1716e-15
4161.34 1.2426e-15
4163.08 1.15e-15
4164.82 1.1472e-15
4166.56 1.1593e-15
4168.3 1.1359e-15
4170.03 1.0949e-15
4171.77 1.0371e-15
4173.51 9.8588e-16
4175.25 9.3899e-16
4176.99 1.001e-15
4178.73 1.017e-15
4180.47 8.7998e-16
4182.21 8.5532e-16
4183.95 8.8133e-16
4185.68 8.114e-16
4187.42 8.8309e-16
4189.16 9.0501e-16
4190.9 9.5962e-16
4192.64 8.7466e-16
4194.38 9.215e-16
4196.12 8.9607e-16
4197.86 8.207e-16
4199.6 8.5355e-16
4201.33 8.5602e-16
4203.07 9.1769e-16
4204.81 8.6059e-16
4206.55 8.9847e-16
4208.29 8.9015e-16
4210.03 9.1013e-16
4211.77 9.2707e-16
4213.51 8.2327e-16
4215.25 8.6349e-16
4216.99 8.3851e-16
4218.72 7.5746e-16
4220.46 8.1962e-16
4222.2 8.5658e-16
4223.94 8.2528e-16
4225.68 7.1019e-16
4227.42 7.2584e-16
4229.16 7.4228e-16
4230.9 7.6151e-16
4232.64 7.2919e-16
4234.37 6.4104e-16
4236.11 7.6928e-16
4237.85 7.9474e-16
4239.59 7.9095e-16
4241.33 6.6719e-16
4243.07 6.5472e-16
4244.81 6.3355e-16
4246.55 7.0384e-16
4248.29 6.3438e-16
4250.03 7.3409e-16
4251.76 6.93e-16
4253.5 6.4099e-16
4255.24 5.7733e-16
4256.98 6.2903e-16
4258.72 6.6386e-16
4260.46 6.7958e-16
4262.2 6.4548e-16
4263.94 6.6741e-16
4265.68 7.012e-16
4267.41 6.6366e-16
4269.15 7.1015e-16
4270.89 7.2337e-16
4272.63 7.6397e-16
4274.37 7.8311e-16
4276.11 8.2036e-16
4277.85 7.5107e-16
4279.59 7.7079e-16
4281.33 7.6941e-16
4283.06 7.801e-16
4284.8 7.8229e-16
4286.54 8.1943e-16
4288.28 8.3989e-16
4290.02 8.5841e-16
4291.76 9.2257e-16
4293.5 9.5717e-16
4295.24 9.3974e-16
4296.98 9.9075e-16
4298.72 9.2703e-16
4300.45 9.4754e-16
4302.19 1.0059e-15
4303.93 1.0613e-15
4305.67 9.9044e-16
4307.41 9.9435e-16
4309.15 1.0663e-15
4310.89 1.0465e-15
4312.63 9.637e-16
4314.37 1.023e-15
4316.1 1.1359e-15
4317.84 1.0789e-15
4319.58 1.0288e-15
4321.32 1.0175e-15
4323.06 1.0435e-15
4324.8 9.0715e-16
4326.54 9.4847e-16
4328.28 9.7098e-16
4330.02 9.3274e-16
4331.75 9.7618e-16
4333.49 9.4586e-16
4335.23 9.5749e-16
4336.97 1.001e-15
4338.71 9.4371e-16
4340.45 1.041e-15
4342.19 9.9836e-16
4343.93 1.0041e-15
4345.67 1.0096e-15
4347.41 1.0398e-15
4349.14 1.0125e-15
4350.88 9.7214e-16
4352.62 1.0352e-15
4354.36 1.024e-15
4356.1 9.3997e-16
4357.84 9.7546e-16
4359.58 1.0281e-15
4361.32 1.116e-15
4363.06 1.1257e-15
4364.79 1.1093e-15
4366.53 1.1165e-15
4368.27 1.1926e-15
4370.01 1.1464e-15
4371.75 1.1275e-15
4373.49 1.1504e-15
4375.23 1.1658e-15
4376.97 1.1976e-15
4378.71 1.0118e-15
4380.45 1.0975e-15
4382.18 1.1669e-15
4383.92 1.1501e-15
4385.66 1.206e-15
4387.4 1.1714e-15
4389.14 1.1697e-15
4390.88 1.0479e-15
4392.62 1.1083e-15
4394.36 1.131e-15
4396.1 1.0914e-15
4397.83 1.1376e-15
4399.57 1.0947e-15
4401.31 1.0636e-15
4403.05 1.0119e-15
4404.79 1.0847e-15
4406.53 1.1307e-15
4408.27 1.0784e-15
4410.01 1.0541e-15
4411.75 1.0112e-15
4413.48 1.0022e-15
4415.22 1.0435e-15
4416.96 1.0003e-15
4418.7 9.2318e-16
4420.44 1.0481e-15
4422.18 1.0632e-15
4423.92 1.0511e-15
4425.66 1.067e-15
4427.4 1.0621e-15
4429.14 1.0642e-15
4430.87 1.0742e-15
4432.61 1.0123e-15
4434.35 1.0464e-15
4436.09 1.0088e-15
4437.83 9.6165e-16
4439.57 1.0338e-15
4441.31 1.0357e-15
4443.05 1.0204e-15
4444.79 9.6355e-16
4446.52 1.0738e-15
4448.26 1.0662e-15
4450.0 1.1569e-15
4451.74 1.1334e-15
4453.48 9.4799e-16
4455.22 9.1142e-16
4456.96 9.6961e-16
4458.7 9.9483e-16
4460.44 1.036e-15
4462.18 9.6011e-16
4463.91 1.052e-15
4465.65 1.0039e-15
4467.39 8.9134e-16
4469.13 8.6785e-16
4470.87 9.4603e-16
4472.61 1.0586e-15
4474.35 9.7192e-16
4476.09 9.0593e-16
4477.83 9.0522e-16
4479.56 9.7974e-16
4481.3 1.0214e-15
4483.04 9.2724e-16
4484.78 9.3014e-16
4486.52 9.8726e-16
4488.26 1.0045e-15
4490.0 9.5498e-16
4491.74 9.6299e-16
4493.48 1.0802e-15
4495.21 1.1178e-15
4496.95 1.0879e-15
4498.69 1.0647e-15
4500.43 1.0885e-15
4502.17 1.1689e-15
4503.91 1.1443e-15
4505.65 1.1652e-15
4507.39 1.2064e-15
4509.13 1.211e-15
4510.87 1.2332e-15
4512.6 1.2489e-15
4514.34 1.2366e-15
4516.08 1.1863e-15
4517.82 1.3716e-15
4519.56 1.4042e-15
4521.3 1.47e-15
4523.04 1.5445e-15
4524.78 1.5642e-15
4526.52 1.4798e-15
4528.25 1.5573e-15
4529.99 1.6828e-15
4531.73 1.73e-15
4533.47 1.681e-15
4535.21 1.7843e-15
4536.95 1.7719e-15
4538.69 1.6991e-15
4540.43 1.7565e-15
4542.17 1.7605e-15
4543.9 1.8228e-15
4545.64 1.894e-15
4547.38 1.9749e-15
4549.12 1.8258e-15
4550.86 1.8873e-15
4552.6 1.9333e-15
4554.34 1.9963e-15
4556.08 2.0184e-15
4557.82 1.9998e-15
4559.56 2.0074e-15
4561.29 2.0303e-15
4563.03 2.0194e-15
4564.77 2.0188e-15
4566.51 1.9103e-15
4568.25 1.9628e-15
4569.99 1.9156e-15
4571.73 1.9887e-15
4573.47 1.988e-15
4575.21 2.024e-15
4576.94 2.0642e-15
4578.68 1.9878e-15
4580.42 2.0703e-15
4582.16 2.1101e-15
4583.9 2.0739e-15
4585.64 2.0906e-15
4587.38 2.1499e-15
4589.12 2.1546e-15
4590.86 2.1837e-15
4592.6 2.1436e-15
4594.33 2.2368e-15
4596.07 2.3186e-15
4597.81 2.2879e-15
4599.55 2.2921e-15
4601.29 2.3257e-15
4603.03 2.2435e-15
4604.77 2.2916e-15
4606.51 2.4035e-15
4608.25 2.3441e-15
4609.98 2.3718e-15
4611.72 2.396e-15
4613.46 2.3204e-15
4615.2 2.3476e-15
4616.94 2.3679e-15
4618.68 2.449e-15
4620.42 2.487e-15
4622.16 2.3708e-15
4623.9 2.3163e-15
4625.63 2.3489e-15
4627.37 2.3368e-15
4629.11 2.2262e-15
4630.85 2.2916e-15
4632.59 2.3473e-15
4634.33 2.2906e-15
4636.07 2.3518e-15
4637.81 2.2907e-15
4639.55 2.3125e-15
4641.29 2.2901e-15
4643.02 2.2673e-15
4644.76 2.3389e-15
4646.5 2.2097e-15
4648.24 2.3795e-15
4649.98 2.3646e-15
4651.72 2.2694e-15
4653.46 2.3231e-15
4655.2 2.281e-15
4656.94 2.1973e-15
4658.67 2.2196e-15
4660.41 2.1664e-15
4662.15 2.0706e-15
4663.89 2.1989e-15
4665.63 2.1303e-15
4667.37 2.0269e-15
4669.11 2.0389e-15
4670.85 2.0392e-15
4672.59 1.9874e-15
4674.33 1.9817e-15
4676.06 1.9421e-15
4677.8 1.7973e-15
4679.54 1.8712e-15
4681.28 1.8632e-15
4683.02 1.8537e-15
4684.76 1.8753e-15
4686.5 1.7102e-15
4688.24 1.6452e-15
4689.98 1.6802e-15
4691.71 1.6815e-15
4693.45 1.6743e-15
4695.19 1.6485e-15
4696.93 1.6998e-15
4698.67 1.5907e-15
4700.41 1.5578e-15
4702.15 1.6517e-15
4703.89 1.6444e-15
4705.63 1.6086e-15
4707.36 1.5545e-15
4709.1 1.4285e-15
4710.84 1.4493e-15
4712.58 1.3995e-15
4714.32 1.3641e-15
4716.06 1.4164e-15
4717.8 1.4655e-15
4719.54 1.4532e-15
4721.28 1.3942e-15
4723.02 1.3771e-15
4724.75 1.3665e-15
4726.49 1.3047e-15
4728.23 1.3622e-15
4729.97 1.3321e-15
4731.71 1.3161e-15
4733.45 1.3951e-15
4735.19 1.4082e-15
4736.93 1.3666e-15
4738.67 1.2613e-15
4740.4 1.2336e-15
4742.14 1.205e-15
4743.88 1.2321e-15
4745.62 1.1778e-15
4747.36 1.2311e-15
4749.1 1.2951e-15
4750.84 1.2213e-15
4752.58 1.1639e-15
4754.32 1.1206e-15
4756.05 1.0657e-15
4757.79 1.0936e-15
4759.53 1.0523e-15
4761.27 1.0639e-15
4763.01 1.1081e-15
4764.75 1.1648e-15
4766.49 1.0342e-15
4768.23 1.0836e-15
4769.97 1.103e-15
4771.71 1.0492e-15
4773.44 1.0412e-15
4775.18 9.9469e-16
4776.92 1.0609e-15
4778.66 1.0334e-15
4780.4 1.1429e-15
4782.14 1.1105e-15
4783.88 1.1673e-15
4785.62 1.2248e-15
4787.36 1.3027e-15
4789.09 1.3584e-15
4790.83 1.3348e-15
4792.57 1.2629e-15
4794.31 1.3453e-15
4796.05 1.3355e-15
4797.79 1.4728e-15
4799.53 1.4439e-15
4801.27 1.4289e-15
4803.01 1.4622e-15
4804.75 1.4896e-15
4806.48 1.7077e-15
4808.22 1.7355e-15
4809.96 1.6775e-15
4811.7 1.7997e-15
4813.44 1.8434e-15
4815.18 1.8273e-15
4816.92 1.8847e-15
4818.66 1.8807e-15
4820.4 2.0009e-15
4822.13 2.0675e-15
4823.87 1.963e-15
4825.61 1.9939e-15
4827.35 1.9492e-15
4829.09 2.0233e-15
4830.83 1.9576e-15
4832.57 1.9809e-15
4834.31 1.9928e-15
4836.05 2.0164e-15
4837.78 2.0105e-15
4839.52 1.8961e-15
4841.26 1.9938e-15
4843.0 1.9245e-15
4844.74 1.9769e-15
4846.48 2.0796e-15
4848.22 2.1503e-15
4849.96 2.1423e-15
4851.7 2.1072e-15
4853.44 2.0519e-15
4855.17 2.1616e-15
4856.91 2.1494e-15
4858.65 2.1829e-15
4860.39 2.2268e-15
4862.13 2.2366e-15
4863.87 2.2111e-15
4865.61 2.2183e-15
4867.35 2.262e-15
4869.09 2.2574e-15
4870.82 2.2564e-15
4872.56 2.2218e-15
4874.3 2.2511e-15
4876.04 2.2676e-15
4877.78 2.2804e-15
4879.52 2.2376e-15
4881.26 2.2567e-15
4883.0 2.3254e-15
4884.74 2.3464e-15
4886.48 2.3232e-15
4888.21 2.3093e-15
4889.95 2.2883e-15
4891.69 2.2915e-15
4893.43 2.2717e-15
4895.17 2.2067e-15
4896.91 2.2173e-15
4898.65 2.2436e-15
4900.39 2.2495e-15
4902.13 2.1917e-15
4903.86 2.1121e-15
4905.6 2.0896e-15
4907.34 2.1242e-15
4909.08 2.0843e-15
4910.82 2.0146e-15
4912.56 2.0013e-15
4914.3 1.9799e-15
4916.04 1.9915e-15
4917.78 1.949e-15
4919.51 1.9664e-15
4921.25 1.9299e-15
4922.99 1.8915e-15
4924.73 1.8097e-15
4926.47 1.7857e-15
4928.21 1.7617e-15
4929.95 1.7714e-15
4931.69 1.7772e-15
4933.43 1.7002e-15
4935.17 1.7337e-15
4936.9 1.763e-15
4938.64 1.7797e-15
4940.38 1.7235e-15
4942.12 1.7025e-15
4943.86 1.7839e-15
4945.6 1.778e-15
4947.34 1.8115e-15
4949.08 1.8431e-15
4950.82 1.8616e-15
4952.55 1.9177e-15
4954.29 1.9317e-15
4956.03 1.9606e-15
4957.77 1.9431e-15
4959.51 1.956e-15
4961.25 2.0322e-15
4962.99 2.0929e-15
4964.73 2.0439e-15
4966.47 2.0424e-15
4968.21 2.0121e-15
4969.94 2.0587e-15
4971.68 2.1455e-15
4973.42 2.1805e-15
4975.16 2.2445e-15
4976.9 2.2465e-15
4978.64 2.2148e-15
4980.38 2.2106e-15
4982.12 2.2414e-15
4983.86 2.2011e-15
4985.59 2.2227e-15
4987.33 2.2318e-15
4989.07 2.1861e-15
4990.81 2.1808e-15
4992.55 2.1943e-15
4994.29 2.1928e-15
4996.03 2.2113e-15
4997.77 2.2137e-15
4999.51 2.1954e-15
5001.24 2.196e-15
5002.98 2.1372e-15
5004.72 2.1303e-15
5006.46 2.2016e-15
5008.2 2.1835e-15
5009.94 2.2051e-15
5011.68 2.178e-15
5013.42 2.1612e-15
5015.16 2.1032e-15
5016.9 2.0834e-15
5018.63 2.0785e-15
5020.37 2.0639e-15
5022.11 2.0229e-15
5023.85 1.9995e-15
5025.59 1.9523e-15
5027.33 1.9721e-15
5029.07 1.918e-15
5030.81 1.8409e-15
5032.55 1.8116e-15
5034.28 1.7914e-15
5036.02 1.7687e-15
5037.76 1.7501e-15
5039.5 1.7069e-15
5041.24 1.6675e-15
5042.98 1.6174e-15
5044.72 1.596e-15
5046.46 1.6052e-15
5048.2 1.5213e-15
5049.93 1.4712e-15
5051.67 1.5111e-15
5053.41 1.4584e-15
5055.15 1.417e-15
5056.89 1.4174e-15
5058.63 1.3925e-15
5060.37 1.3221e-15
5062.11 1.2884e-15
5063.85 1.3345e-15
5065.59 1.3392e-15
5067.32 1.277e-15
5069.06 1.2324e-15
5070.8 1.2845e-15
5072.54 1.2232e-15
5074.28 1.2001e-15
5076.02 1.1928e-15
5077.76 1.1822e-15
5079.5 1.1828e-15
5081.24 1.1402e-15
5082.97 1.1211e-15
5084.71 1.1312e-15
5086.45 1.1377e-15
5088.19 1.0891e-15
5089.93 1.0744e-15
5091.67 1.0664e-15
5093.41 1.0645e-15
5095.15 1.0801e-15
5096.89 1.1172e-15
5098.63 1.1045e-15
5100.36 1.0407e-15
5102.1 1.073e-15
5103.84 1.1158e-15
5105.58 1.1471e-15
5107.32 1.1581e-15
5109.06 1.1579e-15
5110.8 1.1626e-15
5112.54 1.2198e-15
5114.28 1.2073e-15
5116.01 1.1603e-15
5117.75 1.2198e-15
5119.49 1.2344e-15
5121.23 1.2403e-15
5122.97 1.215e-15
5124.71 1.2475e-15
5126.45 1.3117e-15
5128.19 1.2738e-15
5129.93 1.2904e-15
5131.66 1.3601e-15
5133.4 1.3563e-15
5135.14 1.3275e-15
5136.88 1.3909e-15
5138.62 1.4248e-15
5140.36 1.4098e-15
5142.1 1.4503e-15
5143.84 1.4672e-15
5145.58 1.4306e-15
5147.32 1.4869e-15
5149.05 1.5738e-15
5150.79 1.5398e-15
5152.53 1.5591e-15
5154.27 1.5577e-15
5156.01 1.5716e-15
5157.75 1.5846e-15
5159.49 1.5377e-15
5161.23 1.5447e-15
5162.97 1.5357e-15
5164.7 1.5585e-15
5166.44 1.6076e-15
5168.18 1.5843e-15
5169.92 1.5755e-15
5171.66 1.6305e-15
5173.4 1.6438e-15
5175.14 1.6102e-15
5176.88 1.6373e-15
5178.62 1.6526e-15
5180.36 1.6535e-15
5182.09 1.6742e-15
5183.83 1.6796e-15
5185.57 1.6803e-15
5187.31 1.6964e-15
5189.05 1.713e-15
5190.79 1.7054e-15
5192.53 1.7028e-15
5194.27 1.7372e-15
5196.01 1.7434e-15
5197.74 1.7301e-15
5199.48 1.724e-15
5201.22 1.7474e-15
5202.96 1.7416e-15
5204.7 1.7178e-15
5206.44 1.683e-15
5208.18 1.6966e-15
5209.92 1.7059e-15
5211.66 1.7652e-15
5213.39 1.6945e-15
5215.13 1.6917e-15
5216.87 1.6871e-15
5218.61 1.7013e-15
5220.35 1.6761e-15
5222.09 1.6311e-15
5223.83 1.6509e-15
5225.57 1.6194e-15
5227.31 1.5908e-15
5229.05 1.689e-15
5230.78 1.6449e-15
5232.52 1.5933e-15
5234.26 1.6435e-15
5236.0 1.652e-15
5237.74 1.6482e-15
5239.48 1.644e-15
5241.22 1.6479e-15
5242.96 1.5817e-15
5244.7 1.6532e-15
5246.43 1.6836e-15
5248.17 1.6958e-15
5249.91 1.6588e-15
5251.65 1.6399e-15
5253.39 1.7039e-15
5255.13 1.6965e-15
5256.87 1.6823e-15
5258.61 1.6683e-15
5260.35 1.6866e-15
5262.08 1.7328e-15
5263.82 1.7083e-15
5265.56 1.6853e-15
5267.3 1.7319e-15
5269.04 1.7489e-15
5270.78 1.7932e-15
5272.52 1.8072e-15
5274.26 1.7539e-15
5276.0 1.7842e-15
5277.74 1.7734e-15
5279.47 1.7774e-15
5281.21 1.8065e-15
5282.95 1.8216e-15
5284.69 1.899e-15
5286.43 1.8621e-15
5288.17 1.8114e-15
5289.91 1.8642e-15
5291.65 1.8233e-15
5293.39 1.8563e-15
5295.12 1.8193e-15
5296.86 1.8121e-15
5298.6 1.8094e-15
5300.34 1.8413e-15
5302.08 1.8188e-15
5303.82 1.8377e-15
5305.56 1.8441e-15
5307.3 1.8694e-15
5309.04 1.901e-15
5310.78 1.9081e-15
5312.51 1.9093e-15
5314.25 1.8876e-15
5315.99 1.893e-15
5317.73 1.9305e-15
5319.47 1.9113e-15
5321.21 1.9434e-15
5322.95 1.9447e-15
5324.69 1.9124e-15
5326.43 1.9556e-15
5328.16 1.943e-15
5329.9 1.8677e-15
5331.64 1.8606e-15
5333.38 1.8868e-15
5335.12 1.895e-15
5336.86 1.9666e-15
5338.6 1.9548e-15
5340.34 1.9424e-15
5342.08 1.9256e-15
5343.81 1.9683e-15
5345.55 1.994e-15
5347.29 1.9882e-15
5349.03 2.0107e-15
5350.77 1.9825e-15
5352.51 2.0415e-15
5354.25 2.0139e-15
5355.99 2.038e-15
5357.73 2.0774e-15
5359.47 1.9957e-15
5361.2 2.0317e-15
5362.94 2.0564e-15
5364.68 2.0804e-15
5366.42 2.1018e-15
5368.16 2.0808e-15
5369.9 2.0233e-15
5371.64 2.1094e-15
5373.38 2.1291e-15
5375.12 2.0834e-15
5376.85 2.1408e-15
5378.59 2.1053e-15
5380.33 2.1004e-15
5382.07 2.0439e-15
5383.81 2.0293e-15
5385.55 2.0293e-15
5387.29 1.9841e-15
5389.03 1.9931e-15
5390.77 2.0421e-15
5392.51 2.0355e-15
5394.24 1.9506e-15
5395.98 1.873e-15
5397.72 1.9108e-15
5399.46 1.9318e-15
5401.2 1.9312e-15
5402.94 1.9302e-15
5404.68 1.992e-15
5406.42 1.9249e-15
5408.16 1.836e-15
5409.89 1.9417e-15
5411.63 1.9289e-15
5413.37 1.8543e-15
5415.11 1.8939e-15
5416.85 1.8495e-15
5418.59 1.8804e-15
5420.33 1.8536e-15
5422.07 1.8775e-15
5423.81 1.8939e-15
5425.54 1.8777e-15
5427.28 1.8066e-15
5429.02 1.8048e-15
5430.76 1.8532e-15
5432.5 1.8974e-15
5434.24 1.8541e-15
5435.98 1.749e-15
5437.72 1.8312e-15
5439.46 1.8436e-15
5441.2 1.8347e-15
5442.93 1.7982e-15
5444.67 1.8241e-15
5446.41 1.89e-15
5448.15 1.8294e-15
5449.89 1.8644e-15
5451.63 1.8991e-15
5453.37 1.9316e-15
5455.11 1.8843e-15
5456.85 1.875e-15
5458.58 1.9768e-15
5460.32 1.9771e-15
5462.06 2.0006e-15
5463.8 1.9696e-15
5465.54 1.9582e-15
5467.28 1.989e-15
5469.02 2.035e-15
5470.76 2.0502e-15
5472.5 2.102e-15
5474.23 2.1172e-15
5475.97 2.1008e-15
5477.71 2.1985e-15
5479.45 2.2351e-15
5481.19 2.2155e-15
5482.93 2.2024e-15
5484.67 2.215e-15
5486.41 2.1974e-15
5488.15 2.1989e-15
5489.89 2.2319e-15
5491.62 2.2385e-15
5493.36 2.3039e-15
5495.1 2.2791e-15
5496.84 2.2632e-15
5498.58 2.3014e-15
5500.32 2.2502e-15
5502.06 2.1866e-15
5503.8 2.2301e-15
5505.54 2.2328e-15
5507.27 2.1696e-15
5509.01 2.2167e-15
5510.75 2.1803e-15
5512.49 2.2151e-15
5514.23 2.2428e-15
5515.97 2.1959e-15
5517.71 2.2353e-15
5519.45 2.2652e-15
5521.19 2.2465e-15
5522.93 2.2141e-15
5524.66 2.147e-15
5526.4 2.1811e-15
5528.14 2.14e-15
5529.88 2.0882e-15
5531.62 2.0849e-15
5533.36 2.1303e-15
5535.1 2.1055e-15
5536.84 2.095e-15
5538.58 1.968e-15
5540.31 1.9467e-15
5542.05 2e-15
5543.79 1.9628e-15
5545.53 1.9162e-15
5547.27 1.9019e-15
5549.01 1.8734e-15
5550.75 1.8516e-15
5552.49 1.7896e-15
5554.23 1.7881e-15
5555.96 1.8263e-15
5557.7 1.8154e-15
5559.44 1.7774e-15
5561.18 1.7275e-15
5562.92 1.6581e-15
5564.66 1.6239e-15
5566.4 1.6741e-15
5568.14 1.6379e-15
5569.88 1.6139e-15
5571.62 1.6362e-15
5573.35 1.6268e-15
5575.09 1.5531e-15
5576.83 1.7347e-15
5578.57 1.8141e-15
5580.31 1.8299e-15
5582.05 1.8558e-15
5583.79 1.7814e-15
5585.53 1.7452e-15
5587.27 1.7116e-15
5589.0 1.7685e-15
5590.74 1.7097e-15
5592.48 1.6654e-15
5594.22 1.7842e-15
5595.96 1.7644e-15
5597.7 1.7213e-15
5599.44 1.793e-15
5601.18 1.846e-15
5602.92 1.8153e-15
5604.66 1.8776e-15
5606.39 1.9043e-15
5608.13 1.8793e-15
5609.87 1.9757e-15
5611.61 1.9847e-15
5613.35 1.8617e-15
5615.09 1.8994e-15
5616.83 1.9225e-15
5618.57 1.9586e-15
5620.31 1.9876e-15
5622.04 1.9336e-15
5623.78 1.8692e-15
5625.52 1.9817e-15
5627.26 1.977e-15
5629.0 2.0023e-15
5630.74 1.9667e-15
5632.48 1.9655e-15
5634.22 1.9908e-15
5635.96 1.9685e-15
5637.69 1.9821e-15
5639.43 2.032e-15
5641.17 2.0297e-15
5642.91 2.0254e-15
5644.65 1.9577e-15
5646.39 2.0022e-15
5648.13 1.9336e-15
5649.87 1.9314e-15
5651.61 2.0544e-15
5653.35 2.0218e-15
5655.08 2.0424e-15
5656.82 2.0381e-15
5658.56 2.0324e-15
5660.3 2.0143e-15
5662.04 1.9592e-15
5663.78 1.977e-15
5665.52 2.0164e-15
5667.26 2.0052e-15
5669.0 1.9661e-15
5670.73 1.924e-15
5672.47 1.9573e-15
5674.21 1.9442e-15
5675.95 1.9616e-15
5677.69 1.8884e-15
5679.43 1.8905e-15
5681.17 1.8838e-15
5682.91 1.8132e-15
5684.65 1.8707e-15
5686.39 1.9463e-15
5688.12 1.8746e-15
5689.86 1.8718e-15
5691.6 1.8768e-15
5693.34 1.8019e-15
5695.08 1.7517e-15
5696.82 1.7348e-15
5698.56 1.8092e-15
5700.3 1.7904e-15
5702.04 1.7875e-15
5703.77 1.8322e-15
5705.51 1.7758e-15
5707.25 1.7595e-15
5708.99 1.7782e-15
5710.73 1.702e-15
5712.47 1.7302e-15
5714.21 1.6994e-15
5715.95 1.6655e-15
5717.69 1.697e-15
5719.42 1.7375e-15
5721.16 1.7178e-15
5722.9 1.7032e-15
5724.64 1.7351e-15
5726.38 1.737e-15
5728.12 1.6935e-15
5729.86 1.7517e-15
5731.6 1.6854e-15
5733.34 1.708e-15
5735.08 1.6769e-15
5736.81 1.7217e-15
5738.55 1.6508e-15
5740.29 1.7129e-15
5742.03 1.6257e-15
5743.77 1.5756e-15
5745.51 1.6575e-15
5747.25 1.6653e-15
5748.99 1.6273e-15
5750.73 1.5661e-15
5752.46 1.6177e-15
5754.2 1.5864e-15
5755.94 1.6154e-15
5757.68 1.6514e-15
5759.42 1.5855e-15
5761.16 1.5456e-15
5762.9 1.5204e-15
5764.64 1.5587e-15
5766.38 1.5786e-15
5768.11 1.5552e-15
5769.85 1.5227e-15
5771.59 1.4412e-15
5773.33 1.4598e-15
5775.07 1.5654e-15
5776.81 1.4876e-15
5778.55 1.4603e-15
5780.29 1.4509e-15
5782.03 1.4343e-15
5783.77 1.4324e-15
5785.5 1.4607e-15
5787.24 1.4202e-15
5788.98 1.4104e-15
5790.72 1.469e-15
5792.46 1.4317e-15
5794.2 1.3937e-15
5795.94 1.3903e-15
5797.68 1.3827e-15
5799.42 1.4305e-15
5801.15 1.4509e-15
5802.89 1.3315e-15
5804.63 1.3706e-15
5806.37 1.4097e-15
5808.11 1.4025e-15
5809.85 1.4527e-15
5811.59 1.5032e-15
5813.33 1.5074e-15
5815.07 1.3783e-15
5816.81 1.3626e-15
5818.54 1.4038e-15
5820.28 1.5239e-15
5822.02 1.4364e-15
5823.76 1.5254e-15
5825.5 1.5423e-15
5827.24 1.5614e-15
5828.98 1.5042e-15
5830.72 1.5001e-15
5832.46 1.4773e-15
5834.19 1.5074e-15
5835.93 1.6849e-15
5837.67 1.6211e-15
5839.41 1.5856e-15
5841.15 1.5876e-15
5842.89 1.625e-15
5844.63 1.6561e-15
5846.37 1.616e-15
5848.11 1.6109e-15
5849.84 1.6554e-15
5851.58 1.6431e-15
5853.32 1.662e-15
5855.06 1.7906e-15
5856.8 1.7231e-15
5858.54 1.6641e-15
5860.28 1.6947e-15
5862.02 1.7776e-15
5863.76 1.7697e-15
5865.5 1.7462e-15
5867.23 1.7271e-15
5868.97 1.7189e-15
5870.71 1.6507e-15
5872.45 1.7351e-15
5874.19 1.7597e-15
5875.93 1.5798e-15
5877.67 1.6187e-15
5879.41 1.7257e-15
5881.15 1.6712e-15
5882.88 1.6929e-15
5884.62 1.6787e-15
5886.36 1.6849e-15
5888.1 1.7281e-15
5889.84 1.7129e-15
5891.58 1.7136e-15
5893.32 1.8111e-15
5895.06 1.787e-15
5896.8 1.8305e-15
5898.54 1.6882e-15
5900.27 1.6714e-15
5902.01 1.7035e-15
5903.75 1.6291e-15
5905.49 1.6892e-15
5907.23 1.6614e-15
5908.97 1.6285e-15
5910.71 1.6892e-15
5912.45 1.6439e-15
5914.19 1.7045e-15
5915.92 1.7023e-15
5917.66 1.6501e-15
5919.4 1.6357e-15
5921.14 1.6989e-15
5922.88 1.7097e-15
5924.62 1.8038e-15
5926.36 1.761e-15
5928.1 1.6296e-15
5929.84 1.6976e-15
5931.57 1.6872e-15
5933.31 1.7587e-15
5935.05 1.6659e-15
5936.79 1.6878e-15
5938.53 1.7195e-15
5940.27 1.6116e-15
5942.01 1.5756e-15
5943.75 1.659e-15
5945.49 1.7599e-15
5947.23 1.6803e-15
5948.96 1.6489e-15
5950.7 1.6781e-15
5952.44 1.7774e-15
5954.18 1.7398e-15
5955.92 1.6768e-15
5957.66 1.5899e-15
5959.4 1.612e-15
5961.14 1.7318e-15
5962.88 1.7637e-15
5964.61 1.7712e-15
5966.35 1.7542e-15
5968.09 1.7023e-15
5969.83 1.743e-15
5971.57 1.859e-15
5973.31 1.9328e-15
5975.05 1.8216e-15
5976.79 1.7904e-15
5978.53 1.7142e-15
5980.26 1.7089e-15
5982.0 1.7984e-15
5983.74 1.7535e-15
5985.48 1.732e-15
5987.22 1.726e-15
5988.96 1.7277e-15
5990.7 1.7341e-15
5992.44 1.7378e-15
5994.18 1.7319e-15
5995.92 1.72e-15
5997.65 1.7075e-15
5999.39 1.6972e-15
6001.13 1.6915e-15
6002.87 1.6919e-15
6004.61 1.6986e-15
6006.35 1.7056e-15
6008.09 1.7061e-15
6009.83 1.7023e-15
6011.57 1.6977e-15
6013.3 1.6941e-15
6015.04 1.6926e-15
6016.78 1.6901e-15
6018.52 1.6821e-15
6020.26 1.6759e-15
6022.0 1.6819e-15
6023.74 1.6884e-15
6025.48 1.6779e-15
6027.22 1.6668e-15
6028.96 1.6824e-15
6030.69 1.7045e-15
6032.43 1.6973e-15
6034.17 1.6732e-15
6035.91 1.6632e-15
6037.65 1.6615e-15
6039.39 1.6475e-15
6041.13 1.6292e-15
6042.87 1.6268e-15
6044.61 1.6307e-15
6046.34 1.6169e-15
6048.08 1.5947e-15
6049.82 1.5906e-15
6051.56 1.6013e-15
6053.3 1.6063e-15
6055.04 1.6028e-15
6056.78 1.5985e-15
6058.52 1.5901e-15
6060.26 1.567e-15
6061.99 1.5411e-15
6063.73 1.5389e-15
6065.47 1.5621e-15
6067.21 1.594e-15
6068.95 1.6201e-15
6070.69 1.6287e-15
6072.43 1.6173e-15
6074.17 1.5917e-15
6075.91 1.5689e-15
6077.65 1.578e-15
6079.38 1.6153e-15
6081.12 1.6418e-15
6082.86 1.6474e-15
6084.6 1.6531e-15
6086.34 1.6655e-15
6088.08 1.6761e-15
6089.82 1.6798e-15
6091.56 1.674e-15
6093.3 1.662e-15
6095.03 1.6574e-15
6096.77 1.663e-15
6098.51 1.6639e-15
6100.25 1.6561e-15
6101.99 1.6526e-15
6103.73 1.6571e-15
6105.47 1.6568e-15
6107.21 1.6477e-15
6108.95 1.6419e-15
6110.69 1.6428e-15
6112.42 1.6362e-15
6114.16 1.6167e-15
6115.9 1.5977e-15
6117.64 1.5878e-15
6119.38 1.5877e-15
6121.12 1.593e-15
6122.86 1.5864e-15
6124.6 1.5606e-15
6126.34 1.5368e-15
6128.07 1.5284e-15
6129.81 1.5222e-15
6131.55 1.5093e-15
6133.29 1.5001e-15
6135.03 1.4998e-15
6136.77 1.4958e-15
6138.51 1.4798e-15
6140.25 1.4603e-15
6141.99 1.445e-15
6143.72 1.4329e-15
6145.46 1.4231e-15
6147.2 1.4163e-15
6148.94 1.4127e-15
6150.68 1.4086e-15
6152.42 1.4023e-15
6154.16 1.4075e-15
6155.9 1.4341e-15
6157.64 1.4598e-15
6159.38 1.4637e-15
6161.11 1.4555e-15
6162.85 1.4485e-15
6164.59 1.448e-15
6166.33 1.4572e-15
6168.07 1.473e-15
6169.81 1.4906e-15
6171.55 1.5078e-15
6173.29 1.523e-15
6175.03 1.5313e-15
6176.76 1.5288e-15
6178.5 1.5239e-15
6180.24 1.5269e-15
6181.98 1.5361e-15
6183.72 1.5471e-15
6185.46 1.5543e-15
6187.2 1.5517e-15
6188.94 1.5525e-15
6190.68 1.5735e-15
6192.42 1.6019e-15
6194.15 1.6165e-15
6195.89 1.6142e-15
6197.63 1.5981e-15
6199.37 1.5834e-15
6201.11 1.5894e-15
6202.85 1.6119e-15
6204.59 1.6371e-15
6206.33 1.6533e-15
6208.07 1.6491e-15
6209.8 1.6365e-15
6211.54 1.6391e-15
6213.28 1.6485e-15
6215.02 1.6398e-15
6216.76 1.6242e-15
6218.5 1.6317e-15
6220.24 1.6544e-15
6221.98 1.6646e-15
6223.72 1.6555e-15
6225.45 1.6316e-15
6227.19 1.606e-15
6228.93 1.5989e-15
6230.67 1.6083e-15
6232.41 1.6159e-15
6234.15 1.6158e-15
6235.89 1.6114e-15
6237.63 1.6034e-15
6239.37 1.5909e-15
6241.11 1.5771e-15
6242.84 1.5683e-15
6244.58 1.5677e-15
6246.32 1.5765e-15
6248.06 1.5865e-15
6249.8 1.5787e-15
6251.54 1.5519e-15
6253.28 1.5246e-15
6255.02 1.5066e-15
6256.76 1.4988e-15
6258.49 1.497e-15
6260.23 1.4887e-15
6261.97 1.4722e-15
6263.71 1.4598e-15
6265.45 1.4582e-15
6267.19 1.4676e-15
6268.93 1.4808e-15
6270.67 1.4779e-15
6272.41 1.4559e-15
6274.14 1.4426e-15
6275.88 1.4482e-15
6277.62 1.4502e-15
6279.36 1.4366e-15
6281.1 1.4147e-15
6282.84 1.3926e-15
6284.58 1.3823e-15
6286.32 1.3868e-15
6288.06 1.3866e-15
6289.8 1.3737e-15
6291.53 1.3728e-15
6293.27 1.3963e-15
6295.01 1.4238e-15
6296.75 1.4396e-15
6298.49 1.4433e-15
6300.23 1.4375e-15
6301.97 1.4346e-15
6303.71 1.4424e-15
6305.45 1.4493e-15
6307.18 1.4464e-15
6308.92 1.441e-15
6310.66 1.4381e-15
6312.4 1.4317e-15
6314.14 1.4168e-15
6315.88 1.3915e-15
6317.62 1.3578e-15
6319.36 1.3355e-15
6321.1 1.3396e-15
6322.84 1.3526e-15
6324.57 1.3556e-15
6326.31 1.3391e-15
6328.05 1.2997e-15
6329.79 1.2633e-15
6331.53 1.2545e-15
6333.27 1.2567e-15
6335.01 1.2491e-15
6336.75 1.2366e-15
6338.49 1.2264e-15
6340.22 1.2165e-15
6341.96 1.2036e-15
6343.7 1.1849e-15
6345.44 1.1581e-15
6347.18 1.1281e-15
6348.92 1.1006e-15
6350.66 1.0762e-15
6352.4 1.0544e-15
6354.14 1.0302e-15
6355.87 9.9793e-16
6357.61 9.7619e-16
6359.35 9.8829e-16
6361.09 1.0077e-15
6362.83 9.9446e-16
6364.57 9.611e-16
6366.31 9.3744e-16
6368.05 9.2404e-16
6369.79 9.1158e-16
6371.53 9.02e-16
6373.26 9.0047e-16
6375.0 8.9995e-16
6376.74 8.8887e-16
6378.48 8.706e-16
6380.22 8.5517e-16
6381.96 8.4601e-16
6383.7 8.4364e-16
6385.44 8.4405e-16
6387.18 8.3993e-16
6388.91 8.3416e-16
6390.65 8.3658e-16
6392.39 8.4067e-16
6394.13 8.2894e-16
6395.87 8.1172e-16
6397.61 8.1809e-16
6399.35 8.4306e-16
6401.09 8.5782e-16
6402.83 8.5534e-16
6404.57 8.4433e-16
6406.3 8.3227e-16
6408.04 8.2672e-16
6409.78 8.3063e-16
6411.52 8.4187e-16
6413.26 8.5679e-16
6415.0 8.7099e-16
6416.74 8.7866e-16
6418.48 8.7219e-16
6420.22 8.5629e-16
6421.95 8.4969e-16
6423.69 8.5815e-16
6425.43 8.7153e-16
6427.17 8.8561e-16
6428.91 9.0358e-16
6430.65 9.2432e-16
6432.39 9.4187e-16
6434.13 9.5384e-16
6435.87 9.6229e-16
6437.6 9.706e-16
6439.34 9.8442e-16
6441.08 1.0059e-15
6442.82 1.0305e-15
6444.56 1.0571e-15
6446.3 1.0932e-15
6448.04 1.1391e-15
6449.78 1.1822e-15
6451.52 1.2159e-15
6453.26 1.2466e-15
6454.99 1.2799e-15
6456.73 1.3187e-15
6458.47 1.3648e-15
6460.21 1.4167e-15
6461.95 1.4719e-15
6463.69 1.5274e-15
6465.43 1.5807e-15
6467.17 1.6314e-15
6468.91 1.6797e-15
6470.64 1.7272e-15
6472.38 1.7758e-15
6474.12 1.829e-15
6475.86 1.8873e-15
6477.6 1.9377e-15
6479.34 1.9719e-15
6481.08 2.0058e-15
6482.82 2.0514e-15
6484.56 2.0958e-15
6486.29 2.127e-15
6488.03 2.1475e-15
6489.77 2.1617e-15
6491.51 2.1747e-15
6493.25 2.1922e-15
6494.99 2.2223e-15
6496.73 2.2699e-15
6498.47 2.3269e-15
6500.21 2.383e-15
6501.95 2.4277e-15
6503.68 2.4529e-15
6505.42 2.4693e-15
6507.16 2.4898e-15
6508.9 2.5074e-15
6510.64 2.5131e-15
6512.38 2.5183e-15
6514.12 2.5362e-15
6515.86 2.5628e-15
6517.6 2.5902e-15
6519.33 2.6182e-15
6521.07 2.6476e-15
6522.81 2.6701e-15
6524.55 2.6767e-15
6526.29 2.6761e-15
6528.03 2.6814e-15
6529.77 2.6959e-15
6531.51 2.719e-15
6533.25 2.7452e-15
6534.99 2.7674e-15
6536.72 2.7789e-15
6538.46 2.7742e-15
6540.2 2.7626e-15
6541.94 2.7587e-15
6543.68 2.7672e-15
6545.42 2.7878e-15
6547.16 2.8112e-15
6548.9 2.8232e-15
6550.64 2.8213e-15
6552.37 2.8095e-15
6554.11 2.7926e-15
6555.85 2.7768e-15
6557.59 2.7627e-15
6559.33 2.747e-15
6561.07 2.7306e-15
6562.81 2.7163e-15
6564.55 2.7047e-15
6566.29 2.6945e-15
6568.02 2.6853e-15
6569.76 2.6764e-15
6571.5 2.6696e-15
6573.24 2.6703e-15
6574.98 2.6692e-15
6576.72 2.6431e-15
6578.46 2.6e-15
6580.2 2.5753e-15
6581.94 2.5745e-15
6583.68 2.5756e-15
6585.41 2.5656e-15
6587.15 2.5391e-15
6588.89 2.5023e-15
6590.63 2.4761e-15
6592.37 2.4674e-15
6594.11 2.4666e-15
6595.85 2.4655e-15
6597.59 2.4565e-15
6599.33 2.4387e-15
6601.06 2.4205e-15
6602.8 2.407e-15
6604.54 2.3993e-15
6606.28 2.3948e-15
6608.02 2.3847e-15
6609.76 2.3672e-15
6611.5 2.3538e-15
6613.24 2.3481e-15
6614.98 2.3374e-15
6616.72 2.3163e-15
6618.45 2.2925e-15
6620.19 2.2721e-15
6621.93 2.2589e-15
6623.67 2.2535e-15
6625.41 2.2495e-15
6627.15 2.242e-15
6628.89 2.2314e-15
6630.63 2.2175e-15
6632.37 2.1967e-15
6634.1 2.1698e-15
6635.84 2.1522e-15
6637.58 2.1518e-15
6639.32 2.1508e-15
6641.06 2.1374e-15
6642.8 2.1254e-15
6644.54 2.1251e-15
6646.28 2.1317e-15
6648.02 2.1386e-15
6649.75 2.1373e-15
6651.49 2.1218e-15
6653.23 2.0978e-15
6654.97 2.0729e-15
6656.71 2.0547e-15
6658.45 2.0483e-15
6660.19 2.0464e-15
6661.93 2.0407e-15
6663.67 2.0244e-15
6665.41 1.9941e-15
6667.14 1.9581e-15
6668.88 1.9267e-15
6670.62 1.9134e-15
6672.36 1.9275e-15
6674.1 1.9465e-15
6675.84 1.9451e-15
6677.58 1.9367e-15
6679.32 1.939e-15
6681.06 1.9397e-15
6682.79 1.9236e-15
6684.53 1.9014e-15
6686.27 1.8878e-15
6688.01 1.8803e-15
6689.75 1.8726e-15
6691.49 1.8631e-15
6693.23 1.8516e-15
6694.97 1.8338e-15
6696.71 1.8054e-15
6698.44 1.7766e-15
6700.18 1.7612e-15
6701.92 1.7556e-15
6703.66 1.7499e-15
6705.4 1.7409e-15
6707.14 1.728e-15
6708.88 1.7136e-15
6710.62 1.7015e-15
6712.36 1.6952e-15
6714.1 1.6974e-15
6715.83 1.7058e-15
6717.57 1.7158e-15
6719.31 1.7208e-15
6721.05 1.7137e-15
6722.79 1.6981e-15
6724.53 1.6838e-15
6726.27 1.6727e-15
6728.01 1.6624e-15
6729.75 1.6518e-15
6731.48 1.6402e-15
6733.22 1.6288e-15
6734.96 1.6202e-15
6736.7 1.6166e-15
6738.44 1.6201e-15
6740.18 1.626e-15
6741.92 1.6248e-15
6743.66 1.6138e-15
6745.4 1.5954e-15
6747.14 1.5782e-15
6748.87 1.5779e-15
6750.61 1.5906e-15
6752.35 1.5929e-15
6754.09 1.5805e-15
6755.83 1.5677e-15
6757.57 1.5635e-15
6759.31 1.572e-15
6761.05 1.5884e-15
6762.79 1.5955e-15
6764.52 1.5869e-15
6766.26 1.5687e-15
6768.0 1.5517e-15
6769.74 1.5558e-15
6771.48 1.579e-15
6773.22 1.5842e-15
6774.96 1.558e-15
6776.7 1.5253e-15
6778.44 1.502e-15
6780.17 1.489e-15
6781.91 1.4875e-15
6783.65 1.4997e-15
6785.39 1.5198e-15
6787.13 1.5261e-15
6788.87 1.5107e-15
6790.61 1.4954e-15
6792.35 1.4931e-15
6794.09 1.4928e-15
6795.83 1.488e-15
6797.56 1.4823e-15
6799.3 1.4789e-15
6801.04 1.4809e-15
6802.78 1.4878e-15
6804.52 1.489e-15
6806.26 1.4779e-15
6808.0 1.4619e-15
6809.74 1.448e-15
6811.48 1.4383e-15
6813.21 1.4327e-15
6814.95 1.4219e-15
6816.69 1.4002e-15
6818.43 1.3809e-15
6820.17 1.3745e-15
6821.91 1.3708e-15
6823.65 1.3613e-15
6825.39 1.3546e-15
6827.13 1.3583e-15
6828.87 1.3681e-15
6830.6 1.3789e-15
6832.34 1.3898e-15
6834.08 1.3995e-15
6835.82 1.3982e-15
6837.56 1.379e-15
6839.3 1.3542e-15
6841.04 1.3377e-15
6842.78 1.3339e-15
6844.52 1.3433e-15
6846.25 1.3514e-15
6847.99 1.3428e-15
6849.73 1.3245e-15
6851.47 1.3079e-15
6853.21 1.2995e-15
6854.95 1.3039e-15
6856.69 1.3087e-15
6858.43 1.2984e-15
6860.17 1.281e-15
6861.9 1.2699e-15
6863.64 1.2662e-15
6865.38 1.2666e-15
6867.12 1.2676e-15
6868.86 1.2656e-15
6870.6 1.246e-15
6872.34 1.1932e-15
6874.08 1.122e-15
6875.82 1.0582e-15
6877.56 1.0193e-15
6879.29 1.0179e-15
6881.03 1.0428e-15
6882.77 1.0704e-15
6884.51 1.0934e-15
6886.25 1.1119e-15
6887.99 1.125e-15
6889.73 1.133e-15
6891.47 1.1334e-15
6893.21 1.1219e-15
6894.94 1.1042e-15
6896.68 1.0913e-15
6898.42 1.0857e-15
6900.16 1.0846e-15
6901.9 1.0834e-15
6903.64 1.0754e-15
6905.38 1.0687e-15
6907.12 1.0828e-15
6908.86 1.1142e-15
6910.6 1.1419e-15
6912.33 1.1562e-15
6914.07 1.1553e-15
6915.81 1.1489e-15
6917.55 1.1593e-15
6919.29 1.1856e-15
6921.03 1.2029e-15
6922.77 1.2068e-15
6924.51 1.2125e-15
6926.25 1.226e-15
6927.98 1.2454e-15
6929.72 1.2626e-15
6931.46 1.2589e-15
6933.2 1.2378e-15
6934.94 1.2325e-15
6936.68 1.2525e-15
6938.42 1.2732e-15
6940.16 1.2822e-15
6941.9 1.2835e-15
6943.63 1.2802e-15
6945.37 1.2754e-15
6947.11 1.2719e-15
6948.85 1.2706e-15
6950.59 1.272e-15
6952.33 1.2762e-15
6954.07 1.2823e-15
6955.81 1.2884e-15
6957.55 1.2925e-15
6959.29 1.2912e-15
6961.02 1.2838e-15
6962.76 1.2775e-15
6964.5 1.2757e-15
6966.24 1.2724e-15
6967.98 1.2655e-15
6969.72 1.2648e-15
6971.46 1.2752e-15
6973.2 1.2884e-15
6974.94 1.2971e-15
6976.67 1.3003e-15
6978.41 1.2983e-15
6980.15 1.294e-15
6981.89 1.2908e-15
6983.63 1.292e-15
6985.37 1.299e-15
6987.11 1.3014e-15
6988.85 1.2926e-15
6990.59 1.2854e-15
6992.32 1.2906e-15
6994.06 1.2968e-15
6995.8 1.2942e-15
6997.54 1.2952e-15
6999.28 1.3104e-15
7001.02 1.3263e-15
7002.76 1.3296e-15
7004.5 1.3289e-15
7006.24 1.3337e-15
7007.98 1.339e-15
7009.71 1.3386e-15
7011.45 1.3321e-15
7013.19 1.3205e-15
7014.93 1.3103e-15
7016.67 1.3079e-15
7018.41 1.3075e-15
7020.15 1.3011e-15
7021.89 1.2915e-15
7023.63 1.2834e-15
7025.36 1.2776e-15
7027.1 1.2738e-15
7028.84 1.2749e-15
7030.58 1.2836e-15
7032.32 1.2949e-15
7034.06 1.302e-15
7035.8 1.3046e-15
7037.54 1.3048e-15
7039.28 1.3054e-15
7041.02 1.3097e-15
7042.75 1.3152e-15
7044.49 1.3177e-15
7046.23 1.3151e-15
7047.97 1.307e-15
7049.71 1.2949e-15
7051.45 1.2817e-15
7053.19 1.2715e-15
7054.93 1.2684e-15
7056.67 1.2707e-15
7058.4 1.2736e-15
7060.14 1.2724e-15
7061.88 1.2622e-15
7063.62 1.246e-15
7065.36 1.2311e-15
7067.1 1.2219e-15
7068.84 1.2206e-15
7070.58 1.2242e-15
7072.32 1.2262e-15
7074.05 1.2233e-15
7075.79 1.2151e-15
7077.53 1.2033e-15
7079.27 1.1919e-15
7081.01 1.1842e-15
7082.75 1.182e-15
7084.49 1.1882e-15
7086.23 1.2079e-15
7087.97 1.2287e-15
7089.71 1.2199e-15
7091.44 1.1826e-15
7093.18 1.1516e-15
7094.92 1.1405e-15
7096.66 1.1406e-15
7098.4 1.1432e-15
7100.14 1.1381e-15
7101.88 1.1245e-15
7103.62 1.1152e-15
7105.36 1.1172e-15
7107.09 1.1292e-15
7108.83 1.146e-15
7110.57 1.1546e-15
7112.31 1.1516e-15
7114.05 1.1516e-15
7115.79 1.1594e-15
7117.53 1.1621e-15
7119.27 1.1559e-15
7121.01 1.1518e-15
7122.75 1.1575e-15
7124.48 1.1747e-15
7126.22 1.2011e-15
7127.96 1.2258e-15
7129.7 1.2416e-15
7131.44 1.2511e-15
7133.18 1.2559e-15
7134.92 1.2534e-15
7136.66 1.2448e-15
7138.4 1.2407e-15
7140.13 1.2468e-15
7141.87 1.2525e-15
7143.61 1.2506e-15
7145.35 1.2485e-15
7147.09 1.251e-15
7148.83 1.2509e-15
7150.57 1.2432e-15
7152.31 1.2292e-15
7154.05 1.2128e-15
7155.78 1.2055e-15
7157.52 1.215e-15
7159.26 1.2297e-15
7161.0 1.2389e-15
7162.74 1.2459e-15
7164.48 1.2546e-15
7166.22 1.2639e-15
7167.96 1.2727e-15
7169.7 1.2808e-15
7171.44 1.2877e-15
7173.17 1.2922e-15
7174.91 1.293e-15
7176.65 1.2856e-15
7178.39 1.2669e-15
7180.13 1.2465e-15
7181.87 1.2347e-15
7183.61 1.2266e-15
7185.35 1.2153e-15
7187.09 1.2049e-15
7188.82 1.2009e-15
7190.56 1.1999e-15
7192.3 1.1974e-15
7194.04 1.1945e-15
7195.78 1.1939e-15
7197.52 1.1931e-15
7199.26 1.1882e-15
7201.0 1.1829e-15
7202.74 1.1828e-15
7204.47 1.182e-15
7206.21 1.172e-15
7207.95 1.1616e-15
7209.69 1.1651e-15
7211.43 1.178e-15
7213.17 1.1892e-15
7214.91 1.1967e-15
7216.65 1.2017e-15
7218.39 1.2073e-15
7220.13 1.2185e-15
7221.86 1.2308e-15
7223.6 1.2347e-15
7225.34 1.2387e-15
7227.08 1.2613e-15
7228.82 1.2859e-15
7230.56 1.2762e-15
7232.3 1.2453e-15
7234.04 1.2354e-15
7235.78 1.2469e-15
7237.51 1.255e-15
7239.25 1.2511e-15
7240.99 1.236e-15
7242.73 1.2154e-15
7244.47 1.2001e-15
7246.21 1.1942e-15
7247.95 1.1968e-15
7249.69 1.2044e-15
7251.43 1.211e-15
7253.17 1.2171e-15
7254.9 1.2297e-15
7256.64 1.2471e-15
7258.38 1.2584e-15
7260.12 1.2612e-15
7261.86 1.2614e-15
7263.6 1.2619e-15
7265.34 1.2637e-15
7267.08 1.2632e-15
7268.82 1.2473e-15
7270.55 1.2253e-15
7272.29 1.2396e-15
7274.03 1.2888e-15
7275.77 1.3088e-15
7277.51 1.2812e-15
7279.25 1.2561e-15
7280.99 1.2593e-15
7282.73 1.2809e-15
7284.47 1.3082e-15
7286.2 1.3204e-15
7287.94 1.3092e-15
7289.68 1.2919e-15
7291.42 1.2823e-15
7293.16 1.2883e-15
7294.9 1.3061e-15
7296.64 1.3016e-15
7298.38 1.2635e-15
7300.12 1.2383e-15
7301.86 1.2517e-15
7303.59 1.2757e-15
7305.33 1.2874e-15
7307.07 1.2806e-15
7308.81 1.2557e-15
7310.55 1.2357e-15
7312.29 1.236e-15
7314.03 1.24e-15
7315.77 1.2359e-15
7317.51 1.239e-15
7319.24 1.2576e-15
7320.98 1.2695e-15
7322.72 1.2586e-15
7324.46 1.2398e-15
7326.2 1.2278e-15
7327.94 1.223e-15
7329.68 1.2242e-15
7331.42 1.2263e-15
7333.16 1.2245e-15
7334.9 1.2215e-15
7336.63 1.2204e-15
7338.37 1.2227e-15
7340.11 1.2282e-15
7341.85 1.2221e-15
7343.59 1.1923e-15
7345.33 1.1668e-15
7347.07 1.1733e-15
7348.81 1.1895e-15
7350.55 1.1876e-15
7352.28 1.1754e-15
7354.02 1.1664e-15
7355.76 1.1588e-15
7357.5 1.1491e-15
7359.24 1.1473e-15
7360.98 1.1638e-15
7362.72 1.1889e-15
7364.46 1.2085e-15
7366.2 1.2181e-15
7367.93 1.2167e-15
7369.67 1.2109e-15
7371.41 1.2096e-15
7373.15 1.2131e-15
7374.89 1.2186e-15
7376.63 1.2231e-15
7378.37 1.2237e-15
7380.11 1.2207e-15
7381.85 1.2157e-15
7383.59 1.2123e-15
7385.32 1.2152e-15
7387.06 1.2155e-15
7388.8 1.1978e-15
7390.54 1.1747e-15
7392.28 1.1715e-15
7394.02 1.1844e-15
7395.76 1.1958e-15
7397.5 1.1949e-15
7399.24 1.1728e-15
7400.97 1.1476e-15
7402.71 1.1538e-15
7404.45 1.1827e-15
7406.19 1.1979e-15
7407.93 1.1922e-15
7409.67 1.1763e-15
7411.41 1.1624e-15
7413.15 1.1666e-15
7414.89 1.1822e-15
7416.62 1.1831e-15
7418.36 1.1693e-15
7420.1 1.1626e-15
7421.84 1.1703e-15
7423.58 1.1868e-15
7425.32 1.2079e-15
7427.06 1.2305e-15
7428.8 1.2453e-15
7430.54 1.2357e-15
7432.28 1.2076e-15
7434.01 1.1935e-15
7435.75 1.1981e-15
7437.49 1.1907e-15
7439.23 1.1641e-15
7440.97 1.1412e-15
7442.71 1.1309e-15
7444.45 1.1233e-15
7446.19 1.1162e-15
7447.93 1.1184e-15
7449.66 1.1305e-15
7451.4 1.1401e-15
7453.14 1.1412e-15
7454.88 1.1372e-15
7456.62 1.1323e-15
7458.36 1.133e-15
7460.1 1.1405e-15
7461.84 1.1437e-15
7463.58 1.1388e-15
7465.32 1.138e-15
7467.05 1.1464e-15
7468.79 1.1498e-15
7470.53 1.1423e-15
7472.27 1.1389e-15
7474.01 1.1493e-15
7475.75 1.1661e-15
7477.49 1.1833e-15
7479.23 1.2007e-15
7480.97 1.2153e-15
7482.7 1.2148e-15
7484.44 1.1938e-15
7486.18 1.1728e-15
7487.92 1.1672e-15
7489.66 1.1661e-15
7491.4 1.1596e-15
7493.14 1.147e-15
7494.88 1.1306e-15
7496.62 1.1266e-15
7498.35 1.1461e-15
7500.09 1.1643e-15
7501.83 1.1597e-15
7503.57 1.15e-15
7505.31 1.1532e-15
7507.05 1.1577e-15
7508.79 1.1519e-15
7510.53 1.1455e-15
7512.27 1.1485e-15
7514.01 1.1484e-15
7515.74 1.1331e-15
7517.48 1.1176e-15
7519.22 1.1188e-15
7520.96 1.1382e-15
7522.7 1.1725e-15
7524.44 1.1954e-15
7526.18 1.1804e-15
7527.92 1.1485e-15
7529.66 1.1308e-15
7531.39 1.1239e-15
7533.13 1.1171e-15
7534.87 1.1127e-15
7536.61 1.115e-15
7538.35 1.1209e-15
7540.09 1.1258e-15
7541.83 1.1225e-15
7543.57 1.1031e-15
7545.31 1.0796e-15
7547.05 1.0701e-15
7548.78 1.0686e-15
7550.52 1.0597e-15
7552.26 1.0491e-15
7554.0 1.0505e-15
7555.74 1.0563e-15
7557.48 1.0499e-15
7559.22 1.0404e-15
7560.96 1.0492e-15
7562.7 1.0686e-15
7564.43 1.0774e-15
7566.17 1.0729e-15
7567.91 1.0623e-15
7569.65 1.0542e-15
7571.39 1.0587e-15
7573.13 1.0745e-15
7574.87 1.094e-15
7576.61 1.1055e-15
7578.35 1.0934e-15
7580.08 1.0699e-15
7581.82 1.069e-15
7583.56 1.0922e-15
7585.3 1.115e-15
7587.04 1.1314e-15
7588.78 1.1498e-15
7590.52 1.1721e-15
7592.26 1.1959e-15
7594.0 1.2129e-15
7595.74 1.2103e-15
7597.47 1.1707e-15
7599.21 1.071e-15
7600.95 9.2211e-16
7602.69 7.7236e-16
7604.43 6.5396e-16
7606.17 5.7933e-16
7607.91 5.46e-16
7609.65 5.3014e-16
7611.39 5.1946e-16
7613.12 5.1974e-16
7614.86 5.3762e-16
7616.6 5.8395e-16
7618.34 6.5455e-16
7620.08 7.1958e-16
7621.82 7.6125e-16
7623.56 7.8412e-16
7625.3 7.9034e-16
7627.04 7.7728e-16
7628.78 7.4589e-16
7630.51 6.9983e-16
7632.25 6.4737e-16
7633.99 6.0751e-16
7635.73 5.8836e-16
7637.47 5.7022e-16
7639.21 5.4436e-16
7640.95 5.3539e-16
7642.69 5.5463e-16
7644.43 5.7547e-16
7646.16 5.8041e-16
7647.9 5.8263e-16
7649.64 5.9234e-16
7651.38 6.0702e-16
7653.12 6.2382e-16
7654.86 6.3933e-16
7656.6 6.5058e-16
7658.34 6.5458e-16
7660.08 6.526e-16
7661.81 6.6507e-16
7663.55 7.0523e-16
7665.29 7.4733e-16
7667.03 7.6845e-16
7668.77 7.7842e-16
7670.51 7.891e-16
7672.25 8.0474e-16
7673.99 8.2777e-16
7675.73 8.5132e-16
7677.47 8.6834e-16
7679.2 8.8229e-16
7680.94 8.9748e-16
7682.68 9.1452e-16
7684.42 9.3318e-16
7686.16 9.4727e-16
7687.9 9.5102e-16
7689.64 9.5493e-16
7691.38 9.706e-16
7693.12 9.9097e-16
7694.85 1.0058e-15
7696.59 1.0103e-15
7698.33 1.002e-15
7700.07 9.9184e-16
7701.81 9.9366e-16
7703.55 1.0012e-15
7705.29 1.0031e-15
7707.03 1.0043e-15
7708.77 1.0134e-15
7710.5 1.0277e-15
7712.24 1.0404e-15
7713.98 1.0601e-15
7715.72 1.0998e-15
7717.46 1.1393e-15
7719.2 1.1483e-15
7720.94 1.1291e-15
7722.68 1.0978e-15
7724.42 1.0748e-15
7726.16 1.0827e-15
7727.89 1.1116e-15
7729.63 1.1342e-15
7731.37 1.147e-15
7733.11 1.1579e-15
7734.85 1.1683e-15
7736.59 1.177e-15
7738.33 1.1848e-15
7740.07 1.1934e-15
7741.81 1.2031e-15
7743.54 1.2141e-15
7745.28 1.2214e-15
7747.02 1.2162e-15
7748.76 1.2033e-15
7750.5 1.1976e-15
7752.24 1.2026e-15
7753.98 1.2128e-15
7755.72 1.2241e-15
7757.46 1.2326e-15
7759.2 1.2362e-15
7760.93 1.2356e-15
7762.67 1.228e-15
7764.41 1.2049e-15
7766.15 1.1752e-15
7767.89 1.1679e-15
7769.63 1.1809e-15
7771.37 1.1759e-15
7773.11 1.1429e-15
7774.85 1.1051e-15
7776.58 1.0785e-15
7778.32 1.0723e-15
7780.06 1.0822e-15
7781.8 1.082e-15
7783.54 1.0639e-15
7785.28 1.0495e-15
7787.02 1.0486e-15
7788.76 1.0519e-15
7790.5 1.0552e-15
7792.23 1.0625e-15
7793.97 1.0746e-15
7795.71 1.0867e-15
7797.45 1.0959e-15
7799.19 1.1028e-15
7800.93 1.1087e-15
7802.67 1.1175e-15
7804.41 1.1286e-15
7806.15 1.1276e-15
7807.89 1.1108e-15
7809.62 1.0998e-15
7811.36 1.1099e-15
7813.1 1.1399e-15
7814.84 1.1808e-15
7816.58 1.2021e-15
7818.32 1.1859e-15
7820.06 1.1591e-15
7821.8 1.1459e-15
7823.54 1.1536e-15
7825.27 1.1811e-15
7827.01 1.1988e-15
7828.75 1.1843e-15
7830.49 1.1574e-15
7832.23 1.1371e-15
7833.97 1.1209e-15
7835.71 1.1047e-15
7837.45 1.0764e-15
7839.19 1.0295e-15
7840.93 9.9946e-16
7842.66 1.016e-15
7844.4 1.0468e-15
7846.14 1.0572e-15
7847.88 1.0548e-15
7849.62 1.0522e-15
7851.36 1.0519e-15
7853.1 1.0551e-15
7854.84 1.0603e-15
7856.58 1.065e-15
7858.31 1.0614e-15
7860.05 1.0427e-15
7861.79 1.0214e-15
7863.53 1.0128e-15
7865.27 1.0192e-15
7867.01 1.0385e-15
7868.75 1.0631e-15
7870.49 1.0831e-15
7872.23 1.0945e-15
7873.96 1.0956e-15
7875.7 1.0818e-15
7877.44 1.0492e-15
7879.18 1.0135e-15
7880.92 9.962e-16
7882.66 9.9333e-16
7884.4 9.9151e-16
7886.14 9.9442e-16
7887.88 1.0112e-15
7889.62 1.0342e-15
7891.35 1.049e-15
7893.09 1.0583e-15
7894.83 1.0722e-15
7896.57 1.085e-15
7898.31 1.0848e-15
7900.05 1.0712e-15
7901.79 1.0498e-15
7903.53 1.0293e-15
7905.27 1.021e-15
7907.0 1.0222e-15
7908.74 1.0222e-15
7910.48 1.0176e-15
7912.22 1.0082e-15
7913.96 1.0049e-15
7915.7 1.0285e-15
7917.44 1.0642e-15
7919.18 1.07e-15
7920.92 1.0454e-15
7922.65 1.0218e-15
7924.39 1.0162e-15
7926.13 1.0362e-15
7927.87 1.0687e-15
7929.61 1.0781e-15
7931.35 1.0622e-15
7933.09 1.0519e-15
7934.83 1.0576e-15
7936.57 1.0684e-15
7938.31 1.0784e-15
7940.04 1.0848e-15
7941.78 1.0887e-15
7943.52 1.0982e-15
7945.26 1.1125e-15
7947.0 1.117e-15
7948.74 1.1113e-15
7950.48 1.1173e-15
7952.22 1.1364e-15
7953.96 1.1381e-15
7955.69 1.115e-15
7957.43 1.0994e-15
7959.17 1.1033e-15
7960.91 1.1012e-15
7962.65 1.086e-15
7964.39 1.0866e-15
7966.13 1.1108e-15
7967.87 1.1234e-15
7969.61 1.1069e-15
7971.35 1.0839e-15
7973.08 1.0672e-15
7974.82 1.0437e-15
7976.56 1.0095e-15
7978.3 9.852e-16
7980.04 9.8195e-16
7981.78 9.8374e-16
7983.52 9.7963e-16
7985.26 9.7748e-16
7987.0 9.829e-16
7988.73 9.9244e-16
7990.47 1.0037e-15
7992.21 1.0213e-15
7993.95 1.0454e-15
7995.69 1.0557e-15
7997.43 1.0395e-15
7999.17 1.0224e-15
8000.91 1.0249e-15
8002.65 1.0261e-15
8004.38 1.0082e-15
8006.12 9.8822e-16
8007.86 9.8227e-16
8009.6 9.8357e-16
8011.34 9.8466e-16
8013.08 9.8935e-16
8014.82 1.0011e-15
8016.56 1.0196e-15
8018.3 1.0427e-15
8020.04 1.0573e-15
8021.77 1.0521e-15
8023.51 1.0415e-15
8025.25 1.0426e-15
8026.99 1.0589e-15
8028.73 1.0891e-15
8030.47 1.1163e-15
8032.21 1.1217e-15
8033.95 1.1067e-15
8035.69 1.0789e-15
8037.42 1.0484e-15
8039.16 1.0258e-15
8040.9 1.0148e-15
8042.64 1.0158e-15
8044.38 1.0195e-15
8046.12 1.0136e-15
8047.86 1.0034e-15
8049.6 9.9888e-16
8051.34 9.9887e-16
8053.08 9.9898e-16
8054.81 9.9129e-16
8056.55 9.667e-16
8058.29 9.3984e-16
8060.03 9.342e-16
8061.77 9.4758e-16
8063.51 9.6645e-16
8065.25 9.7733e-16
8066.99 9.666e-16
8068.73 9.4046e-16
8070.46 9.1612e-16
8072.2 9.0073e-16
8073.94 8.9571e-16
8075.68 8.9886e-16
8077.42 9.0528e-16
8079.16 9.1033e-16
8080.9 9.0931e-16
8082.64 9.0738e-16
8084.38 9.1673e-16
8086.11 9.3646e-16
8087.85 9.5629e-16
8089.59 9.6848e-16
8091.33 9.6706e-16
8093.07 9.5449e-16
8094.81 9.4051e-16
8096.55 9.3313e-16
8098.29 9.3958e-16
8100.03 9.5427e-16
8101.77 9.5703e-16
8103.5 9.482e-16
8105.24 9.5175e-16
8106.98 9.6863e-16
8108.72 9.7274e-16
8110.46 9.6007e-16
8112.2 9.5351e-16
8113.94 9.5927e-16
8115.68 9.6242e-16
8117.42 9.5657e-16
8119.15 9.4636e-16
8120.89 9.3473e-16
8122.63 9.2268e-16
8124.37 9.1262e-16
8126.11 9.0912e-16
8127.85 9.1204e-16
8129.59 9.1296e-16
8131.33 9.0781e-16
8133.07 9.0171e-16
8134.8 8.9677e-16
8136.54 8.8781e-16
8138.28 8.7502e-16
8140.02 8.7026e-16
8141.76 8.7929e-16
8143.5 8.9517e-16
8145.24 9.091e-16
8146.98 9.0588e-16
8148.72 8.8229e-16
8150.46 8.7091e-16
8152.19 8.9079e-16
8153.93 9.1504e-16
8155.67 9.2304e-16
8157.41 9.2091e-16
8159.15 9.1605e-16
8160.89 9.1805e-16
8162.63 9.3261e-16
8164.37 9.4726e-16
8166.11 9.5148e-16
8167.84 9.4845e-16
8169.58 9.4317e-16
8171.32 9.4499e-16
8173.06 9.6004e-16
8174.8 9.7615e-16
8176.54 9.8135e-16
8178.28 9.7701e-16
8180.02 9.6675e-16
8181.76 9.5371e-16
8183.5 9.4188e-16
8185.23 9.4221e-16
8186.97 9.6248e-16
8188.71 9.8298e-16
8190.45 9.8294e-16
8192.19 9.7232e-16
8193.93 9.6543e-16
8195.67 9.6149e-16
8197.41 9.575e-16
8199.15 9.5405e-16
8200.88 9.5159e-16
8202.62 9.4975e-16
8204.36 9.4782e-16
8206.1 9.4068e-16
8207.84 9.2321e-16
8209.58 8.9937e-16
8211.32 8.7555e-16
8213.06 8.5926e-16
8214.8 8.5764e-16
8216.53 8.5991e-16
8218.27 8.4987e-16
8220.01 8.3356e-16
8221.75 8.2396e-16
8223.49 8.2329e-16
8225.23 8.3018e-16
8226.97 8.2971e-16
8228.71 8.0214e-16
8230.45 7.5649e-16
8232.19 7.1471e-16
8233.92 6.885e-16
8235.66 6.8459e-16
8237.4 6.96e-16
8239.14 7.0725e-16
8240.88 7.1587e-16
8242.62 7.2668e-16
8244.36 7.3885e-16
8246.1 7.4936e-16
8247.84 7.5388e-16
8249.57 7.4651e-16
8251.31 7.3275e-16
8253.05 7.2653e-16
8254.79 7.2583e-16
8256.53 7.1687e-16
8258.27 6.9714e-16
8260.01 6.7208e-16
8261.75 6.492e-16
8263.49 6.392e-16
8265.23 6.3803e-16
8266.96 6.268e-16
8268.7 6.0337e-16
8270.44 5.8295e-16
8272.18 5.6701e-16
8273.92 5.4346e-16
8275.66 5.0836e-16
8277.4 4.6435e-16
8279.14 4.2484e-16
8280.88 4.1765e-16
8282.61 4.4651e-16
8284.35 4.849e-16
8286.09 5.0741e-16
8287.83 4.8866e-16
8289.57 4.3022e-16
8291.31 3.7515e-16
8293.05 3.5186e-16
8294.79 3.6497e-16
8296.53 4.0251e-16
8298.26 4.206e-16
8300.0 4.0006e-16
8301.74 3.7369e-16
8303.48 3.6038e-16
8305.22 3.4804e-16
8306.96 3.3077e-16
8308.7 3.1343e-16
8310.44 3.0078e-16
8312.18 3.0083e-16
8313.92 3.1439e-16
8315.65 3.2227e-16
8317.39 3.1374e-16
8319.13 3.0594e-16
8320.87 3.0854e-16
8322.61 3.0334e-16
8324.35 2.8026e-16
8326.09 2.577e-16
8327.83 2.4993e-16
8329.57 2.536e-16
8331.3 2.6294e-16
8333.04 2.6541e-16
8334.78 2.5359e-16
8336.52 2.4464e-16
8338.26 2.5367e-16
8340.0 2.8072e-16
8341.74 3.2012e-16
8343.48 3.4036e-16
8345.22 3.1864e-16
8346.96 2.9795e-16
8348.69 3.1881e-16
8350.43 3.5678e-16
8352.17 3.8236e-16
8353.91 3.9323e-16
8355.65 3.9081e-16
8357.39 3.7811e-16
8359.13 3.6015e-16
8360.87 3.3666e-16
8362.61 3.0794e-16
8364.34 2.9452e-16
8366.08 3.1563e-16
8367.82 3.5111e-16
8369.56 3.7347e-16
8371.3 3.7256e-16
8373.04 3.4486e-16
8374.78 3.066e-16
8376.52 2.7938e-16
8378.26 2.6978e-16
8379.99 2.7861e-16
8381.73 2.9885e-16
8383.47 3.2029e-16
8385.21 3.3729e-16
8386.95 3.4654e-16
8388.69 3.5238e-16
8390.43 3.6231e-16
8392.17 3.7753e-16
8393.91 3.9646e-16
8395.65 4.1935e-16
8397.38 4.4653e-16
8399.12 4.7512e-16
8400.86 5.0088e-16
8402.6 5.1986e-16
8404.34 5.2926e-16
8406.08 5.2599e-16
8407.82 5.0616e-16
8409.56 4.8389e-16
8411.3 4.8464e-16
8413.03 4.9497e-16
8414.77 4.7812e-16
8416.51 4.4034e-16
8418.25 4.1277e-16
8419.99 4.18e-16
8421.73 4.7602e-16
8423.47 5.5616e-16
8425.21 5.8675e-16
8426.95 5.6735e-16
8428.68 5.563e-16
8430.42 5.68e-16
8432.16 5.8004e-16
8433.9 5.8744e-16
8435.64 5.9949e-16
8437.38 6.095e-16
8439.12 5.9572e-16
8440.86 5.6046e-16
8442.6 5.3174e-16
8444.34 5.2005e-16
8446.07 5.1584e-16
8447.81 5.1387e-16
8449.55 5.1342e-16
8451.29 5.1253e-16
8453.03 5.082e-16
8454.77 5.0376e-16
8456.51 5.1165e-16
8458.25 5.3537e-16
8459.99 5.6504e-16
8461.72 5.9187e-16
8463.46 6.0922e-16
8465.2 6.138e-16
8466.94 6.0766e-16
8468.68 5.9761e-16
8470.42 5.9977e-16
8472.16 6.1892e-16
8473.9 6.3566e-16
8475.64 6.3819e-16
8477.38 6.3297e-16
8479.11 6.2568e-16
8480.85 6.1982e-16
8482.59 6.1778e-16
8484.33 6.174e-16
8486.07 6.172e-16
8487.81 6.1949e-16
8489.55 6.25e-16
8491.29 6.2924e-16
8493.03 6.3028e-16
8494.76 6.3498e-16
8496.5 6.4832e-16
8498.24 6.6918e-16
8499.98 6.9341e-16
8501.72 7.0531e-16
8503.46 6.9517e-16
8505.2 6.8414e-16
8506.94 6.8906e-16
8508.68 6.8802e-16
8510.41 6.6441e-16
8512.15 6.4908e-16
8513.89 6.6809e-16
8515.63 6.9513e-16
8517.37 7.0374e-16
8519.11 7.0687e-16
8520.85 7.1926e-16
8522.59 7.3752e-16
8524.33 7.5609e-16
8526.07 7.6444e-16
8527.8 7.5406e-16
8529.54 7.4346e-16
8531.28 7.5322e-16
8533.02 7.706e-16
8534.76 7.7848e-16
8536.5 7.8707e-16
8538.24 8.1033e-16
8539.98 8.4422e-16
8541.72 8.8075e-16
8543.45 9.1617e-16
8545.19 9.4784e-16
8546.93 9.7334e-16
8548.67 9.9117e-16
8550.41 1.007e-15
8552.15 1.0282e-15
8553.89 1.052e-15
8555.63 1.072e-15
8557.37 1.0865e-15
8559.11 1.0949e-15
8560.84 1.1028e-15
8562.58 1.1187e-15
8564.32 1.1345e-15
8566.06 1.1343e-15
8567.8 1.1303e-15
8569.54 1.1468e-15
8571.28 1.1727e-15
8573.02 1.179e-15
8574.76 1.1725e-15
8576.49 1.1785e-15
8578.23 1.193e-15
8579.97 1.1953e-15
8581.71 1.1948e-15
8583.45 1.2188e-15
8585.19 1.2598e-15
8586.93 1.2887e-15
8588.67 1.2971e-15
8590.41 1.2905e-15
8592.14 1.2739e-15
8593.88 1.2527e-15
8595.62 1.2341e-15
8597.36 1.2261e-15
8599.1 1.226e-15
8600.84 1.2202e-15
8602.58 1.21e-15
8604.32 1.212e-15
8606.06 1.2219e-15
8607.8 1.2146e-15
8609.53 1.1869e-15
8611.27 1.1579e-15
8613.01 1.1413e-15
8614.75 1.1447e-15
8616.49 1.1704e-15
8618.23 1.2127e-15
8619.97 1.2624e-15
8621.71 1.3062e-15
8623.45 1.3379e-15
8625.18 1.3621e-15
8626.92 1.3828e-15
8628.66 1.403e-15
8630.4 1.4209e-15
8632.14 1.4244e-15
8633.88 1.4137e-15
8635.62 1.4124e-15
8637.36 1.4298e-15
8639.1 1.4474e-15
8640.83 1.4526e-15
8642.57 1.4448e-15
8644.31 1.4266e-15
8646.05 1.4052e-15
8647.79 1.3917e-15
8649.53 1.4097e-15
8651.27 1.4612e-15
8653.01 1.4916e-15
8654.75 1.4675e-15
8656.49 1.4214e-15
8658.22 1.3824e-15
8659.96 1.3573e-15
8661.7 1.3532e-15
8663.44 1.3864e-15
8665.18 1.4551e-15
8666.92 1.4987e-15
8668.66 1.4732e-15
8670.4 1.4097e-15
8672.14 1.3435e-15
8673.87 1.2956e-15
8675.61 1.2802e-15
8677.35 1.2793e-15
8679.09 1.2742e-15
8680.83 1.2722e-15
8682.57 1.2799e-15
8684.31 1.2862e-15
8686.05 1.2816e-15
8687.79 1.2748e-15
8689.53 1.2757e-15
8691.26 1.284e-15
8693.0 1.2976e-15
8694.74 1.3073e-15
8696.48 1.3049e-15
8698.22 1.3024e-15
8699.96 1.3134e-15
8701.7 1.3305e-15
8703.44 1.3428e-15
8705.18 1.3495e-15
8706.91 1.3519e-15
8708.65 1.3474e-15
8710.39 1.3341e-15
8712.13 1.3186e-15
8713.87 1.3087e-15
8715.61 1.314e-15
8717.35 1.3429e-15
8719.09 1.3651e-15
8720.83 1.3409e-15
8722.56 1.2966e-15
8724.3 1.2787e-15
8726.04 1.2861e-15
8727.78 1.3018e-15
8729.52 1.3087e-15
8731.26 1.2893e-15
8733.0 1.2559e-15
8734.74 1.2339e-15
8736.48 1.2265e-15
8738.22 1.2262e-15
8739.95 1.2276e-15
8741.69 1.2253e-15
8743.43 1.2159e-15
8745.17 1.1975e-15
8746.91 1.1766e-15
8748.65 1.1652e-15
8750.39 1.1598e-15
8752.13 1.1469e-15
8753.87 1.1306e-15
8755.6 1.1278e-15
8757.34 1.1315e-15
8759.08 1.1167e-15
8760.82 1.0909e-15
8762.56 1.0874e-15
8764.3 1.0996e-15
8766.04 1.0888e-15
8767.78 1.0544e-15
8769.52 1.028e-15
8771.26 1.0214e-15
8772.99 1.0295e-15
8774.73 1.0441e-15
8776.47 1.0516e-15
8778.21 1.0474e-15
8779.95 1.0366e-15
8781.69 1.025e-15
8783.43 1.0199e-15
8785.17 1.0185e-15
8786.91 1.0033e-15
8788.64 9.7272e-16
8790.38 9.4633e-16
8792.12 9.3563e-16
8793.86 9.4208e-16
8795.6 9.5848e-16
8797.34 9.624e-16
8799.08 9.4623e-16
8800.82 9.2869e-16
8802.56 9.195e-16
8804.29 9.1211e-16
8806.03 9.014e-16
8807.77 8.8324e-16
8809.51 8.5747e-16
8811.25 8.3332e-16
8812.99 8.1692e-16
8814.73 8.0638e-16
8816.47 8.0083e-16
8818.21 8.0257e-16
8819.95 8.1193e-16
8821.68 8.2695e-16
8823.42 8.4286e-16
8825.16 8.4518e-16
8826.9 8.2875e-16
8828.64 8.1762e-16
8830.38 8.2862e-16
8832.12 8.5015e-16
8833.86 8.7026e-16
8835.6 8.8383e-16
8837.33 8.8633e-16
8839.07 8.724e-16
8840.81 8.4253e-16
8842.55 8.2227e-16
8844.29 8.2906e-16
8846.03 8.2797e-16
8847.77 7.9087e-16
8849.51 7.5264e-16
8851.25 7.4608e-16
8852.98 7.5452e-16
8854.72 7.5887e-16
8856.46 7.6383e-16
8858.2 7.7481e-16
8859.94 7.8339e-16
8861.68 7.8193e-16
8863.42 7.8374e-16
8865.16 8.0194e-16
8866.9 8.1665e-16
8868.64 8.0555e-16
8870.37 7.8383e-16
8872.11 7.7194e-16
8873.85 7.5586e-16
8875.59 7.1814e-16
8877.33 6.7555e-16
8879.07 6.5128e-16
8880.81 6.5461e-16
8882.55 6.8919e-16
8884.29 7.4264e-16
8886.02 7.9667e-16
8887.76 8.4811e-16
8889.5 8.9863e-16
8891.24 9.3591e-16
8892.98 9.4502e-16
8894.72 9.3495e-16
8896.46 9.2354e-16
8898.2 9.101e-16
8899.94 8.8804e-16
8901.68 8.5835e-16
8903.41 8.2389e-16
8905.15 8.0283e-16
8906.89 8.1939e-16
8908.63 8.6074e-16
8910.37 8.951e-16
8912.11 9.138e-16
8913.85 9.2096e-16
8915.59 9.1139e-16
8917.33 8.7707e-16
8919.06 8.2504e-16
8920.8 7.7035e-16
8922.54 7.3053e-16
8924.28 7.2411e-16
8926.02 7.4721e-16
8927.76 7.7884e-16
8929.5 8.0722e-16
8931.24 8.2882e-16
8932.98 8.3498e-16
8934.71 8.1338e-16
8936.45 7.7341e-16
8938.19 7.4416e-16
8939.93 7.31e-16
8941.67 7.1503e-16
8943.41 6.9819e-16
8945.15 7.0518e-16
8946.89 7.2855e-16
8948.63 7.2474e-16
8950.37 6.9368e-16
8952.1 6.8676e-16
8953.84 7.1883e-16
8955.58 7.5958e-16
8957.32 7.9514e-16
8959.06 8.306e-16
8960.8 8.7078e-16
8962.54 9.2563e-16
8964.28 9.8591e-16
8966.02 1.0105e-15
8967.75 9.841e-16
8969.49 9.3291e-16
8971.23 8.8075e-16
8972.97 8.4664e-16
8974.71 8.3802e-16
8976.45 8.3783e-16
8978.19 8.3369e-16
8979.93 8.2473e-16
8981.67 8.156e-16
8983.41 8.2707e-16
8985.14 8.6497e-16
8986.88 8.976e-16
8988.62 9.0307e-16
8990.36 8.8614e-16
8992.1 8.5675e-16
8993.84 8.3571e-16
8995.58 8.3752e-16
8997.32 8.5703e-16
8999.06 8.8231e-16
9000.79 8.8211e-16
9002.53 8.3926e-16
9004.27 7.9293e-16
9006.01 7.7487e-16
9007.75 7.6506e-16
9009.49 7.4817e-16
9011.23 7.523e-16
9012.97 7.9455e-16
9014.71 8.2845e-16
9016.44 8.1544e-16
9018.18 7.8723e-16
9019.92 7.7647e-16
9021.66 7.7479e-16
9023.4 7.7094e-16
9025.14 7.6109e-16
9026.88 7.4308e-16
9028.62 7.2209e-16
9030.36 7.0501e-16
9032.1 7.0244e-16
9033.83 7.2225e-16
9035.57 7.5145e-16
9037.31 7.7382e-16
9039.05 7.8537e-16
9040.79 7.8595e-16
9042.53 7.768e-16
9044.27 7.6107e-16
9046.01 7.5653e-16
9047.75 7.809e-16
9049.48 8.195e-16
9051.22 8.4986e-16
9052.96 8.5538e-16
9054.7 8.2335e-16
9056.44 7.8282e-16
9058.18 7.7478e-16
9059.92 7.8608e-16
9061.66 7.8558e-16
9063.4 7.7754e-16
9065.14 7.7761e-16
9066.87 7.7966e-16
9068.61 7.7044e-16
9070.35 7.5337e-16
9072.09 7.3845e-16
9073.83 7.2683e-16
9075.57 7.1582e-16
9077.31 7.0556e-16
9079.05 6.9729e-16
9080.79 6.8814e-16
9082.52 6.7352e-16
9084.26 6.545e-16
9086.0 6.3535e-16
9087.74 6.2075e-16
9089.48 6.152e-16
9091.22 6.1934e-16
9092.96 6.3214e-16
9094.7 6.4349e-16
9096.44 6.3506e-16
9098.17 6.1856e-16
9099.91 6.2979e-16
9101.65 6.6162e-16
9103.39 6.7321e-16
9105.13 6.5044e-16
9106.87 5.9965e-16
9108.61 5.445e-16
9110.35 5.2811e-16
9112.09 5.5221e-16
9113.83 5.7371e-16
9115.56 5.7902e-16
9117.3 5.8769e-16
9119.04 6.0126e-16
9120.78 6.013e-16
9122.52 5.8961e-16
9124.26 5.9144e-16
9126.0 6.166e-16
9127.74 6.5584e-16
9129.48 6.9567e-16
9131.21 7.1511e-16
9132.95 7.0789e-16
9134.69 6.9239e-16
9136.43 6.8037e-16
9138.17 6.7013e-16
9139.91 6.6472e-16
9141.65 6.7528e-16
9143.39 7.034e-16
9145.13 7.3377e-16
9146.86 7.5608e-16
9148.6 7.727e-16
9150.34 7.8356e-16
9152.08 7.8172e-16
9153.82 7.6681e-16
9155.56 7.535e-16
9157.3 7.5051e-16
9159.04 7.482e-16
9160.78 7.4186e-16
9162.52 7.4308e-16
9164.25 7.5858e-16
9165.99 7.8359e-16
9167.73 8.0861e-16
9169.47 8.0498e-16
9171.21 7.6005e-16
9172.95 7.2674e-16
9174.69 7.4165e-16
9176.43 7.5476e-16
9178.17 7.2636e-16
9179.9 6.8902e-16
9181.64 6.7349e-16
9183.38 6.7681e-16
9185.12 6.9266e-16
9186.86 7.1187e-16
9188.6 7.2553e-16
9190.34 7.3591e-16
9192.08 7.4623e-16
9193.82 7.5192e-16
9195.56 7.4948e-16
9197.29 7.4775e-16
9199.03 7.5517e-16
9200.77 7.6441e-16
9202.51 7.6664e-16
9204.25 7.5961e-16
9205.99 7.4367e-16
9207.73 7.3138e-16
9209.47 7.3589e-16
9211.21 7.5422e-16
9212.94 7.7903e-16
9214.68 7.9694e-16
9216.42 7.9476e-16
9218.16 7.8446e-16
9219.9 7.8404e-16
9221.64 7.9298e-16
9223.38 8.0556e-16
9225.12 8.1599e-16
9226.86 8.1825e-16
9228.59 8.1712e-16
9230.33 8.2097e-16
9232.07 8.2873e-16
9233.81 8.3615e-16
9235.55 8.4085e-16
9237.29 8.4079e-16
9239.03 8.4006e-16
9240.77 8.4505e-16
9242.51 8.5298e-16
9244.25 8.5745e-16
9245.98 8.5177e-16
9247.72 8.2924e-16
9249.46 7.9911e-16
9251.2 7.7885e-16
9252.94 7.7303e-16
9254.68 7.7887e-16
9256.42 7.8719e-16
9258.16 7.8457e-16
9259.9 7.7029e-16
9261.63 7.5191e-16
9263.37 7.3809e-16
9265.11 7.3918e-16
9266.85 7.4918e-16
9268.59 7.4898e-16
9270.33 7.3675e-16
9272.07 7.2366e-16
9273.81 7.1935e-16
9275.55 7.3372e-16
9277.29 7.5613e-16
9279.02 7.5753e-16
9280.76 7.2431e-16
9282.5 6.5436e-16
9284.24 5.7869e-16
9285.98 5.6995e-16
9287.72 6.2355e-16
9289.46 6.4123e-16
9291.2 5.8923e-16
9292.94 5.1357e-16
9294.67 4.4915e-16
9296.41 4.2072e-16
9298.15 4.3237e-16
9299.89 4.5442e-16
9301.63 4.6377e-16
9303.37 4.4875e-16
9305.11 4.1734e-16
9306.85 4.0497e-16
9308.59 4.5561e-16
9310.32 6.3404e-16
9312.06 9.3677e-16
9313.8 1.2314e-15
9315.54 1.4267e-15
9317.28 1.5275e-15
9319.02 1.5469e-15
9320.76 1.515e-15
9322.5 1.4496e-15
9324.24 1.3032e-15
9325.98 1.0852e-15
9327.71 9.6428e-16
9329.45 1.0333e-15
9331.19 1.1642e-15
9332.93 1.2479e-15
9334.67 1.2731e-15
9336.41 1.2395e-15
9338.15 1.1715e-15
9339.89 1.0995e-15
9341.63 1.0468e-15
9343.36 1.0285e-15
9345.1 1.0289e-15
9346.84 1.0325e-15
9348.58 1.0552e-15
9350.32 1.1043e-15
9352.06 1.1298e-15
9353.8 1.0961e-15
9355.54 1.0602e-15
9357.28 1.0782e-15
9359.01 1.1415e-15
9360.75 1.2321e-15
9362.49 1.3288e-15
9364.23 1.4116e-15
9365.97 1.4891e-15
9367.71 1.5705e-15
9369.45 1.6549e-15
9371.19 1.7353e-15
9372.93 1.7254e-15
9374.67 1.5461e-15
9376.4 1.3323e-15
9378.14 1.2448e-15
9379.88 1.1855e-15
9381.62 1.0149e-15
9383.36 8.2795e-16
9385.1 7.6002e-16
9386.84 7.5751e-16
9388.58 7.2465e-16
9390.32 6.6885e-16
9392.05 6.2332e-16
9393.79 5.9451e-16
9395.53 5.8383e-16
9397.27 5.8825e-16
9399.01 6.0076e-16
9400.75 6.3209e-16
9402.49 6.9798e-16
9404.23 7.7128e-16
9405.97 8.0903e-16
9407.71 8.1258e-16
9409.44 8.0368e-16
9411.18 7.8312e-16
9412.92 7.4389e-16
9414.66 7.0205e-16
9416.4 6.8319e-16
9418.14 6.9163e-16
9419.88 7.2131e-16
9421.62 7.5798e-16
9423.36 7.7861e-16
9425.09 8.0665e-16
9426.83 8.9886e-16
9428.57 1.0166e-15
9430.31 1.0552e-15
9432.05 1.0357e-15
9433.79 1.0667e-15
9435.53 1.1615e-15
9437.27 1.2674e-15
9439.01 1.3249e-15
9440.74 1.2631e-15
9442.48 1.0955e-15
9444.22 9.1631e-16
9445.96 7.7212e-16
9447.7 6.5609e-16
9449.44 6.0264e-16
9451.18 6.9042e-16
9452.92 8.7933e-16
9454.66 9.9696e-16
9456.4 9.9702e-16
9458.13 9.8854e-16
9459.87 1.0019e-15
9461.61 9.6763e-16
9463.35 8.8037e-16
9465.09 8.1815e-16
9466.83 7.9895e-16
9468.57 7.4666e-16
9470.31 6.6602e-16
9472.05 6.9329e-16
9473.78 8.6359e-16
9475.52 1.0479e-15
9477.26 1.1579e-15
9479.0 1.1723e-15
9480.74 1.1092e-15
9482.48 1.0789e-15
9484.22 1.1185e-15
9485.96 1.0882e-15
9487.7 9.262e-16
9489.44 7.5408e-16
9491.17 6.5124e-16
9492.91 5.8771e-16
9494.65 5.4022e-16
9496.39 5.0291e-16
9498.13 4.7503e-16
9499.87 4.7873e-16
9501.61 5.3098e-16
9503.35 6.373e-16
9505.09 7.8514e-16
9506.82 9.0676e-16
9508.56 9.5301e-16
9510.3 9.5272e-16
9512.04 9.3836e-16
9513.78 9.2252e-16
9515.52 9.1602e-16
9517.26 9.2594e-16
9519.0 9.5005e-16
9520.74 9.5543e-16
9522.47 9.1502e-16
9524.21 8.3189e-16
9525.95 7.2352e-16
9527.69 6.7278e-16
9529.43 7.4458e-16
9531.17 8.5366e-16
9532.91 9.0538e-16
9534.65 8.889e-16
9536.39 8.1526e-16
9538.13 7.6197e-16
9539.86 8.0476e-16
9541.6 8.9677e-16
9543.34 9.6982e-16
9545.08 9.8629e-16
9546.82 9.2171e-16
9548.56 8.3607e-16
9550.3 8.0514e-16
9552.04 7.9063e-16
9553.78 7.3152e-16
9555.51 6.8227e-16
9557.25 7.1872e-16
9558.99 7.8985e-16
9560.73 8.1371e-16
9562.47 8.1057e-16
9564.21 8.2892e-16
9565.95 8.7541e-16
9567.69 9.4392e-16
9569.43 1.0071e-15
9571.17 1.0294e-15
9572.9 1.019e-15
9574.64 1.0035e-15
9576.38 9.8212e-16
9578.12 9.4266e-16
9579.86 9.0001e-16
9581.6 8.8054e-16
9583.34 8.7169e-16
9585.08 8.4189e-16
9586.82 7.9666e-16
9588.55 7.6006e-16
9590.29 7.4018e-16
9592.03 7.3788e-16
9593.77 7.3936e-16
9595.51 7.1836e-16
9597.25 6.8931e-16
9598.99 6.9872e-16
9600.73 7.2325e-16
9602.47 6.8455e-16
9604.2 6.1808e-16
9605.94 6.4933e-16
9607.68 7.6562e-16
9609.42 8.3916e-16
9611.16 8.4821e-16
9612.9 8.6387e-16
9614.64 8.9502e-16
9616.38 8.9469e-16
9618.12 8.619e-16
9619.86 8.4143e-16
9621.59 8.3437e-16
9623.33 7.9105e-16
9625.07 7.1887e-16
9626.81 6.9591e-16
9628.55 7.2852e-16
9630.29 7.2898e-16
9632.03 6.7856e-16
9633.77 6.544e-16
9635.51 6.7785e-16
9637.24 6.9078e-16
9638.98 6.6908e-16
9640.72 6.3684e-16
9642.46 6.1416e-16
9644.2 6.1973e-16
9645.94 6.5432e-16
9647.68 6.8212e-16
9649.42 6.8464e-16
9651.16 6.808e-16
9652.89 6.8135e-16
9654.63 6.7895e-16
9656.37 6.7063e-16
9658.11 6.6084e-16
9659.85 6.5353e-16
9661.59 6.528e-16
9663.33 6.5938e-16
9665.07 6.6627e-16
9666.81 6.6693e-16
9668.55 6.5413e-16
9670.28 6.2953e-16
9672.02 6.2473e-16
9673.76 6.5739e-16
9675.5 6.9353e-16
9677.24 7.0537e-16
9678.98 6.9944e-16
9680.72 6.8536e-16
9682.46 6.7027e-16
9684.2 6.6395e-16
9685.93 6.9429e-16
9687.67 7.7279e-16
9689.41 8.2779e-16
9691.15 8.0065e-16
9692.89 7.4045e-16
9694.63 7.0147e-16
9696.37 6.9445e-16
9698.11 7.2027e-16
9699.85 7.3985e-16
9701.59 7.1746e-16
9703.32 6.9894e-16
9705.06 7.3263e-16
9706.8 7.9575e-16
9708.54 8.541e-16
9710.28 8.8256e-16
9712.02 8.6188e-16
9713.76 8.0277e-16
9715.5 7.2607e-16
9717.24 6.5538e-16
9718.97 6.1225e-16
9720.71 6.0851e-16
9722.45 6.4823e-16
9724.19 6.8562e-16
9725.93 6.6718e-16
9727.67 6.121e-16
9729.41 5.5943e-16
9731.15 5.5392e-16
9732.89 6.3966e-16
9734.62 7.3516e-16
9736.36 7.1897e-16
9738.1 6.4964e-16
9739.84 6.483e-16
9741.58 7.0177e-16
9743.32 7.4844e-16
9745.06 7.5336e-16
9746.8 6.8949e-16
9748.54 6.0492e-16
9750.28 5.8512e-16
9752.01 6.1471e-16
9753.75 6.2719e-16
9755.49 6.1785e-16
9757.23 6.1213e-16
9758.97 6.1528e-16
9760.71 6.2488e-16
9762.45 6.2856e-16
9764.19 6.0551e-16
9765.93 5.6839e-16
9767.66 5.5334e-16
9769.4 5.6039e-16
9771.14 5.6374e-16
9772.88 5.5947e-16
9774.62 5.5747e-16
9776.36 5.6709e-16
9778.1 6.017e-16
9779.84 6.3832e-16
9781.58 6.2006e-16
9783.32 5.4935e-16
9785.05 4.8498e-16
9786.79 4.6067e-16
9788.53 4.8359e-16
9790.27 5.5267e-16
9792.01 6.5817e-16
9793.75 7.658e-16
9795.49 8.1251e-16
9797.23 7.8758e-16
9798.97 7.5024e-16
9800.7 7.2687e-16
9802.44 6.9641e-16
9804.18 6.5578e-16
9805.92 6.2445e-16
9807.66 6.1157e-16
9809.4 6.1285e-16
9811.14 6.2488e-16
9812.88 6.4417e-16
9814.62 6.701e-16
9816.35 7.1511e-16
9818.09 7.6625e-16
9819.83 7.5316e-16
9821.57 6.5926e-16
9823.31 5.8529e-16
9825.05 5.8765e-16
9826.79 6.1353e-16
9828.53 6.269e-16
9830.27 6.4007e-16
9832.01 6.57e-16
9833.74 6.6227e-16
9835.48 6.4991e-16
9837.22 6.3445e-16
9838.96 6.315e-16
9840.7 6.647e-16
9842.44 7.3702e-16
9844.18 7.7596e-16
9845.92 7.351e-16
9847.66 6.8371e-16
9849.39 6.7804e-16
9851.13 6.8804e-16
9852.87 6.8345e-16
9854.61 6.5486e-16
9856.35 6.0019e-16
9858.09 5.5404e-16
9859.83 5.4493e-16
9861.57 5.3948e-16
9863.31 5.0755e-16
9865.04 4.797e-16
9866.78 4.8683e-16
9868.52 5.2547e-16
9870.26 5.849e-16
9872.0 6.323e-16
9873.74 6.3862e-16
9875.48 6.4043e-16
9877.22 6.7888e-16
9878.96 7.3171e-16
9880.7 7.6786e-16
9882.43 7.7436e-16
9884.17 7.4456e-16
9885.91 7.1648e-16
9887.65 7.3371e-16
9889.39 7.5775e-16
9891.13 7.3393e-16
9892.87 6.8884e-16
9894.61 6.6868e-16
9896.35 6.5046e-16
9898.08 5.9451e-16
9899.82 5.4901e-16
9901.56 5.8443e-16
9903.3 6.5039e-16
9905.04 6.5748e-16
9906.78 6.34e-16
9908.52 6.5009e-16
9910.26 6.7772e-16
9912.0 6.5357e-16
9913.74 6.0235e-16
9915.47 5.8503e-16
9917.21 5.9741e-16
9918.95 6.0366e-16
9920.69 6.2128e-16
9922.43 6.9381e-16
9924.17 7.7569e-16
9925.91 7.7559e-16
9927.65 7.0722e-16
9929.39 6.4298e-16
9931.12 6.1616e-16
9932.86 6.4e-16
9934.6 6.8256e-16
9936.34 6.7705e-16
9938.08 6.2874e-16
9939.82 5.93e-16
9941.56 5.9608e-16
9943.3 6.4917e-16
9945.04 7.0247e-16
9946.77 6.5146e-16
9948.51 5.0655e-16
9950.25 3.7798e-16
9951.99 3.3741e-16
9953.73 4.2474e-16
9955.47 6.0018e-16
9957.21 7.3494e-16
9958.95 7.7779e-16
9960.69 7.6779e-16
9962.43 7.3538e-16
9964.16 7.0588e-16
9965.9 6.8973e-16
9967.64 6.6825e-16
9969.38 6.4412e-16
9971.12 6.5411e-16
9972.86 6.9623e-16
9974.6 7.0964e-16
9976.34 6.7856e-16
9978.08 6.6142e-16
9979.81 6.8056e-16
9981.55 6.9451e-16
9983.29 6.881e-16
9985.03 6.9647e-16
9986.77 7.267e-16
9988.51 7.2804e-16
9990.25 6.8465e-16
9991.99 6.5788e-16
9993.73 6.7674e-16
9995.47 6.9405e-16
9997.2 6.7714e-16
9998.94 6.3547e-16
10000.68 5.7316e-16
