# wavelength flux
3300.0 1.161298668136501e-14
3301.0 1.161279314188683e-14
3302.0 1.161259959984807e-14
3303.0 1.1612406055240466e-14
3304.0 1.161221250805574e-14
3305.0 1.1612018958285613e-14
3306.0 1.1611825405921782e-14
3307.0 1.1611631850955934e-14
3308.0 1.161143829337976e-14
3309.0 1.1611244733184914e-14
3310.0 1.1611051170363055e-14
3311.0 1.1610857604905824e-14
3312.0 1.1610664036804854e-14
3313.0 1.1610470466051762e-14
3314.0 1.1610276892638156e-14
3315.0 1.1610083316555623e-14
3316.0 1.1609889737795754e-14
3317.0 1.1609696156350114e-14
3318.0 1.1609502572210259e-14
3319.0 1.160930898536774e-14
3320.0 1.1609115395814085e-14
3321.0 1.160892180354082e-14
3322.0 1.1608728208539448e-14
3323.0 1.1608534610801471e-14
3324.0 1.1608341010318371e-14
3325.0 1.1608147407081621e-14
3326.0 1.1607953801082677e-14
3327.0 1.1607760192312994e-14
3328.0 1.1607566580763999e-14
3329.0 1.1607372966427121e-14
3330.0 1.1607179349293766e-14
3331.0 1.1606985729355337e-14
3332.0 1.1606792106603214e-14
3333.0 1.1606598481028776e-14
3334.0 1.160640485262338e-14
3335.0 1.1606211221378378e-14
3336.0 1.16060175872851e-14
3337.0 1.1605823950334873e-14
3338.0 1.1605630310519009e-14
3339.0 1.1605436667828804e-14
3340.0 1.1605243022255546e-14
3341.0 1.1605049373790509e-14
3342.0 1.1604855722424948e-14
3343.0 1.1604662068150117e-14
3344.0 1.1604468410957252e-14
3345.0 1.160427475083757e-14
3346.0 1.1604081087782286e-14
3347.0 1.1603887421782595e-14
3348.0 1.1603693752829685e-14
3349.0 1.1603500080914727e-14
3350.0 1.1603306406028876e-14
3351.0 1.1603112728163281e-14
3352.0 1.1602919047309082e-14
3353.0 1.1602725363457397e-14
3354.0 1.1602531676599326e-14
3355.0 1.1602337986725976e-14
3356.0 1.1602144293828422e-14
3357.0 1.1601950597897736e-14
3358.0 1.1601756898924978e-14
3359.0 1.1601563196901189e-14
3360.0 1.1601369491817402e-14
3361.0 1.160117578366463e-14
3362.0 1.1600982072433887e-14
3363.0 1.1600788358116158e-14
3364.0 1.1600594640702426e-14
3365.0 1.1600400920183653e-14
3366.0 1.1600207196550797e-14
3367.0 1.1600013469794797e-14
3368.0 1.1599819739906582e-14
3369.0 1.1599626006877058e-14
3370.0 1.1599432270697139e-14
3371.0 1.1599238531357698e-14
3372.0 1.1599044788849622e-14
3373.0 1.1598851043163767e-14
3374.0 1.1598657294290983e-14
3375.0 1.1598463542222106e-14
3376.0 1.1598269786947952e-14
3377.0 1.1598076028459337e-14
3378.0 1.1597882266747055e-14
3379.0 1.1597688501801885e-14
3380.0 1.1597494733614599e-14
3381.0 1.159730096217595e-14
3382.0 1.1597107187476684e-14
3383.0 1.1596913409507528e-14
3384.0 1.1596719628259195e-14
3385.0 1.1596525843722392e-14
3386.0 1.1596332055887804e-14
3387.0 1.159613826474611e-14
3388.0 1.1595944470287965e-14
3389.0 1.1595750672504027e-14
3390.0 1.1595556871384923e-14
3391.0 1.1595363066921277e-14
3392.0 1.1595169259103699e-14
3393.0 1.1594975447922782e-14
3394.0 1.159478163336911e-14
3395.0 1.1594587815433243e-14
3396.0 1.159439399410574e-14
3397.0 1.1594200169377143e-14
3398.0 1.1594006341237971e-14
3399.0 1.1593812509678739e-14
3400.0 1.1593618674689953e-14
3401.0 1.1593424836262091e-14
3402.0 1.1593230994385628e-14
3403.0 1.1593037149051021e-14
3404.0 1.1592843300248709e-14
3405.0 1.1592649447969135e-14
3406.0 1.1592455592202705e-14
3407.0 1.1592261732939822e-14
3408.0 1.159206787017088e-14
3409.0 1.1591874003886249e-14
3410.0 1.1591680134076298e-14
3411.0 1.1591486260731362e-14
3412.0 1.1591292383841788e-14
3413.0 1.1591098503397888e-14
3414.0 1.1590904619389963e-14
3415.0 1.1590710731808313e-14
3416.0 1.1590516840643213e-14
3417.0 1.1590322945884924e-14
3418.0 1.1590129047523698e-14
3419.0 1.1589935145549767e-14
3420.0 1.1589741239953358e-14
3421.0 1.1589547330724672e-14
3422.0 1.1589353417853905e-14
3423.0 1.1589159501331237e-14
3424.0 1.1588965581146828e-14
3425.0 1.1588771657290837e-14
3426.0 1.1588577729753391e-14
3427.0 1.1588383798524619e-14
3428.0 1.1588189863594625e-14
3429.0 1.1587995924953506e-14
3430.0 1.1587801982591333e-14
3431.0 1.1587608036498183e-14
3432.0 1.1587414086664101e-14
3433.0 1.1587220133079118e-14
3434.0 1.1587026175733267e-14
3435.0 1.1586832214616547e-14
3436.0 1.1586638249718953e-14
3437.0 1.1586444281030464e-14
3438.0 1.1586250308541048e-14
3439.0 1.1586056332240648e-14
3440.0 1.1585862352119207e-14
3441.0 1.1585668368166638e-14
3442.0 1.1585474380372852e-14
3443.0 1.1585280388727741e-14
3444.0 1.1585086393221183e-14
3445.0 1.1584892393843031e-14
3446.0 1.1584698390583146e-14
3447.0 1.1584504383431352e-14
3448.0 1.1584310372377474e-14
3449.0 1.1584116357411314e-14
3450.0 1.158392233852266e-14
3451.0 1.158372831570128e-14
3452.0 1.1583534288936946e-14
3453.0 1.1583340258219397e-14
3454.0 1.1583146223538363e-14
3455.0 1.1582952184883562e-14
3456.0 1.1582758142244686e-14
3457.0 1.1582564095611435e-14
3458.0 1.1582370044973469e-14
3459.0 1.1582175990320445e-14
3460.0 1.1581981931642004e-14
3461.0 1.158178786892778e-14
3462.0 1.1581593802167373e-14
3463.0 1.1581399731350385e-14
3464.0 1.1581205656466396e-14
3465.0 1.1581011577504972e-14
3466.0 1.1580817494455665e-14
3467.0 1.1580623407308008e-14
3468.0 1.1580429316051524e-14
3469.0 1.158023522067572e-14
3470.0 1.1580041121170086e-14
3471.0 1.1579847017524094e-14
3472.0 1.1579652909727208e-14
3473.0 1.1579458797768873e-14
3474.0 1.1579264681638514e-14
3475.0 1.1579070561325553e-14
3476.0 1.1578876436819384e-14
3477.0 1.1578682308109394e-14
3478.0 1.1578488175184948e-14
3479.0 1.1578294038035403e-14
3480.0 1.1578099896650092e-14
3481.0 1.1577905751018346e-14
3482.0 1.1577711601129467e-14
3483.0 1.1577517446972745e-14
3484.0 1.1577323288537459e-14
3485.0 1.157712912581287e-14
3486.0 1.1576934958788224e-14
3487.0 1.1576740787452747e-14
3488.0 1.157654661179566e-14
3489.0 1.1576352431806157e-14
3490.0 1.157615824747342e-14
3491.0 1.1575964058786619e-14
3492.0 1.1575769865734909e-14
3493.0 1.1575575668307416e-14
3494.0 1.1575381466493278e-14
3495.0 1.157518726028158e-14
3496.0 1.1574993049661426e-14
3497.0 1.1574798834621884e-14
3498.0 1.1574604615152012e-14
3499.0 1.157441039124085e-14
3500.0 1.157421616287743e-14
3500.79 4.5004e-15
3501.58 3.9917e-15
3502.36 4.0848e-15
3503.15 3.9937e-15
3503.94 4.0023e-15
3504.73 4.2977e-15
3505.51 4.2272e-15
3506.3 4.253e-15
3507.09 3.9818e-15
3507.88 4.5909e-15
3508.66 4.4299e-15
3509.45 4.21e-15
3510.24 4.6845e-15
3511.03 4.2339e-15
3511.82 4.4006e-15
3512.6 3.6654e-15
3513.39 3.974e-15
3514.18 4.6498e-15
3514.97 4.993e-15
3515.75 5.0615e-15
3516.54 3.9076e-15
3517.33 4.206e-15
3518.12 4.2132e-15
3518.9 3.696e-15
3519.69 4.447e-15
3520.48 4.2369e-15
3521.27 4.3468e-15
3522.06 4.5426e-15
3522.84 4.5314e-15
3523.63 4.0724e-15
3524.42 3.8814e-15
3525.21 4.6092e-15
3525.99 4.7557e-15
3526.78 4.5067e-15
3527.57 4.4108e-15
3528.36 4.5878e-15
3529.14 4.5979e-15
3529.93 4.8269e-15
3530.72 4.9393e-15
3531.51 4.6911e-15
3532.3 4.6738e-15
3533.08 4.5953e-15
3533.87 4.1298e-15
3534.66 4.7595e-15
3535.45 4.5131e-15
3536.23 4.7038e-15
3537.02 4.875e-15
3537.81 4.7004e-15
3538.6 4.6063e-15
3539.38 4.8623e-15
3540.17 4.9355e-15
3540.96 4.9566e-15
3541.75 5.0882e-15
3542.54 5.0813e-15
3543.32 4.7681e-15
3544.11 5.2462e-15
3544.9 5.1694e-15
3545.69 5.4027e-15
3546.47 5.0302e-15
3547.26 4.9668e-15
3548.05 4.7605e-15
3548.84 4.9355e-15
3549.62 4.8537e-15
3550.41 5.1128e-15
3551.2 4.4633e-15
3551.99 4.6046e-15
3552.78 4.8457e-15
3553.56 5.0857e-15
3554.35 5.2141e-15
3555.14 5.1989e-15
3555.93 4.9063e-15
3556.71 4.5664e-15
3557.5 4.9318e-15
3558.29 5.5764e-15
3559.08 5.1854e-15
3559.86 5.2032e-15
3560.65 5.1435e-15
3561.44 5.2142e-15
3562.23 4.7659e-15
3563.02 5.0172e-15
3563.8 5.6677e-15
3564.59 5.4675e-15
3565.38 5.1694e-15
3566.17 5.9121e-15
3566.95 5.2377e-15
3567.74 4.7434e-15
3568.53 4.7346e-15
3569.32 5.2865e-15
3570.1 4.6726e-15
3570.89 4.6972e-15
3571.68 5.4127e-15
3572.47 4.5493e-15
3573.26 4.1581e-15
3574.04 5.3236e-15
3574.83 4.9886e-15
3575.62 5.1549e-15
3576.41 4.4973e-15
3577.19 4.6482e-15
3577.98 4.6416e-15
3578.77 4.9577e-15
3579.56 5.2602e-15
3580.34 5.0949e-15
3581.13 5.6247e-15
3581.92 5.3305e-15
3582.71 4.6609e-15
3583.5 5.3502e-15
3584.28 5.102e-15
3585.07 4.9435e-15
3585.86 5.0593e-15
3586.65 4.9211e-15
3587.43 5.1702e-15
3588.22 5.0033e-15
3589.01 5.3229e-15
3589.8 4.6283e-15
3590.58 5.2469e-15
3591.37 5.5427e-15
3592.16 5.083e-15
3592.95 5.0909e-15
3593.74 5.1435e-15
3594.52 5.0441e-15
3595.31 5.3327e-15
3596.1 5.1285e-15
3596.89 4.9805e-15
3597.67 4.5628e-15
3598.46 4.2325e-15
3599.25 5.0369e-15
3600.04 4.5608e-15
3600.82 4.8444e-15
3601.61 4.4998e-15
3602.4 4.5328e-15
3603.19 4.8979e-15
3603.98 4.987e-15
3604.76 5.1027e-15
3605.55 4.7831e-15
3606.34 4.8389e-15
3607.13 4.5844e-15
3607.91 4.6684e-15
3608.7 4.7699e-15
3609.49 4.5051e-15
3610.28 4.2279e-15
3611.06 4.3631e-15
3611.85 4.7148e-15
3612.64 4.21e-15
3613.43 4.5822e-15
3614.22 4.8425e-15
3615.0 4.2297e-15
3615.79 4.3761e-15
3616.58 4.369e-15
3617.37 4.248e-15
3618.15 4.4863e-15
3618.94 4.4721e-15
3619.73 5.2031e-15
3620.52 4.8988e-15
3621.3 4.8789e-15
3622.09 4.9479e-15
3622.88 4.7194e-15
3623.67 4.7994e-15
3624.46 4.4454e-15
3625.24 4.6889e-15
3626.03 4.8034e-15
3626.82 4.5877e-15
3627.61 4.6988e-15
3628.39 4.2894e-15
3629.18 4.0685e-15
3629.97 4.4727e-15
3630.76 4.428e-15
3631.54 5.1509e-15
3632.33 4.696e-15
3633.12 4.2102e-15
3633.91 4.3009e-15
3634.7 4.3797e-15
3635.48 4.2074e-15
3636.27 4.2237e-15
3637.06 4.5546e-15
3637.85 4.9078e-15
3638.63 4.2058e-15
3639.42 4.3101e-15
3640.21 3.8088e-15
3641.0 4.5679e-15
3641.78 4.8277e-15
3642.57 4.1599e-15
3643.36 4.4828e-15
3644.15 4.0918e-15
3644.94 4.1692e-15
3645.72 4.5301e-15
3646.51 4.0168e-15
3647.3 4.1018e-15
3648.09 4.6394e-15
3648.87 4.5506e-15
3649.66 4.3919e-15
3650.45 3.8569e-15
3651.24 3.8541e-15
3652.02 4.057e-15
3652.81 4.4878e-15
3653.6 4.5751e-15
3654.39 4.6306e-15
3655.18 4.1402e-15
3655.96 4.5846e-15
3656.75 4.0577e-15
3657.54 4.5899e-15
3658.33 4.5001e-15
3659.11 4.3409e-15
3659.9 4.2341e-15
3660.69 4.3959e-15
3661.48 4.5339e-15
3662.26 4.7437e-15
3663.05 4.7081e-15
3663.84 4.4628e-15
3664.63 4.4974e-15
3665.42 4.5737e-15
3666.2 4.3311e-15
3666.99 4.7424e-15
3667.78 4.4159e-15
3668.57 4.5004e-15
3669.35 4.2312e-15
3670.14 4.4405e-15
3670.93 4.1679e-15
3671.72 4.577e-15
3672.5 5.031e-15
3673.29 5.3448e-15
3674.08 5.1595e-15
3674.87 4.6985e-15
3675.66 4.7661e-15
3676.44 4.6758e-15
3677.23 4.6877e-15
3678.02 4.7087e-15
3678.81 5.0982e-15
3679.59 4.7129e-15
3680.38 4.8359e-15
3681.17 5.9689e-15
3681.96 5.5665e-15
3682.74 5.3024e-15
3683.53 5.1583e-15
3684.32 5.5966e-15
3685.11 5.4859e-15
3685.9 5.4166e-15
3686.68 5.4768e-15
3687.47 5.5175e-15
3688.26 5.6344e-15
3689.05 5.5198e-15
3689.83 5.8094e-15
3690.62 5.5864e-15
3691.41 6.1074e-15
3692.2 5.9886e-15
3692.98 5.9267e-15
3693.77 6.2017e-15
3694.56 5.8833e-15
3695.35 6.198e-15
3696.14 6.1026e-15
3696.92 6.4279e-15
3697.71 6.0917e-15
3698.5 6.0476e-15
3699.29 6.3355e-15
3700.07 6.3754e-15
3700.86 6.291e-15
3701.65 6.2137e-15
3702.44 6.5888e-15
3703.22 6.5038e-15
3704.01 6.3369e-15
3704.8 6.9788e-15
3705.59 6.6711e-15
3706.38 6.9917e-15
3707.16 7.1331e-15
3707.95 6.7986e-15
3708.74 6.9775e-15
3709.53 7.1425e-15
3710.31 7.6498e-15
3711.1 7.5678e-15
3711.89 7.4728e-15
3712.68 7.2199e-15
3713.46 7.3243e-15
3714.25 7.7267e-15
3715.04 7.854e-15
3715.83 8.1308e-15
3716.62 7.7399e-15
3717.4 7.6216e-15
3718.19 8.0561e-15
3718.98 8.1025e-15
3719.77 8.2082e-15
3720.55 8.2475e-15
3721.34 8.4331e-15
3722.13 7.6684e-15
3722.92 8.3791e-15
3723.7 8.5346e-15
3724.49 8.1996e-15
3725.28 8.517e-15
3726.07 8.2398e-15
3726.86 8.4203e-15
3727.64 8.4332e-15
3728.43 8.8031e-15
3729.22 8.3819e-15
3730.01 8.4684e-15
3730.79 9.0616e-15
3731.58 8.7584e-15
3732.37 8.9554e-15
3733.16 8.6427e-15
3733.94 8.7831e-15
3734.73 9.0689e-15
3735.52 8.7752e-15
3736.31 8.8246e-15
3737.1 9.2946e-15
3737.88 8.9787e-15
3738.67 9.116e-15
3739.46 8.8946e-15
3740.25 8.8015e-15
3741.03 9.4607e-15
3741.82 9.0573e-15
3742.61 9.5024e-15
3743.4 9.294e-15
3744.18 9.1322e-15
3744.97 9.5278e-15
3745.76 9.3967e-15
3746.55 9.4754e-15
3747.34 9.1385e-15
3748.12 9.1386e-15
3748.91 9.1562e-15
3749.7 8.9312e-15
3750.49 9.4508e-15
3751.27 9.5326e-15
3752.06 9.7683e-15
3752.85 9.2317e-15
3753.64 8.7251e-15
3754.42 8.9894e-15
3755.21 8.9892e-15
3756.0 8.9181e-15
3756.79 8.8253e-15
3757.58 8.9945e-15
3758.36 9.2663e-15
3759.15 9.1385e-15
3759.94 9.529e-15
3760.73 9.0842e-15
3761.51 8.6929e-15
3762.3 8.7585e-15
3763.09 8.9211e-15
3763.88 9.191e-15
3764.66 9.3026e-15
3765.45 8.9544e-15
3766.24 8.7906e-15
3767.03 8.3731e-15
3767.82 8.4237e-15
3768.6 8.8321e-15
3769.39 8.6128e-15
3770.18 8.6033e-15
3770.97 8.2736e-15
3771.75 8.3011e-15
3772.54 8.293e-15
3773.33 8.5004e-15
3774.12 8.596e-15
3774.9 8.7445e-15
3775.69 8.1967e-15
3776.48 8.2321e-15
3777.27 8.0627e-15
3778.06 8.2514e-15
3778.84 8.303e-15
3779.63 8.1827e-15
3780.42 8.0208e-15
3781.21 8.2263e-15
3781.99 7.6808e-15
3782.78 7.4943e-15
3783.57 7.4347e-15
3784.36 7.5539e-15
3785.14 7.7825e-15
3785.93 7.8727e-15
3786.72 7.8084e-15
3787.51 7.4707e-15
3788.3 7.6652e-15
3789.08 7.3369e-15
3789.87 7.3113e-15
3790.66 7.2623e-15
3791.45 7.0938e-15
3792.23 7.3638e-15
3793.02 7.187e-15
3793.81 6.9089e-15
3794.6 7.0305e-15
3795.38 6.7304e-15
3796.17 6.7575e-15
3796.96 7.2431e-15
3797.75 6.7047e-15
3798.54 6.2744e-15
3799.32 6.2473e-15
3800.11 6.3419e-15
3800.9 6.2244e-15
3801.69 6.0048e-15
3802.47 6.3029e-15
3803.26 6.3271e-15
3804.05 6.0766e-15
3804.84 6.2088e-15
3805.62 5.8085e-15
3806.41 5.4123e-15
3807.2 5.4923e-15
3807.99 5.8097e-15
3808.78 5.4908e-15
3809.56 5.4264e-15
3810.35 5.5042e-15
3811.14 5.5843e-15
3811.93 5.7907e-15
3812.71 5.5692e-15
3813.5 5.2587e-15
3814.29 5.0801e-15
3815.08 4.7962e-15
3815.86 4.9772e-15
3816.65 4.7906e-15
3817.44 4.9527e-15
3818.23 5.0397e-15
3819.02 5.094e-15
3819.8 4.9434e-15
3820.59 4.9279e-15
3821.38 4.8733e-15
3822.17 4.8497e-15
3822.95 4.989e-15
3823.74 4.475e-15
3824.53 4.6578e-15
3825.32 4.7791e-15
3826.1 4.5958e-15
3826.89 4.5545e-15
3827.68 4.5185e-15
3828.47 4.2781e-15
3829.26 4.339e-15
3830.04 4.4276e-15
3830.83 4.4215e-15
3831.62 4.4106e-15
3832.41 4.4105e-15
3833.19 4.3373e-15
3833.98 4.3115e-15
3834.77 4.1162e-15
3835.56 4.3429e-15
3836.34 4.3574e-15
3837.13 4.2768e-15
3837.92 4.0928e-15
3838.71 3.9236e-15
3839.5 4.1451e-15
3840.28 4.0548e-15
3841.07 4.1428e-15
3841.86 4.1756e-15
3842.65 3.9656e-15
3843.43 3.8481e-15
3844.22 3.8115e-15
3845.01 4.0303e-15
3845.8 3.9042e-15
3846.59 3.9402e-15
3847.37 4.0689e-15
3848.16 3.6589e-15
3848.95 3.7357e-15
3849.74 4.1186e-15
3850.52 4.1276e-15
3851.31 3.8526e-15
3852.1 3.7848e-15
3852.89 3.9466e-15
3853.67 4.1821e-15
3854.46 3.9574e-15
3855.25 3.9173e-15
3856.04 4.0857e-15
3856.83 4.0441e-15
3857.61 4.2212e-15
3858.4 4.4402e-15
3859.19 4.3943e-15
3859.98 4.3243e-15
3860.76 4.3124e-15
3861.55 4.5299e-15
3862.34 4.5919e-15
3863.13 4.4159e-15
3863.91 4.6226e-15
3864.7 4.7191e-15
3865.49 4.9248e-15
3866.28 4.6529e-15
3867.07 4.9581e-15
3867.85 5.0081e-15
3868.64 4.5283e-15
3869.43 4.6391e-15
3870.22 4.8813e-15
3871.0 4.3219e-15
3871.79 4.5762e-15
3872.58 4.6216e-15
3873.37 5.3664e-15
3874.15 5.4901e-15
3874.94 5.5893e-15
3875.73 5.5222e-15
3876.52 5.8805e-15
3877.31 5.6905e-15
3878.09 5.5478e-15
3878.88 5.7504e-15
3879.67 5.8091e-15
3880.46 5.9025e-15
3881.24 5.9216e-15
3882.03 5.9809e-15
3882.82 6.0599e-15
3883.61 6.0829e-15
3884.39 6.1739e-15
3885.18 6.0638e-15
3885.97 5.8657e-15
3886.76 6.1772e-15
3887.55 6.4951e-15
3888.33 6.4329e-15
3889.12 6.4551e-15
3889.91 6.429e-15
3890.7 6.5565e-15
3891.48 6.605e-15
3892.27 6.7684e-15
3893.06 6.7239e-15
3893.85 7.0722e-15
3894.63 7.0494e-15
3895.42 7.4186e-15
3896.21 7.2545e-15
3897.0 7.3067e-15
3897.79 7.1877e-15
3898.57 7.3913e-15
3899.36 7.322e-15
3900.15 7.7886e-15
3900.94 7.6159e-15
3901.72 8.0165e-15
3902.51 7.8885e-15
3903.3 7.9702e-15
3904.09 8.2922e-15
3904.87 7.9637e-15
3905.66 8.6795e-15
3906.45 8.5033e-15
3907.24 8.4113e-15
3908.03 8.31e-15
3908.81 8.821e-15
3909.6 8.351e-15
3910.39 8.4788e-15
3911.18 8.9749e-15
3911.96 9.0054e-15
3912.75 8.8809e-15
3913.54 9.3142e-15
3914.33 9.5374e-15
3915.11 9.3823e-15
3915.9 9.4554e-15
3916.69 9.8658e-15
3917.48 9.8665e-15
3918.27 9.8024e-15
3919.05 9.7145e-15
3919.84 9.9481e-15
3920.63 1.0224e-14
3921.42 1.0028e-14
3922.2 1.0078e-14
3922.99 1.0012e-14
3923.78 1.0177e-14
3924.57 1.0253e-14
3925.35 1.0481e-14
3926.14 1.0428e-14
3926.93 1.0392e-14
3927.72 1.0581e-14
3928.51 1.0572e-14
3929.29 1.0469e-14
3930.08 1.074e-14
3930.87 1.079e-14
3931.66 1.0355e-14
3932.44 9.6624e-15
3933.23 9.8551e-15
3934.02 1.0442e-14
3934.81 1.0762e-14
3935.59 1.0991e-14
3936.38 1.1224e-14
3937.17 1.1108e-14
3937.96 1.1209e-14
3938.75 1.1289e-14
3939.53 1.0967e-14
3940.32 1.0342e-14
3941.11 1.0437e-14
3941.9 1.1261e-14
3942.68 1.1604e-14
3943.47 1.2018e-14
3944.26 1.1805e-14
3945.05 1.1553e-14
3945.83 1.1436e-14
3946.62 1.1595e-14
3947.41 1.1742e-14
3948.2 1.2162e-14
3948.99 1.187e-14
3949.77 1.1684e-14
3950.56 1.216e-14
3951.35 1.2217e-14
3952.14 1.2199e-14
3952.92 1.2039e-14
3953.71 1.2218e-14
3954.5 1.22e-14
3955.29 1.2091e-14
3956.07 1.2264e-14
3956.86 1.2303e-14
3957.65 1.2396e-14
3958.44 1.2578e-14
3959.23 1.2944e-14
3960.01 1.2921e-14
3960.8 1.2585e-14
3961.59 1.2433e-14
3962.38 1.2581e-14
3963.16 1.3161e-14
3963.95 1.2731e-14
3964.74 1.271e-14
3965.53 1.284e-14
3966.31 1.2514e-14
3967.1 1.1943e-14
3967.89 1.183e-14
3968.68 1.2346e-14
3969.47 1.2939e-14
3970.25 1.2697e-14
3971.04 1.2981e-14
3971.83 1.2946e-14
3972.62 1.29e-14
3973.4 1.2746e-14
3974.19 1.2736e-14
3974.98 1.2636e-14
3975.77 1.2172e-14
3976.55 1.262e-14
3977.34 1.2871e-14
3978.13 1.2789e-14
3978.92 1.2991e-14
3979.71 1.3292e-14
3980.49 1.3036e-14
3981.28 1.2863e-14
3982.07 1.2889e-14
3982.86 1.3069e-14
3983.64 1.3031e-14
3984.43 1.3188e-14
3985.22 1.3036e-14
3986.01 1.3018e-14
3986.79 1.2941e-14
3987.58 1.2844e-14
3988.37 1.3024e-14
3989.16 1.3155e-14
3989.95 1.345e-14
3990.73 1.3491e-14
3991.52 1.3397e-14
3992.31 1.3184e-14
3993.1 1.3357e-14
3993.88 1.3346e-14
3994.67 1.3572e-14
3995.46 1.3374e-14
3996.25 1.381e-14
3997.03 1.3126e-14
3997.82 1.3314e-14
3998.61 1.3725e-14
3999.4 1.3688e-14
4000.19 1.339e-14
4000.97 1.3507e-14
4001.76 1.3611e-14
4002.55 1.3824e-14
4003.34 1.381e-14
4004.12 1.3581e-14
4004.91 1.323e-14
4005.7 1.3377e-14
4006.49 1.3376e-14
4007.27 1.3389e-14
4008.06 1.319e-14
4008.85 1.3246e-14
4009.64 1.2934e-14
4010.43 1.2966e-14
4011.21 1.2714e-14
4012.0 1.2837e-14
4012.79 1.2851e-14
4013.58 1.2612e-14
4014.36 1.2995e-14
4015.15 1.2943e-14
4015.94 1.2894e-14
4016.73 1.2918e-14
4017.51 1.294e-14
4018.3 1.2805e-14
4019.09 1.2259e-14
4019.88 1.2787e-14
4020.67 1.2637e-14
4021.45 1.273e-14
4022.24 1.2899e-14
4023.03 1.2572e-14
4023.82 1.231e-14
4024.6 1.2379e-14
4025.39 1.2276e-14
4026.18 1.2356e-14
4026.97 1.225e-14
4027.75 1.2219e-14
4028.54 1.1862e-14
4029.33 1.1726e-14
4030.12 1.2137e-14
4030.91 1.1719e-14
4031.69 1.1992e-14
4032.48 1.1722e-14
4033.27 1.1898e-14
4034.06 1.1544e-14
4034.84 1.1617e-14
4035.63 1.1284e-14
4036.42 1.1355e-14
4037.21 1.1246e-14
4037.99 1.1032e-14
4038.78 1.101e-14
4039.57 1.1087e-14
4040.36 1.1343e-14
4041.15 1.104e-14
4041.93 1.0715e-14
4042.72 1.1066e-14
4043.51 1.0905e-14
4044.3 1.0693e-14
4045.08 1.0658e-14
4045.87 1.071e-14
4046.66 1.0625e-14
4047.45 1.0778e-14
4048.23 1.0494e-14
4049.02 1.0475e-14
4049.81 1.0505e-14
4050.6 1.0568e-14
4051.39 1.0644e-14
4052.17 1.0401e-14
4052.96 1.0206e-14
4053.75 1.0339e-14
4054.54 1.0412e-14
4055.32 1.0486e-14
4056.11 1.0439e-14
4056.9 1.0616e-14
4057.69 1.033e-14
4058.47 1.0406e-14
4059.26 1.0703e-14
4060.05 1.0729e-14
4060.84 1.0522e-14
4061.63 1.0703e-14
4062.41 1.0853e-14
4063.2 1.0423e-14
4063.99 1.0353e-14
4064.78 1.0513e-14
4065.56 1.0902e-14
4066.35 1.0343e-14
4067.14 1.057e-14
4067.93 1.0536e-14
4068.71 1.0446e-14
4069.5 1.0072e-14
4070.29 1.0102e-14
4071.08 1.0312e-14
4071.87 1.0383e-14
4072.65 1.0532e-14
4073.44 1.0014e-14
4074.23 1.0141e-14
4075.02 1.0373e-14
4075.8 1.0138e-14
4076.59 1.0416e-14
4077.38 1.0601e-14
4078.17 1.0518e-14
4078.95 1.027e-14
4079.74 1.0063e-14
4080.53 1.0602e-14
4081.32 1.0229e-14
4082.11 1.02e-14
4082.89 1.0079e-14
4083.68 1.0247e-14
4084.47 1.0276e-14
4085.26 1e-14
4086.04 1.0102e-14
4086.83 1.0263e-14
4087.62 1.037e-14
4088.41 1.0189e-14
4089.19 1.0173e-14
4089.98 1.0294e-14
4090.77 1.0583e-14
4091.56 1.0493e-14
4092.35 1.0947e-14
4093.13 1.0823e-14
4093.92 1.0459e-14
4094.71 1.0617e-14
4095.5 1.0615e-14
4096.28 1.056e-14
4097.07 1.0664e-14
4097.86 1.0737e-14
4098.65 1.0472e-14
4099.43 1.0729e-14
4100.22 1.0489e-14
4101.01 1.0599e-14
4101.8 1.0753e-14
4102.59 1.0685e-14
4103.37 1.041e-14
4104.16 1.0813e-14
4104.95 1.0803e-14
4105.74 1.0659e-14
4106.52 1.0337e-14
4107.31 1.061e-14
4108.1 1.0808e-14
4108.89 1.0545e-14
4109.67 1.0412e-14
4110.46 1.0461e-14
4111.25 1.0707e-14
4112.04 1.0857e-14
4112.83 1.0787e-14
4113.61 1.063e-14
4114.4 1.0731e-14
4115.19 1.0476e-14
4115.98 1.0516e-14
4116.76 1.0532e-14
4117.55 1.0628e-14
4118.34 1.0311e-14
4119.13 1.0571e-14
4119.91 1.0509e-14
4120.7 1.0696e-14
4121.49 1.0885e-14
4122.28 1.089e-14
4123.07 1.0623e-14
4123.85 1.0383e-14
4124.64 1.0722e-14
4125.43 1.0571e-14
4126.22 1.0807e-14
4127.0 1.0851e-14
4127.79 1.0891e-14
4128.58 1.0688e-14
4129.37 1.0841e-14
4130.15 1.0695e-14
4130.94 1.0823e-14
4131.73 1.0782e-14
4132.52 1.0633e-14
4133.31 1.07e-14
4134.09 1.0725e-14
4134.88 1.0583e-14
4135.67 1.0833e-14
4136.46 1.0767e-14
4137.24 1.0261e-14
4138.03 1.039e-14
4138.82 1.0409e-14
4139.61 1.0437e-14
4140.39 1.0277e-14
4141.18 1.02e-14
4141.97 1.0418e-14
4142.76 1.0293e-14
4143.55 9.6283e-15
4144.33 9.4553e-15
4145.12 9.3695e-15
4145.91 9.9994e-15
4146.7 1.0191e-14
4147.48 9.8729e-15
4148.27 9.8676e-15
4149.06 1.0023e-14
4149.85 9.7223e-15
4150.63 9.8784e-15
4151.42 9.9145e-15
4152.21 9.5227e-15
4153.0 9.3212e-15
4153.79 9.5354e-15
4154.57 9.3167e-15
4155.36 9.3503e-15
4156.15 9.175e-15
4156.94 9.1844e-15
4157.72 8.7822e-15
4158.51 8.9086e-15
4159.3 8.7466e-15
4160.09 8.8613e-15
4160.87 8.9126e-15
4161.66 8.7802e-15
4162.45 8.5809e-15
4163.24 8.4082e-15
4164.03 8.4851e-15
4164.81 8.579e-15
4165.6 8.4709e-15
4166.39 8.7473e-15
4167.18 8.4136e-15
4167.96 8.0235e-15
4168.75 8.2174e-15
4169.54 8.3211e-15
4170.33 8.3587e-15
4171.11 8.3969e-15
4171.9 8.1218e-15
4172.69 8.0861e-15
4173.48 7.721e-15
4174.27 7.919e-15
4175.05 8.2443e-15
4175.84 8.1567e-15
4176.63 7.7713e-15
4177.42 7.8911e-15
4178.2 7.6611e-15
4178.99 7.3899e-15
4179.78 7.7531e-15
4180.57 7.6738e-15
4181.35 7.6656e-15
4182.14 7.7149e-15
4182.93 7.8579e-15
4183.72 7.6417e-15
4184.51 7.6158e-15
4185.29 7.726e-15
4186.08 7.5803e-15
4186.87 7.5559e-15
4187.66 7.8284e-15
4188.44 7.5013e-15
4189.23 7.6184e-15
4190.02 7.5606e-15
4190.81 7.3736e-15
4191.59 7.42e-15
4192.38 7.2606e-15
4193.17 7.3214e-15
4193.96 7.3977e-15
4194.75 7.4793e-15
4195.53 7.4536e-15
4196.32 7.4884e-15
4197.11 7.5264e-15
4197.9 7.3432e-15
4198.68 7.3936e-15
4199.47 7.378e-15
4200.26 7.2126e-15
4201.05 7.5283e-15
4201.83 7.4617e-15
4202.62 7.2516e-15
4203.41 7.3109e-15
4204.2 7.3276e-15
4204.99 7.1731e-15
4205.77 7.3876e-15
4206.56 7.4712e-15
4207.35 7.1222e-15
4208.14 7.096e-15
4208.92 7.171e-15
4209.71 7.1637e-15
4210.5 7.0607e-15
4211.29 7.0737e-15
4212.07 6.9982e-15
4212.86 7.0643e-15
4213.65 7.2049e-15
4214.44 7.2368e-15
4215.23 6.8724e-15
4216.01 6.8672e-15
4216.8 6.9975e-15
4217.59 7.3786e-15
4218.38 7.1338e-15
4219.16 7.0525e-15
4219.95 7.0758e-15
4220.74 7.178e-15
4221.53 7.461e-15
4222.31 7.0925e-15
4223.1 7.0625e-15
4223.89 7.3573e-15
4224.68 7.0026e-15
4225.47 7.1106e-15
4226.25 7.1696e-15
4227.04 7.2857e-15
4227.83 7.207e-15
4228.62 7.1101e-15
4229.4 7.1378e-15
4230.19 7.2214e-15
4230.98 7.1335e-15
4231.77 7.0359e-15
4232.55 7.1626e-15
4233.34 7.3085e-15
4234.13 7.245e-15
4234.92 7.45e-15
4235.71 7.4252e-15
4236.49 7.2041e-15
4237.28 7.3802e-15
4238.07 7.162e-15
4238.86 7.3015e-15
4239.64 7.3867e-15
4240.43 7.2263e-15
4241.22 7.2741e-15
4242.01 7.1335e-15
4242.79 7.3101e-15
4243.58 7.2919e-15
4244.37 7.3867e-15
4245.16 7.2752e-15
4245.95 7.3639e-15
4246.73 7.4534e-15
4247.52 7.306e-15
4248.31 7.2054e-15
4249.1 7.3476e-15
4249.88 7.2339e-15
4250.67 7.3865e-15
4251.46 7.4376e-15
4252.25 7.2632e-15
4253.03 7.1769e-15
4253.82 7.4006e-15
4254.61 7.0634e-15
4255.4 7.2231e-15
4256.19 7.2356e-15
4256.97 7.4191e-15
4257.76 7.1865e-15
4258.55 7.4505e-15
4259.34 7.279e-15
4260.12 7.4411e-15
4260.91 7.5147e-15
4261.7 7.3291e-15
4262.49 7.3917e-15
4263.27 7.4094e-15
4264.06 7.3565e-15
4264.85 7.3395e-15
4265.64 7.5725e-15
4266.43 7.4639e-15
4267.21 7.4772e-15
4268.0 7.2878e-15
4268.79 7.5134e-15
4269.58 7.5022e-15
4270.36 7.5562e-15
4271.15 7.6276e-15
4271.94 7.4947e-15
4272.73 7.5091e-15
4273.51 7.5462e-15
4274.3 7.7335e-15
4275.09 7.6876e-15
4275.88 7.6808e-15
4276.67 7.8452e-15
4277.45 7.9807e-15
4278.24 7.9452e-15
4279.03 7.8459e-15
4279.82 7.9657e-15
4280.6 8.1323e-15
4281.39 7.89e-15
4282.18 7.9716e-15
4282.97 8.2976e-15
4283.75 8.4764e-15
4284.54 8.1878e-15
4285.33 8.1434e-15
4286.12 8.3959e-15
4286.91 8.6691e-15
4287.69 8.4437e-15
4288.48 8.281e-15
4289.27 8.4145e-15
4290.06 8.4167e-15
4290.84 8.5314e-15
4291.63 8.6105e-15
4292.42 8.7572e-15
4293.21 9.8093e-15
4293.99 1.0192e-14
4294.78 9.7427e-15
4295.57 8.6046e-15
4296.36 8.5898e-15
4297.15 8.6034e-15
4297.93 8.8188e-15
4298.72 8.825e-15
4299.51 8.7973e-15
4300.3 8.6538e-15
4301.08 8.5222e-15
4301.87 8.5925e-15
4302.66 8.5478e-15
4303.45 8.5896e-15
4304.23 8.6357e-15
4305.02 8.7461e-15
4305.81 8.7242e-15
4306.6 8.6009e-15
4307.39 8.7765e-15
4308.17 8.5625e-15
4308.96 8.6728e-15
4309.75 8.8617e-15
4310.54 8.6339e-15
4311.32 8.94e-15
4312.11 8.8159e-15
4312.9 8.8225e-15
4313.69 8.7285e-15
4314.47 8.7671e-15
4315.26 8.6524e-15
4316.05 8.6686e-15
4316.84 8.9183e-15
4317.63 8.8109e-15
4318.41 8.8604e-15
4319.2 8.7729e-15
4319.99 8.6931e-15
4320.78 8.8031e-15
4321.56 8.7507e-15
4322.35 9.0565e-15
4323.14 9.0161e-15
4323.93 8.9002e-15
4324.71 8.994e-15
4325.5 9.0399e-15
4326.29 8.7286e-15
4327.08 8.8035e-15
4327.87 9.0873e-15
4328.65 9.0254e-15
4329.44 8.8362e-15
4330.23 8.6857e-15
4331.02 9.297e-15
4331.8 8.9023e-15
4332.59 9.1093e-15
4333.38 8.9796e-15
4334.17 9.0477e-15
4334.95 9.287e-15
4335.74 8.803e-15
4336.53 9.0485e-15
4337.32 9.3173e-15
4338.11 9.1251e-15
4338.89 9.17e-15
4339.68 9.2185e-15
4340.47 9.3246e-15
4341.26 9.2994e-15
4342.04 9.0213e-15
4342.83 9.3392e-15
4343.62 9.3696e-15
4344.41 9.2219e-15
4345.19 9.4231e-15
4345.98 9.4737e-15
4346.77 9.3916e-15
4347.56 9.4708e-15
4348.35 9.462e-15
4349.13 9.1656e-15
4349.92 9.453e-15
4350.71 9.22e-15
4351.5 9.1352e-15
4352.28 9.6096e-15
4353.07 9.5031e-15
4353.86 9.4606e-15
4354.65 9.4325e-15
4355.43 9.4443e-15
4356.22 9.4831e-15
4357.01 9.395e-15
4357.8 8.8825e-15
4358.59 7.9984e-15
4359.37 7.0447e-15
4360.16 6.8765e-15
4360.95 6.9778e-15
4361.74 8.2597e-15
4362.52 9.1594e-15
4363.31 9.5163e-15
4364.1 9.3886e-15
4364.89 9.363e-15
4365.67 9.5235e-15
4366.46 9.4561e-15
4367.25 9.5315e-15
4368.04 9.2447e-15
4368.83 9.2769e-15
4369.61 9.3748e-15
4370.4 8.6746e-15
4371.19 6.7498e-15
4371.98 6.1716e-15
4372.76 6.1009e-15
4373.55 6.1536e-15
4374.34 6.4665e-15
4375.13 7.5543e-15
4375.91 9.1084e-15
4376.7 9.343e-15
4377.49 9.417e-15
4378.28 9.0961e-15
4379.07 9.2059e-15
4379.85 9.2251e-15
4380.64 9.1556e-15
4381.43 9.1593e-15
4382.22 9.2547e-15
4383.0 9.2441e-15
4383.79 8.0104e-15
4384.58 6.8843e-15
4385.37 6.7279e-15
4386.15 6.7747e-15
4386.94 8.2108e-15
4387.73 9.0606e-15
4388.52 8.9746e-15
4389.31 9.0032e-15
4390.09 8.7993e-15
4390.88 8.8248e-15
4391.67 8.8905e-15
4392.46 8.7899e-15
4393.24 8.726e-15
4394.03 8.5965e-15
4394.82 8.6507e-15
4395.61 8.6301e-15
4396.39 8.4996e-15
4397.18 8.7318e-15
4397.97 8.3796e-15
4398.76 8.154e-15
4399.55 8.3329e-15
4400.33 8.4742e-15
4401.12 8.4032e-15
4401.91 8.1848e-15
4402.7 8.1201e-15
4403.48 8.2512e-15
4404.27 8.3624e-15
4405.06 8.2773e-15
4405.85 8.1776e-15
4406.63 8.1831e-15
4407.42 8.1566e-15
4408.21 8.141e-15
4409.0 7.9795e-15
4409.79 8.0187e-15
4410.57 7.864e-15
4411.36 7.972e-15
4412.15 7.7796e-15
4412.94 7.7271e-15
4413.72 7.7437e-15
4414.51 7.8285e-15
4415.3 7.5499e-15
4416.09 7.4394e-15
4416.87 7.4552e-15
4417.66 7.7888e-15
4418.45 7.7567e-15
4419.24 7.6295e-15
4420.03 7.6016e-15
4420.81 7.7446e-15
4421.6 7.7992e-15
4422.39 7.505e-15
4423.18 7.4898e-15
4423.96 7.4255e-15
4424.75 7.1837e-15
4425.54 7.2529e-15
4426.33 7.365e-15
4427.11 7.2685e-15
4427.9 7.4092e-15
4428.69 7.4383e-15
4429.48 7.3535e-15
4430.27 7.281e-15
4431.05 7.2659e-15
4431.84 7.2245e-15
4432.63 7.1871e-15
4433.42 7.1996e-15
4434.2 7.1086e-15
4434.99 7.1493e-15
4435.78 7.1584e-15
4436.57 7.1097e-15
4437.35 7.1653e-15
4438.14 7.3716e-15
4438.93 7.1029e-15
4439.72 7.1974e-15
4440.51 7.1615e-15
4441.29 6.9816e-15
4442.08 7.1755e-15
4442.87 7.35e-15
4443.66 7.1068e-15
4444.44 7.1662e-15
4445.23 7.1309e-15
4446.02 7.2469e-15
4446.81 7.3962e-15
4447.59 7.1648e-15
4448.38 7.223e-15
4449.17 7.2657e-15
4449.96 7.2946e-15
4450.75 7.3928e-15
4451.53 7.197e-15
4452.32 7.5037e-15
4453.11 7.4762e-15
4453.9 7.3352e-15
4454.68 7.3452e-15
4455.47 7.3396e-15
4456.26 7.4546e-15
4457.05 7.587e-15
4457.83 7.5928e-15
4458.62 7.6519e-15
4459.41 7.5062e-15
4460.2 7.5402e-15
4460.99 7.6643e-15
4461.77 7.6451e-15
4462.56 7.6484e-15
4463.35 7.6598e-15
4464.14 7.678e-15
4464.92 7.7528e-15
4465.71 7.6396e-15
4466.5 8.1234e-15
4467.29 8.0385e-15
4468.07 8.0652e-15
4468.86 8.0203e-15
4469.65 8.0098e-15
4470.44 7.931e-15
4471.23 8.0015e-15
4472.01 7.9576e-15
4472.8 8.2479e-15
4473.59 8.3144e-15
4474.38 8.2985e-15
4475.16 8.3145e-15
4475.95 8.4511e-15
4476.74 8.4592e-15
4477.53 8.4781e-15
4478.31 8.4686e-15
4479.1 8.6784e-15
4479.89 8.6764e-15
4480.68 8.7514e-15
4481.47 8.8307e-15
4482.25 8.7256e-15
4483.04 9.1465e-15
4483.83 9.2527e-15
4484.62 8.9686e-15
4485.4 9.111e-15
4486.19 9.398e-15
4486.98 9.2226e-15
4487.77 9.2094e-15
4488.55 9.342e-15
4489.34 9.4318e-15
4490.13 9.5604e-15
4490.92 9.7388e-15
4491.71 9.7144e-15
4492.49 9.8371e-15
4493.28 9.7861e-15
4494.07 9.6744e-15
4494.86 1.001e-14
4495.64 1.0035e-14
4496.43 1.0353e-14
4497.22 1.0248e-14
4498.01 1.0045e-14
4498.79 1.042e-14
4499.58 1.0634e-14
4500.37 1.0586e-14
4501.16 1.0686e-14
4501.95 1.0675e-14
4502.73 1.0845e-14
4503.52 1.0789e-14
4504.31 1.101e-14
4505.1 1.1238e-14
4505.88 1.1092e-14
4506.67 1.1183e-14
4507.46 1.1206e-14
4508.25 1.1122e-14
4509.03 1.1352e-14
4509.82 1.1334e-14
4510.61 1.1459e-14
4511.4 1.1385e-14
4512.19 1.1725e-14
4512.97 1.1788e-14
4513.76 1.1696e-14
4514.55 1.1657e-14
4515.34 1.1704e-14
4516.12 1.1669e-14
4516.91 1.1904e-14
4517.7 1.2157e-14
4518.49 1.1988e-14
4519.27 1.1962e-14
4520.06 1.2042e-14
4520.85 1.1961e-14
4521.64 1.2305e-14
4522.43 1.1972e-14
4523.21 1.2053e-14
4524.0 1.2121e-14
4524.79 1.2312e-14
4525.58 1.2225e-14
4526.36 1.2163e-14
4527.15 1.234e-14
4527.94 1.2231e-14
4528.73 1.2434e-14
4529.51 1.267e-14
4530.3 1.2518e-14
4531.09 1.2538e-14
4531.88 1.2461e-14
4532.67 1.2677e-14
4533.45 1.2929e-14
4534.24 1.2741e-14
4535.03 1.2602e-14
4535.82 1.2674e-14
4536.6 1.2964e-14
4537.39 1.2858e-14
4538.18 1.2896e-14
4538.97 1.2939e-14
4539.76 1.2635e-14
4540.54 1.2639e-14
4541.33 1.2797e-14
4542.12 1.2945e-14
4542.91 1.2904e-14
4543.69 1.2989e-14
4544.48 1.3373e-14
4545.27 1.3327e-14
4546.06 1.314e-14
4546.84 1.3068e-14
4547.63 1.3422e-14
4548.42 1.3397e-14
4549.21 1.3284e-14
4550.0 1.3212e-14
4550.78 1.3258e-14
4551.57 1.3368e-14
4552.36 1.337e-14
4553.15 1.3409e-14
4553.93 1.355e-14
4554.72 1.3476e-14
4555.51 1.3921e-14
4556.3 1.3747e-14
4557.08 1.3535e-14
4557.87 1.3684e-14
4558.66 1.3786e-14
4559.45 1.4166e-14
4560.24 1.3877e-14
4561.02 1.3863e-14
4561.81 1.3928e-14
4562.6 1.4144e-14
4563.39 1.409e-14
4564.17 1.4201e-14
4564.96 1.418e-14
4565.75 1.4161e-14
4566.54 1.413e-14
4567.32 1.4222e-14
4568.11 1.4294e-14
4568.9 1.4442e-14
4569.69 1.4271e-14
4570.48 1.4693e-14
4571.26 1.4911e-14
4572.05 1.4724e-14
4572.84 1.4703e-14
4573.63 1.4719e-14
4574.41 1.4898e-14
4575.2 1.4909e-14
4575.99 1.5086e-14
4576.78 1.5164e-14
4577.56 1.5254e-14
4578.35 1.5347e-14
4579.14 1.5405e-14
4579.93 1.5769e-14
4580.72 1.5442e-14
4581.5 1.5652e-14
4582.29 1.5869e-14
4583.08 1.5756e-14
4583.87 1.5806e-14
4584.65 1.5682e-14
4585.44 1.5679e-14
4586.23 1.5988e-14
4587.02 1.6179e-14
4587.8 1.6231e-14
4588.59 1.6245e-14
4589.38 1.6358e-14
4590.17 1.6491e-14
4590.96 1.6446e-14
4591.74 1.658e-14
4592.53 1.6569e-14
4593.32 1.6505e-14
4594.11 1.6559e-14
4594.89 1.6765e-14
4595.68 1.6759e-14
4596.47 1.6743e-14
4597.26 1.678e-14
4598.04 1.6761e-14
4598.83 1.6746e-14
4599.62 1.676e-14
4600.41 1.6913e-14
4601.2 1.6984e-14
4601.98 1.6932e-14
4602.77 1.6727e-14
4603.56 1.7247e-14
4604.35 1.7116e-14
4605.13 1.7e-14
4605.92 1.6983e-14
4606.71 1.6904e-14
4607.5 1.708e-14
4608.28 1.7127e-14
4609.07 1.7142e-14
4609.86 1.6932e-14
4610.65 1.6901e-14
4611.44 1.7089e-14
4612.22 1.6999e-14
4613.01 1.6921e-14
4613.8 1.6759e-14
4614.59 1.6734e-14
4615.37 1.689e-14
4616.16 1.7003e-14
4616.95 1.6987e-14
4617.74 1.6886e-14
4618.52 1.6811e-14
4619.31 1.6932e-14
4620.1 1.685e-14
4620.89 1.6772e-14
4621.68 1.683e-14
4622.46 1.6532e-14
4623.25 1.6651e-14
4624.04 1.6374e-14
4624.83 1.6439e-14
4625.61 1.668e-14
4626.4 1.6259e-14
4627.19 1.6316e-14
4627.98 1.6199e-14
4628.76 1.6026e-14
4629.55 1.6142e-14
4630.34 1.6129e-14
4631.13 1.6074e-14
4631.92 1.5887e-14
4632.7 1.562e-14
4633.49 1.5838e-14
4634.28 1.5729e-14
4635.07 1.5658e-14
4635.85 1.5821e-14
4636.64 1.5568e-14
4637.43 1.5575e-14
4638.22 1.5622e-14
4639.0 1.5621e-14
4639.79 1.5425e-14
4640.58 1.5375e-14
4641.37 1.5212e-14
4642.16 1.5231e-14
4642.94 1.5187e-14
4643.73 1.5043e-14
4644.52 1.4853e-14
4645.31 1.4957e-14
4646.09 1.4924e-14
4646.88 1.4743e-14
4647.67 1.4627e-14
4648.46 1.4649e-14
4649.24 1.4437e-14
4650.03 1.447e-14
4650.82 1.4334e-14
4651.61 1.4496e-14
4652.4 1.4194e-14
4653.18 1.4101e-14
4653.97 1.4363e-14
4654.76 1.3975e-14
4655.55 1.3927e-14
4656.33 1.3918e-14
4657.12 1.3884e-14
4657.91 1.3821e-14
4658.7 1.3793e-14
4659.48 1.3877e-14
4660.27 1.3868e-14
4661.06 1.3771e-14
4661.85 1.3788e-14
4662.64 1.3766e-14
4663.42 1.3585e-14
4664.21 1.3413e-14
4665.0 1.3318e-14
4665.79 1.3526e-14
4666.57 1.3477e-14
4667.36 1.3372e-14
4668.15 1.3307e-14
4668.94 1.3106e-14
4669.72 1.3207e-14
4670.51 1.3372e-14
4671.3 1.3228e-14
4672.09 1.3288e-14
4672.88 1.3085e-14
4673.66 1.3027e-14
4674.45 1.3007e-14
4675.24 1.2943e-14
4676.03 1.2842e-14
4676.81 1.2908e-14
4677.6 1.2938e-14
4678.39 1.2842e-14
4679.18 1.2799e-14
4679.96 1.2584e-14
4680.75 1.2505e-14
4681.54 1.2431e-14
4682.33 1.2522e-14
4683.12 1.2562e-14
4683.9 1.2421e-14
4684.69 1.2063e-14
4685.48 1.2489e-14
4686.27 1.2487e-14
4687.05 1.2018e-14
4687.84 1.2203e-14
4688.63 1.2184e-14
4689.42 1.1972e-14
4690.2 1.2027e-14
4690.99 1.1972e-14
4691.78 1.1807e-14
4692.57 1.1804e-14
4693.36 1.1764e-14
4694.14 1.1708e-14
4694.93 1.1672e-14
4695.72 1.1457e-14
4696.51 1.1319e-14
4697.29 1.1291e-14
4698.08 1.135e-14
4698.87 1.1411e-14
4699.66 1.1192e-14
4700.44 1.1123e-14
4701.23 1.0945e-14
4702.02 1.0693e-14
4702.81 1.0631e-14
4703.6 1.0737e-14
4704.38 1.0866e-14
4705.17 1.0751e-14
4705.96 1.0656e-14
4706.75 1.0634e-14
4707.53 1.0646e-14
4708.32 1.0544e-14
4709.11 1.0471e-14
4709.9 1.0437e-14
4710.68 1.0272e-14
4711.47 1.0404e-14
4712.26 1.0472e-14
4713.05 1.029e-14
4713.84 1.0163e-14
4714.62 1.0094e-14
4715.41 1.0104e-14
4716.2 1.0038e-14
4716.99 9.9893e-15
4717.77 1.0033e-14
4718.56 9.8404e-15
4719.35 9.8663e-15
4720.14 9.7675e-15
4720.92 9.7521e-15
4721.71 9.729e-15
4722.5 9.6025e-15
4723.29 9.4308e-15
4724.08 9.5016e-15
4724.86 9.4211e-15
4725.65 9.5298e-15
4726.44 9.326e-15
4727.23 9.3293e-15
4728.01 9.4137e-15
4728.8 9.2875e-15
4729.59 9.2436e-15
4730.38 9.0816e-15
4731.16 9.1949e-15
4731.95 9.291e-15
4732.74 9.0426e-15
4733.53 8.9484e-15
4734.32 8.8512e-15
4735.1 8.8419e-15
4735.89 8.9842e-15
4736.68 8.8109e-15
4737.47 8.7163e-15
4738.25 8.7567e-15
4739.04 8.8241e-15
4739.83 8.7447e-15
4740.62 8.9075e-15
4741.4 8.8157e-15
4742.19 8.6945e-15
4742.98 8.754e-15
4743.77 8.8855e-15
4744.56 8.8346e-15
4745.34 8.6479e-15
4746.13 8.7815e-15
4746.92 8.7591e-15
4747.71 8.7648e-15
4748.49 8.9154e-15
4749.28 8.6529e-15
4750.07 8.6977e-15
4750.86 8.9211e-15
4751.64 9.0802e-15
4752.43 8.8496e-15
4753.22 8.9308e-15
4754.01 8.8896e-15
4754.8 8.9826e-15
4755.58 9.0569e-15
4756.37 9.1256e-15
4757.16 9.198e-15
4757.95 9.1975e-15
4758.73 9.1249e-15
4759.52 9.1329e-15
4760.31 9.3985e-15
4761.1 9.3206e-15
4761.88 9.3642e-15
4762.67 9.4095e-15
4763.46 9.5033e-15
4764.25 9.4017e-15
4765.04 9.5463e-15
4765.82 9.8611e-15
4766.61 9.8222e-15
4767.4 9.8761e-15
4768.19 9.9139e-15
4768.97 1.0133e-14
4769.76 1.0196e-14
4770.55 1.0093e-14
4771.34 1.0214e-14
4772.12 1.0308e-14
4772.91 1.0432e-14
4773.7 1.0519e-14
4774.49 1.0706e-14
4775.28 1.0663e-14
4776.06 1.0753e-14
4776.85 1.0926e-14
4777.64 1.1022e-14
4778.43 1.0873e-14
4779.21 1.0852e-14
4780.0 1.0942e-14
4780.79 1.1152e-14
4781.58 1.1164e-14
4782.36 1.1378e-14
4783.15 9.8806e-15
4783.94 9.5924e-15
4784.73 8.2801e-15
4785.52 8.7267e-15
4786.3 1.0596e-14
4787.09 1.1506e-14
4787.88 1.1902e-14
4788.67 1.177e-14
4789.45 1.1987e-14
4790.24 1.2065e-14
4791.03 1.1958e-14
4791.82 1.2169e-14
4792.6 1.2214e-14
4793.39 1.2185e-14
4794.18 1.2239e-14
4794.97 1.2245e-14
4795.76 1.2456e-14
4796.54 1.247e-14
4797.33 1.2562e-14
4798.12 1.2468e-14
4798.91 1.2465e-14
4799.69 1.2327e-14
4800.48 1.2234e-14
4801.27 1.2522e-14
4802.06 1.2687e-14
4802.84 1.2622e-14
4803.63 1.2645e-14
4804.42 1.2559e-14
4805.21 1.2617e-14
4806.0 1.2735e-14
4806.78 1.2885e-14
4807.57 1.2818e-14
4808.36 1.2586e-14
4809.15 1.2804e-14
4809.93 1.3014e-14
4810.72 1.2807e-14
4811.51 1.2855e-14
4812.3 1.278e-14
4813.08 1.29e-14
4813.87 1.2771e-14
4814.66 1.2839e-14
4815.45 1.306e-14
4816.24 1.3122e-14
4817.02 1.3094e-14
4817.81 1.2855e-14
4818.6 1.3142e-14
4819.39 1.2831e-14
4820.17 1.296e-14
4820.96 1.3051e-14
4821.75 1.3386e-14
4822.54 1.3271e-14
4823.32 1.3297e-14
4824.11 1.3337e-14
4824.9 1.3145e-14
4825.69 1.3483e-14
4826.48 1.3479e-14
4827.26 1.3529e-14
4828.05 1.3355e-14
4828.84 1.3387e-14
4829.63 1.3641e-14
4830.41 1.3734e-14
4831.2 1.3961e-14
4831.99 1.3859e-14
4832.78 1.3946e-14
4833.56 1.406e-14
4834.35 1.4244e-14
4835.14 1.4372e-14
4835.93 1.4199e-14
4836.72 1.4148e-14
4837.5 1.4283e-14
4838.29 1.4415e-14
4839.08 1.473e-14
4839.87 1.4582e-14
4840.65 1.4664e-14
4841.44 1.4816e-14
4842.23 1.5045e-14
4843.02 1.5153e-14
4843.8 1.4944e-14
4844.59 1.5011e-14
4845.38 1.5313e-14
4846.17 1.5324e-14
4846.96 1.541e-14
4847.74 1.5442e-14
4848.53 1.5629e-14
4849.32 1.579e-14
4850.11 1.5637e-14
4850.89 1.5506e-14
4851.68 1.5756e-14
4852.47 1.5928e-14
4853.26 1.5733e-14
4854.04 1.578e-14
4854.83 1.5844e-14
4855.62 1.5694e-14
4856.41 1.5852e-14
4857.2 1.5985e-14
4857.98 1.5778e-14
4858.77 1.5898e-14
4859.56 1.5992e-14
4860.35 1.5963e-14
4861.13 1.5765e-14
4861.92 1.6017e-14
4862.71 1.582e-14
4863.5 1.5935e-14
4864.28 1.5813e-14
4865.07 1.5903e-14
4865.86 1.5898e-14
4866.65 1.5614e-14
4867.44 1.578e-14
4868.22 1.5658e-14
4869.01 1.5597e-14
4869.8 1.5584e-14
4870.59 1.5766e-14
4871.37 1.5594e-14
4872.16 1.5656e-14
4872.95 1.5413e-14
4873.74 1.5407e-14
4874.52 1.5177e-14
4875.31 1.5161e-14
4876.1 1.5265e-14
4876.89 1.5016e-14
4877.68 1.4803e-14
4878.46 1.4911e-14
4879.25 1.5015e-14
4880.04 1.4983e-14
4880.83 1.4792e-14
4881.61 1.4548e-14
4882.4 1.4793e-14
4883.19 1.4627e-14
4883.98 1.4495e-14
4884.76 1.4542e-14
4885.55 1.4524e-14
4886.34 1.4301e-14
4887.13 1.4125e-14
4887.92 1.41e-14
4888.7 1.4075e-14
4889.49 1.39e-14
4890.28 1.3947e-14
4891.07 1.3934e-14
4891.85 1.3737e-14
4892.64 1.3691e-14
4893.43 1.3584e-14
4894.22 1.3395e-14
4895.0 1.3588e-14
4895.79 1.3674e-14
4896.58 1.3556e-14
4897.37 1.3265e-14
4898.16 1.3227e-14
4898.94 1.3166e-14
4899.73 1.2996e-14
4900.52 1.3008e-14
4901.31 1.2791e-14
4902.09 1.3016e-14
4902.88 1.312e-14
4903.67 1.2923e-14
4904.46 1.2834e-14
4905.24 1.2724e-14
4906.03 1.2676e-14
4906.82 1.2719e-14
4907.61 1.2573e-14
4908.4 1.2596e-14
4909.18 1.2697e-14
4909.97 1.2672e-14
4910.76 1.2539e-14
4911.55 1.2525e-14
4912.33 1.2739e-14
4913.12 1.2519e-14
4913.91 1.2671e-14
4914.7 1.2584e-14
4915.48 1.2685e-14
4916.27 1.2385e-14
4917.06 1.2666e-14
4917.85 1.2659e-14
4918.64 1.2737e-14
4919.42 1.2503e-14
4920.21 1.27e-14
4921.0 1.2658e-14
4921.79 1.2805e-14
4922.57 1.2854e-14
4923.36 1.3011e-14
4924.15 1.3173e-14
4924.94 1.3117e-14
4925.72 1.3114e-14
4926.51 1.3163e-14
4927.3 1.324e-14
4928.09 1.3232e-14
4928.88 1.3312e-14
4929.66 1.3408e-14
4930.45 1.3462e-14
4931.24 1.338e-14
4932.03 1.3671e-14
4932.81 1.3614e-14
4933.6 1.3854e-14
4934.39 1.3923e-14
4935.18 1.4014e-14
4935.96 1.4067e-14
4936.75 1.4109e-14
4937.54 1.4048e-14
4938.33 1.4136e-14
4939.12 1.4236e-14
4939.9 1.443e-14
4940.69 1.4483e-14
4941.48 1.4487e-14
4942.27 1.4654e-14
4943.05 1.4477e-14
4943.84 1.4725e-14
4944.63 1.4825e-14
4945.42 1.4555e-14
4946.2 1.4866e-14
4946.99 1.4829e-14
4947.78 1.4851e-14
4948.57 1.4972e-14
4949.36 1.4795e-14
4950.14 1.5082e-14
4950.93 1.5221e-14
4951.72 1.5181e-14
4952.51 1.498e-14
4953.29 1.5147e-14
4954.08 1.522e-14
4954.87 1.5112e-14
4955.66 1.4825e-14
4956.44 1.5096e-14
4957.23 1.5274e-14
4958.02 1.527e-14
4958.81 1.5269e-14
4959.6 1.5288e-14
4960.38 1.5318e-14
4961.17 1.5351e-14
4961.96 1.5329e-14
4962.75 1.5351e-14
4963.53 1.5356e-14
4964.32 1.5312e-14
4965.11 1.5522e-14
4965.9 1.5412e-14
4966.68 1.5407e-14
4967.47 1.5394e-14
4968.26 1.5467e-14
4969.05 1.5515e-14
4969.84 1.5647e-14
4970.62 1.5633e-14
4971.41 1.5556e-14
4972.2 1.5453e-14
4972.99 1.5645e-14
4973.77 1.5817e-14
4974.56 1.5816e-14
4975.35 1.5768e-14
4976.14 1.5772e-14
4976.92 1.5789e-14
4977.71 1.5651e-14
4978.5 1.5786e-14
4979.29 1.5739e-14
4980.08 1.5943e-14
4980.86 1.5786e-14
4981.65 1.5609e-14
4982.44 1.5679e-14
4983.23 1.5805e-14
4984.01 1.5653e-14
4984.8 1.5495e-14
4985.59 1.5785e-14
4986.38 1.5696e-14
4987.16 1.5619e-14
4987.95 1.543e-14
4988.74 1.5575e-14
4989.53 1.5578e-14
4990.32 1.5461e-14
4991.1 1.5385e-14
4991.89 1.5328e-14
4992.68 1.5431e-14
4993.47 1.5353e-14
4994.25 1.5191e-14
4995.04 1.5247e-14
4995.83 1.526e-14
4996.62 1.5019e-14
4997.4 1.4988e-14
4998.19 1.5015e-14
4998.98 1.4789e-14
4999.77 1.4859e-14
5000.56 1.4689e-14
5001.34 1.4584e-14
5002.13 1.4471e-14
5002.92 1.4473e-14
5003.71 1.4587e-14
5004.49 1.4053e-14
5005.28 1.4364e-14
5006.07 1.4274e-14
5006.86 1.4121e-14
5007.64 1.4038e-14
5008.43 1.3912e-14
5009.22 1.3718e-14
5010.01 1.3634e-14
5010.8 1.3768e-14
5011.58 1.3546e-14
5012.37 1.3475e-14
5013.16 1.3395e-14
5013.95 1.3363e-14
5014.73 1.3251e-14
5015.52 1.2904e-14
5016.31 1.2858e-14
5017.1 1.2757e-14
5017.88 1.2667e-14
5018.67 1.2559e-14
5019.46 1.245e-14
5020.25 1.2526e-14
5021.04 1.2428e-14
5021.82 1.2656e-14
5022.61 1.2676e-14
5023.4 1.2456e-14
5024.19 1.2153e-14
5024.97 1.2021e-14
5025.76 1.2135e-14
5026.55 1.2523e-14
5027.34 1.2422e-14
5028.12 1.2163e-14
5028.91 1.1921e-14
5029.7 1.1805e-14
5030.49 1.196e-14
5031.28 1.1629e-14
5032.06 1.1404e-14
5032.85 1.1214e-14
5033.64 1.0885e-14
5034.43 1.082e-14
5035.21 1.0675e-14
5036.0 1.0548e-14
5036.79 1.055e-14
5037.58 1.0499e-14
5038.36 1.0411e-14
5039.15 1.0562e-14
5039.94 1.0415e-14
5040.73 1.0448e-14
5041.52 1.0262e-14
5042.3 1.0049e-14
5043.09 9.9856e-15
5043.88 1.0049e-14
5044.67 1.005e-14
5045.45 9.8907e-15
5046.24 9.8962e-15
5047.03 1.006e-14
5047.82 9.763e-15
5048.6 9.7128e-15
5049.39 9.7283e-15
5050.18 9.7187e-15
5050.97 9.5689e-15
5051.76 9.5337e-15
5052.54 9.514e-15
5053.33 9.5207e-15
5054.12 9.4222e-15
5054.91 9.4262e-15
5055.69 9.5635e-15
5056.48 9.4117e-15
5057.27 9.281e-15
5058.06 9.3569e-15
5058.84 9.2348e-15
5059.63 9.3443e-15
5060.42 9.319e-15
5061.21 9.3643e-15
5062.0 9.1058e-15
5062.78 9.0359e-15
5063.57 9.2257e-15
5064.36 9.0768e-15
5065.15 9.0253e-15
5065.93 9.0812e-15
5066.72 9.1274e-15
5067.51 9.2616e-15
5068.3 9.293e-15
5069.08 9.1479e-15
5069.87 9.1111e-15
5070.66 9.0493e-15
5071.45 9.2147e-15
5072.24 9.1725e-15
5073.02 9.1247e-15
5073.81 9.1032e-15
5074.6 9.1699e-15
5075.39 9.3219e-15
5076.17 9.2762e-15
5076.96 9.1763e-15
5077.75 9.3674e-15
5078.54 9.158e-15
5079.32 8.9149e-15
5080.11 7.1783e-15
5080.9 6.8581e-15
5081.69 6.8675e-15
5082.48 8.1858e-15
5083.26 9.4119e-15
5084.05 9.5728e-15
5084.84 9.6016e-15
5085.63 9.6765e-15
5086.41 9.6734e-15
5087.2 9.6652e-15
5087.99 9.8511e-15
5088.78 9.9431e-15
5089.56 9.9077e-15
5090.35 1.0072e-14
5091.14 9.9264e-15
5091.93 1.0005e-14
5092.72 9.9594e-15
5093.5 1.012e-14
5094.29 1.0101e-14
5095.08 1.014e-14
5095.87 1.0065e-14
5096.65 1.0213e-14
5097.44 1.0371e-14
5098.23 1.0264e-14
5099.02 1.0316e-14
5099.8 1.0421e-14
5100.59 1.0434e-14
5101.38 1.0487e-14
5102.17 1.0718e-14
5102.96 1.0633e-14
5103.74 1.067e-14
5104.53 1.0691e-14
5105.32 1.0619e-14
5106.11 1.0735e-14
5106.89 1.0911e-14
5107.68 1.0848e-14
5108.47 1.0911e-14
5109.26 1.0887e-14
5110.04 1.1119e-14
5110.83 1.1061e-14
5111.62 1.103e-14
5112.41 1.1175e-14
5113.2 1.1216e-14
5113.98 1.1211e-14
5114.77 1.1141e-14
5115.56 1.131e-14
5116.35 1.1242e-14
5117.13 1.1216e-14
5117.92 1.1185e-14
5118.71 1.1293e-14
5119.5 1.1395e-14
5120.28 1.1509e-14
5121.07 1.1569e-14
5121.86 1.1152e-14
5122.65 1.1378e-14
5123.44 1.1575e-14
5124.22 1.1658e-14
5125.01 1.1579e-14
5125.8 1.1534e-14
5126.59 1.1727e-14
5127.37 1.1758e-14
5128.16 1.1692e-14
5128.95 1.1805e-14
5129.74 1.1843e-14
5130.52 1.1856e-14
5131.31 1.1816e-14
5132.1 1.1915e-14
5132.89 1.1954e-14
5133.68 1.1763e-14
5134.46 1.2024e-14
5135.25 1.1937e-14
5136.04 1.1997e-14
5136.83 1.2228e-14
5137.61 1.2229e-14
5138.4 1.1502e-14
5139.19 1.2045e-14
5139.98 1.1708e-14
5140.76 1.2159e-14
5141.55 1.212e-14
5142.34 1.2172e-14
5143.13 1.2008e-14
5143.92 1.2356e-14
5144.7 1.2365e-14
5145.49 1.2364e-14
5146.28 1.2209e-14
5147.07 1.2101e-14
5147.85 1.2284e-14
5148.64 1.232e-14
5149.43 1.225e-14
5150.22 1.2312e-14
5151.0 1.2373e-14
5151.79 1.2364e-14
5152.58 1.2384e-14
5153.37 1.2263e-14
5154.16 1.2273e-14
5154.94 1.2454e-14
5155.73 1.244e-14
5156.52 1.2387e-14
5157.31 1.2161e-14
5158.09 1.2232e-14
5158.88 1.2188e-14
5159.67 1.229e-14
5160.46 1.2274e-14
5161.24 1.2206e-14
5162.03 1.2383e-14
5162.82 1.237e-14
5163.61 1.2428e-14
5164.4 1.2283e-14
5165.18 1.2265e-14
5165.97 1.2341e-14
5166.76 1.2253e-14
5167.55 1.2291e-14
5168.33 1.2211e-14
5169.12 1.2317e-14
5169.91 1.2315e-14
5170.7 1.2393e-14
5171.48 1.2421e-14
5172.27 1.2378e-14
5173.06 1.2121e-14
5173.85 1.2304e-14
5174.64 1.2301e-14
5175.42 1.2297e-14
5176.21 1.226e-14
5177.0 1.2513e-14
5177.79 1.2392e-14
5178.57 1.2323e-14
5179.36 1.233e-14
5180.15 1.2348e-14
5180.94 1.2372e-14
5181.72 1.2227e-14
5182.51 1.2302e-14
5183.3 1.2359e-14
5184.09 1.2461e-14
5184.88 1.2426e-14
5185.66 1.2318e-14
5186.45 1.2347e-14
5187.24 1.2325e-14
5188.03 1.237e-14
5188.81 1.2433e-14
5189.6 1.2336e-14
5190.39 1.2273e-14
5191.18 1.2326e-14
5191.96 1.2393e-14
5192.75 1.2289e-14
5193.54 1.2273e-14
5194.33 1.2301e-14
5195.12 1.2199e-14
5195.9 1.2215e-14
5196.69 1.2176e-14
5197.48 1.2288e-14
5198.27 1.2268e-14
5199.05 1.2365e-14
5199.84 1.2278e-14
5200.63 1.2176e-14
5201.42 1.2405e-14
5202.2 1.2171e-14
5202.99 1.2289e-14
5204.57 1.2266e-14
5205.36 1.2298e-14
5206.14 1.2293e-14
5206.93 1.2365e-14
5207.72 1.2203e-14
5208.51 1.2214e-14
5209.29 1.2256e-14
5210.08 1.2252e-14
5210.87 1.2307e-14
5211.66 1.2378e-14
5212.44 1.2355e-14
5213.23 1.248e-14
5214.02 1.2479e-14
5214.81 1.2483e-14
5215.6 1.2449e-14
5216.38 1.2481e-14
5217.17 1.2456e-14
5217.96 1.2502e-14
5218.75 1.2579e-14
5219.53 1.2652e-14
5220.32 1.2583e-14
5221.11 1.2662e-14
5221.9 1.2613e-14
5222.69 1.2719e-14
5223.47 1.2523e-14
5224.26 1.2796e-14
5225.05 1.2855e-14
5225.84 1.2782e-14
5226.62 1.2721e-14
5227.41 1.2784e-14
5228.2 1.2897e-14
5228.99 1.2934e-14
5229.77 1.3057e-14
5230.56 1.2815e-14
5231.35 1.2897e-14
5232.14 1.313e-14
5232.93 1.3155e-14
5233.71 1.3096e-14
5234.5 1.3147e-14
5235.29 1.3208e-14
5236.08 1.3185e-14
5236.86 1.3209e-14
5237.65 1.3315e-14
5238.44 1.3273e-14
5239.23 1.3568e-14
5240.01 1.3515e-14
5240.8 1.3445e-14
5241.59 1.3497e-14
5242.38 1.3565e-14
5243.17 1.3688e-14
5243.95 1.3663e-14
5244.74 1.3603e-14
5245.53 1.3539e-14
5246.32 1.3629e-14
5247.1 1.3902e-14
5247.89 1.3798e-14
5248.68 1.3674e-14
5249.47 1.373e-14
5250.25 1.3839e-14
5251.04 1.3817e-14
5251.83 1.3693e-14
5252.62 1.3985e-14
5253.41 1.377e-14
5254.19 1.3954e-14
5254.98 1.3971e-14
5255.77 1.3911e-14
5256.56 1.4026e-14
5257.34 1.4043e-14
5258.13 1.4176e-14
5258.92 1.4218e-14
5259.71 1.4099e-14
5260.49 1.3975e-14
5261.28 1.4233e-14
5262.07 1.4113e-14
5262.86 1.4114e-14
5263.65 1.4067e-14
5264.43 1.4368e-14
5265.22 1.4244e-14
5266.01 1.4258e-14
5266.8 1.4535e-14
5267.58 1.4465e-14
5268.37 1.4396e-14
5269.16 1.4573e-14
5269.95 1.4383e-14
5270.73 1.4329e-14
5271.52 1.4462e-14
5272.31 1.4512e-14
5273.1 1.4566e-14
5273.89 1.4593e-14
5274.67 1.4644e-14
5275.46 1.4672e-14
5276.25 1.4626e-14
5277.04 1.4636e-14
5277.82 1.4908e-14
5278.61 1.4802e-14
5279.4 1.4873e-14
5280.19 1.4801e-14
5280.97 1.4769e-14
5281.76 1.4985e-14
5282.55 1.4956e-14
5283.34 1.4998e-14
5284.13 1.4862e-14
5284.91 1.4964e-14
5285.7 1.4842e-14
5286.49 1.4895e-14
5287.28 1.4852e-14
5288.06 1.4839e-14
5288.85 1.4939e-14
5289.64 1.4961e-14
5290.43 1.4957e-14
5291.21 1.5036e-14
5292.0 1.5027e-14
5292.79 1.5077e-14
5293.58 1.4878e-14
5294.37 1.4732e-14
5295.15 1.4778e-14
5295.94 1.4932e-14
5296.73 1.4877e-14
5297.52 1.5057e-14
5298.3 1.5061e-14
5299.09 1.4952e-14
5299.88 1.4945e-14
5300.67 1.5059e-14
5301.45 1.4937e-14
5302.24 1.4894e-14
5303.03 1.4782e-14
5303.82 1.4973e-14
5304.61 1.4896e-14
5305.39 1.472e-14
5306.18 1.5039e-14
5306.97 1.5145e-14
5307.76 1.49e-14
5308.54 1.4989e-14
5309.33 1.4993e-14
5310.12 1.4864e-14
5310.91 1.4934e-14
5311.69 1.4917e-14
5312.48 1.4929e-14
5313.27 1.5013e-14
5314.06 1.495e-14
5314.85 1.5066e-14
5315.63 1.4982e-14
5316.42 1.4936e-14
5317.21 1.5055e-14
5318.0 1.5021e-14
5318.78 1.4867e-14
5319.57 1.499e-14
5320.36 1.5148e-14
5321.15 1.5429e-14
5321.93 1.5074e-14
5322.72 1.5114e-14
5323.51 1.4975e-14
5324.3 1.515e-14
5325.09 1.5078e-14
5325.87 1.5219e-14
5326.66 1.5108e-14
5327.45 1.534e-14
5328.24 1.5099e-14
5329.02 1.5081e-14
5329.81 1.5142e-14
5330.6 1.514e-14
5331.39 1.5308e-14
5332.17 1.5353e-14
5332.96 1.5559e-14
5333.75 1.5394e-14
5334.54 1.5422e-14
5335.33 1.5206e-14
5336.11 1.5329e-14
5336.9 1.5547e-14
5337.69 1.5602e-14
5338.48 1.5362e-14
5339.26 1.5387e-14
5340.05 1.5615e-14
5340.84 1.5385e-14
5341.63 1.5445e-14
5342.41 1.555e-14
5343.2 1.5614e-14
5343.99 1.5813e-14
5344.78 1.5548e-14
5345.57 1.5573e-14
5346.35 1.57e-14
5347.14 1.5867e-14
5347.93 1.5665e-14
5348.72 1.562e-14
5349.5 1.5634e-14
5350.29 1.5611e-14
5351.08 1.5415e-14
5351.87 1.5532e-14
5352.65 1.5763e-14
5353.44 1.5621e-14
5354.23 1.5575e-14
5355.02 1.5471e-14
5355.81 1.5496e-14
5356.59 1.564e-14
5357.38 1.537e-14
5358.17 1.5512e-14
5358.96 1.5469e-14
5359.74 1.5545e-14
5360.53 1.5398e-14
5361.32 1.5372e-14
5362.11 1.5347e-14
5362.89 1.5369e-14
5363.68 1.526e-14
5364.47 1.5411e-14
5365.26 1.5213e-14
5366.05 1.5421e-14
5366.83 1.5205e-14
5367.62 1.5168e-14
5368.41 1.5278e-14
5369.2 1.5261e-14
5369.98 1.6123e-14
5370.77 1.6112e-14
5371.56 1.5315e-14
5372.35 1.5144e-14
5373.13 1.5072e-14
5373.92 1.5193e-14
5374.71 1.5109e-14
5375.5 1.507e-14
5376.29 1.4984e-14
5377.07 1.4931e-14
5377.86 1.5048e-14
5378.65 1.4765e-14
5379.44 1.469e-14
5380.22 1.463e-14
5381.01 1.4794e-14
5381.8 1.4831e-14
5382.59 1.4716e-14
5383.37 1.4778e-14
5384.16 1.4911e-14
5384.95 1.4701e-14
5385.74 1.4675e-14
5386.53 1.4787e-14
5387.31 1.4473e-14
5388.1 1.4549e-14
5388.89 1.4237e-14
5389.68 1.4397e-14
5390.46 1.4457e-14
5391.25 1.4539e-14
5392.04 1.4362e-14
5392.83 1.4361e-14
5393.61 1.434e-14
5394.4 1.4534e-14
5395.19 1.4414e-14
5395.98 1.4489e-14
5396.77 1.3753e-14
5397.55 1.4258e-14
5398.34 1.4138e-14
5399.13 1.4287e-14
5399.92 1.427e-14
5400.7 1.4328e-14
5401.49 1.4234e-14
5402.28 1.4279e-14
5403.07 1.4346e-14
5403.85 1.4253e-14
5404.64 1.4109e-14
5405.43 1.4268e-14
5406.22 1.4047e-14
5407.01 1.4012e-14
5407.79 1.4042e-14
5408.58 1.4095e-14
5409.37 1.4334e-14
5410.16 1.4058e-14
5410.94 1.4157e-14
5411.73 1.4231e-14
5412.52 1.394e-14
5413.31 1.408e-14
5414.09 1.3949e-14
5414.88 1.3921e-14
5415.67 1.4124e-14
5416.46 1.396e-14
5417.25 1.4096e-14
5418.03 1.3998e-14
5418.82 1.395e-14
5419.61 1.3973e-14
5420.4 1.4166e-14
5421.18 1.4264e-14
5421.97 1.4144e-14
5422.76 1.4141e-14
5423.55 1.4056e-14
5424.33 1.4085e-14
5425.12 1.4193e-14
5425.91 1.4069e-14
5426.7 1.4147e-14
5427.49 1.423e-14
5428.27 1.419e-14
5429.06 1.416e-14
5429.85 1.4336e-14
5430.64 1.4513e-14
5431.42 1.4488e-14
5432.21 1.4326e-14
5433.0 1.433e-14
5433.79 1.4376e-14
5434.57 1.4473e-14
5435.36 1.4424e-14
5436.15 1.4472e-14
5436.94 1.451e-14
5437.73 1.4584e-14
5438.51 1.4449e-14
5439.3 1.4457e-14
5440.09 1.4604e-14
5440.88 1.4764e-14
5441.66 1.4799e-14
5442.45 1.4829e-14
5443.24 1.4865e-14
5444.03 1.4838e-14
5444.81 1.4846e-14
5445.6 1.4857e-14
5446.39 1.5126e-14
5447.18 1.4896e-14
5447.97 1.4966e-14
5448.75 1.5105e-14
5449.54 1.5244e-14
5450.33 1.514e-14
5451.12 1.5212e-14
5451.9 1.5076e-14
5452.69 1.5362e-14
5453.48 1.5308e-14
5454.27 1.528e-14
5455.05 1.5309e-14
5455.84 1.5414e-14
5456.63 1.5303e-14
5457.42 1.5403e-14
5458.21 1.5641e-14
5458.99 1.5532e-14
5459.78 1.5648e-14
5460.57 1.5513e-14
5461.36 1.547e-14
5462.14 1.5678e-14
5462.93 1.5765e-14
5463.72 1.5647e-14
5464.51 1.5651e-14
5465.29 1.5801e-14
5466.08 1.5779e-14
5466.87 1.5446e-14
5467.66 1.5901e-14
5468.45 1.5818e-14
5469.23 1.588e-14
5470.02 1.5816e-14
5470.81 1.5991e-14
5471.6 1.5734e-14
5472.38 1.5875e-14
5473.17 1.5844e-14
5473.96 1.5687e-14
5474.75 1.5864e-14
5475.53 1.5977e-14
5476.32 1.5876e-14
5477.11 1.5965e-14
5477.9 1.5715e-14
5478.69 1.5769e-14
5479.47 1.5877e-14
5480.26 1.5757e-14
5481.05 1.5671e-14
5481.84 1.5801e-14
5482.62 1.5705e-14
5483.41 1.5932e-14
5484.2 1.5842e-14
5484.99 1.5694e-14
5485.77 1.5745e-14
5486.56 1.5553e-14
5487.35 1.5568e-14
5488.14 1.5676e-14
5488.93 1.5635e-14
5489.71 1.5813e-14
5490.5 1.5608e-14
5491.29 1.5581e-14
5492.08 1.5777e-14
5492.86 1.5614e-14
5493.65 1.5732e-14
5494.44 1.5851e-14
5495.23 1.5697e-14
5496.01 1.5756e-14
5496.8 1.5669e-14
5497.59 1.5704e-14
5498.38 1.5574e-14
5499.17 1.5722e-14
5499.95 1.5697e-14
5500.74 1.5806e-14
5501.53 1.5804e-14
5502.32 1.5743e-14
5503.1 1.5439e-14
5503.89 1.5558e-14
5504.68 1.5772e-14
5505.47 1.5553e-14
5506.25 1.5495e-14
5507.04 1.5575e-14
5507.83 1.5602e-14
5508.62 1.5512e-14
5509.41 1.5392e-14
5510.19 1.54e-14
5510.98 1.5564e-14
5511.77 1.5247e-14
5512.56 1.5239e-14
5513.34 1.5335e-14
5514.13 1.5312e-14
5514.92 1.5139e-14
5515.71 1.5247e-14
5516.49 1.5242e-14
5517.28 1.4984e-14
5518.07 1.5287e-14
5518.86 1.5132e-14
5519.65 1.5322e-14
5520.43 1.5153e-14
5521.22 1.5093e-14
5522.01 1.4828e-14
5522.8 1.4921e-14
5523.58 1.4816e-14
5524.37 1.4919e-14
5525.16 1.4761e-14
5525.95 1.4716e-14
5526.73 1.4731e-14
5527.52 1.4788e-14
5528.31 1.4576e-14
5529.1 1.4706e-14
5529.89 1.4517e-14
5530.67 1.4521e-14
5531.46 1.4616e-14
5532.25 1.4548e-14
5533.04 1.4376e-14
5533.82 1.4491e-14
5534.61 1.4339e-14
5535.4 1.4159e-14
5536.19 1.411e-14
5536.97 1.4462e-14
5537.76 1.4347e-14
5538.55 1.4382e-14
5539.34 1.4258e-14
5540.13 1.3963e-14
5540.91 1.3991e-14
5541.7 1.3988e-14
5542.49 1.4124e-14
5543.28 1.4054e-14
5544.06 1.3926e-14
5544.85 1.3947e-14
5545.64 1.3773e-14
5546.43 1.3824e-14
5547.21 1.3896e-14
5548.0 1.3981e-14
5548.79 1.3646e-14
5549.58 1.3644e-14
5550.37 1.3768e-14
5551.15 1.3914e-14
5551.94 1.3666e-14
5552.73 1.3684e-14
5553.52 1.357e-14
5554.3 1.3845e-14
5555.09 1.3657e-14
5555.88 1.3544e-14
5556.67 1.3625e-14
5557.45 1.3623e-14
5558.24 1.3447e-14
5559.03 1.3741e-14
5559.82 1.3576e-14
5560.61 1.3567e-14
5561.39 1.3509e-14
5562.18 1.3566e-14
5562.97 1.3572e-14
5563.76 1.3598e-14
5564.54 1.3592e-14
5565.33 1.3605e-14
5566.12 1.3447e-14
5566.91 1.3549e-14
5567.69 1.3759e-14
5568.48 1.3468e-14
5569.27 1.3297e-14
5570.06 1.3522e-14
5570.85 1.3424e-14
5571.63 1.3462e-14
5572.42 1.3628e-14
5573.21 1.3407e-14
5574.0 1.3517e-14
5574.78 1.3555e-14
5575.57 1.3361e-14
5576.36 1.3416e-14
5577.15 1.3536e-14
5577.93 1.3494e-14
5578.72 1.3438e-14
5579.51 1.3446e-14
5580.3 1.3648e-14
5581.09 1.3617e-14
5581.87 1.3428e-14
5582.66 1.3655e-14
5583.45 1.3703e-14
5584.24 1.376e-14
5585.02 1.3649e-14
5585.81 1.3832e-14
5586.6 1.3735e-14
5587.39 1.3705e-14
5588.17 1.3717e-14
5588.96 1.3738e-14
5589.75 1.3696e-14
5590.54 1.3834e-14
5591.33 1.4068e-14
5592.11 1.3667e-14
5592.9 1.3808e-14
5593.69 1.3937e-14
5594.48 1.3814e-14
5595.26 1.3818e-14
5596.05 1.39e-14
5596.84 1.3879e-14
5597.63 1.3915e-14
5598.41 1.4047e-14
5599.2 1.4032e-14
5599.99 1.4052e-14
5600.54 1.4466e-14
5601.8 1.4426e-14
5603.05 1.4497e-14
5604.3 1.4512e-14
5605.56 1.4524e-14
5606.81 1.4683e-14
5608.06 1.4306e-14
5609.32 1.4645e-14
5610.57 1.4597e-14
5611.82 1.4534e-14
5613.08 1.4811e-14
5614.33 1.4824e-14
5615.58 1.4775e-14
5616.84 1.4638e-14
5618.09 1.4581e-14
5619.34 1.4877e-14
5620.6 1.5014e-14
5621.85 1.481e-14
5623.1 1.4782e-14
5624.36 1.4738e-14
5625.61 1.4665e-14
5626.86 1.4879e-14
5628.12 1.4885e-14
5629.37 1.4535e-14
5630.62 1.491e-14
5631.88 1.4814e-14
5633.13 1.469e-14
5634.38 1.4815e-14
5635.64 1.4633e-14
5636.89 1.4555e-14
5638.14 1.4618e-14
5639.4 1.4679e-14
5640.65 1.466e-14
5641.9 1.4534e-14
5643.16 1.458e-14
5644.41 1.4578e-14
5645.66 1.4567e-14
5646.92 1.4817e-14
5648.17 1.4768e-14
5649.42 1.4563e-14
5650.68 1.4772e-14
5651.93 1.4585e-14
5653.18 1.4525e-14
5654.44 1.4642e-14
5655.69 1.4345e-14
5656.94 1.4275e-14
5658.2 1.4345e-14
5659.45 1.4392e-14
5660.7 1.4484e-14
5661.96 1.441e-14
5663.21 1.4263e-14
5664.46 1.4237e-14
5665.72 1.4065e-14
5666.97 1.3991e-14
5668.22 1.4252e-14
5669.48 1.4073e-14
5670.73 1.4033e-14
5671.98 1.3969e-14
5673.24 1.3874e-14
5674.49 1.3908e-14
5675.75 1.3915e-14
5677.0 1.3754e-14
5678.25 1.37e-14
5679.51 1.3757e-14
5680.76 1.3837e-14
5682.01 1.3737e-14
5683.27 1.3542e-14
5684.52 1.3546e-14
5685.77 1.3542e-14
5687.03 1.3497e-14
5688.28 1.3357e-14
5689.53 1.3376e-14
5690.79 1.3433e-14
5692.04 1.3431e-14
5693.29 1.3461e-14
5694.55 1.3511e-14
5695.8 1.3417e-14
5697.05 1.3306e-14
5698.31 1.314e-14
5700.81 1.3408e-14
5702.07 1.334e-14
5703.32 1.3272e-14
5704.57 1.3149e-14
5705.83 1.3158e-14
5707.08 1.3235e-14
5708.33 1.3219e-14
5709.59 1.3195e-14
5710.84 1.316e-14
5712.09 1.3157e-14
5713.35 1.3113e-14
5714.6 1.3045e-14
5715.85 1.3151e-14
5717.11 1.2974e-14
5718.36 1.3004e-14
5719.61 1.2958e-14
5720.87 1.305e-14
5722.12 1.313e-14
5723.37 1.3068e-14
5724.63 1.3039e-14
5725.88 1.3109e-14
5727.13 1.3105e-14
5728.39 1.3125e-14
5729.64 1.303e-14
5730.89 1.3246e-14
5732.15 1.3024e-14
5733.4 1.3179e-14
5734.65 1.3133e-14
5735.91 1.3234e-14
5737.16 1.3144e-14
5738.41 1.3054e-14
5739.67 1.3086e-14
5740.92 1.3118e-14
5742.17 1.3104e-14
5743.43 1.3145e-14
5744.68 1.3048e-14
5745.93 1.3001e-14
5747.19 1.3058e-14
5748.44 1.2871e-14
5749.69 1.3114e-14
5750.95 1.3024e-14
5752.2 1.2916e-14
5753.46 1.2989e-14
5754.71 1.2893e-14
5755.96 1.2963e-14
5757.22 1.2964e-14
5758.47 1.2938e-14
5759.72 1.2952e-14
5760.98 1.2904e-14
5762.23 1.2879e-14
5763.48 1.2696e-14
5764.74 1.2727e-14
5765.99 1.2561e-14
5767.24 1.2592e-14
5768.5 1.2496e-14
5769.75 1.266e-14
5771.0 1.2551e-14
5772.26 1.2489e-14
5773.51 1.2443e-14
5774.76 1.24e-14
5776.02 1.2474e-14
5777.27 1.2471e-14
5778.52 1.2321e-14
5779.78 1.2266e-14
5781.03 1.227e-14
5782.28 1.2403e-14
5783.54 1.2531e-14
5784.79 1.2452e-14
5786.04 1.2609e-14
5787.3 1.2645e-14
5788.55 1.2494e-14
5789.8 1.2628e-14
5791.06 1.2705e-14
5792.31 1.2658e-14
5793.56 1.2696e-14
5794.82 1.2643e-14
5796.07 1.2716e-14
5797.32 1.2651e-14
5798.58 1.2796e-14
5799.83 1.2709e-14
5801.08 1.2759e-14
5802.34 1.2884e-14
5803.59 1.2748e-14
5804.84 1.281e-14
5806.1 1.2902e-14
5807.35 1.2995e-14
5808.6 1.2986e-14
5809.86 1.2988e-14
5811.11 1.3017e-14
5812.36 1.3058e-14
5813.62 1.3021e-14
5814.87 1.3056e-14
5816.12 1.3108e-14
5817.38 1.2997e-14
5818.63 1.3184e-14
5819.88 1.3103e-14
5821.14 1.3061e-14
5822.39 1.3188e-14
5823.64 1.3254e-14
5824.9 1.3251e-14
5826.15 1.3286e-14
5827.4 1.3196e-14
5828.66 1.3368e-14
5829.91 1.3445e-14
5831.17 1.342e-14
5832.42 1.3332e-14
5833.67 1.319e-14
5834.93 1.3392e-14
5836.18 1.3294e-14
5837.43 1.3302e-14
5838.69 1.3381e-14
5839.94 1.3328e-14
5841.19 1.3384e-14
5842.45 1.3526e-14
5843.7 1.3508e-14
5844.95 1.3549e-14
5846.21 1.3468e-14
5847.46 1.3353e-14
5848.71 1.3209e-14
5849.97 1.3201e-14
5851.22 1.3251e-14
5852.47 1.3318e-14
5853.73 1.3303e-14
5854.98 1.3233e-14
5856.23 1.308e-14
5857.49 1.322e-14
5858.74 1.3356e-14
5859.99 1.3241e-14
5861.25 1.3182e-14
5862.5 1.3266e-14
5863.75 1.3114e-14
5865.01 1.3126e-14
5866.26 1.304e-14
5867.51 1.3103e-14
5868.77 1.3199e-14
5870.02 1.3188e-14
5871.27 1.3144e-14
5872.53 1.3116e-14
5873.78 1.3093e-14
5875.03 1.3093e-14
5876.29 1.3148e-14
5877.54 1.3168e-14
5878.79 1.3317e-14
5880.05 1.3276e-14
5881.3 1.3126e-14
5882.55 1.3082e-14
5883.81 1.3097e-14
5885.06 1.3006e-14
5886.31 1.2956e-14
5887.57 1.2822e-14
5888.82 1.2466e-14
5890.07 1.1891e-14
5891.33 1.2254e-14
5892.58 1.2902e-14
5893.83 1.2824e-14
5895.09 1.2542e-14
5896.34 1.2204e-14
5897.59 1.2569e-14
5898.85 1.3063e-14
5900.1 1.2964e-14
5901.35 1.276e-14
5902.61 1.2825e-14
5903.86 1.3153e-14
5905.11 1.3088e-14
5906.37 1.2982e-14
5907.62 1.3075e-14
5908.88 1.3055e-14
5910.13 1.3115e-14
5911.38 1.3097e-14
5912.64 1.3076e-14
5913.89 1.3027e-14
5915.14 1.2984e-14
5916.4 1.3075e-14
5917.65 1.3064e-14
5918.9 1.3051e-14
5920.16 1.2888e-14
5921.41 1.3032e-14
5922.66 1.3042e-14
5923.92 1.2952e-14
5925.17 1.2988e-14
5926.42 1.305e-14
5927.68 1.301e-14
5928.93 1.3066e-14
5930.18 1.2954e-14
5931.44 1.305e-14
5932.69 1.2896e-14
5933.94 1.295e-14
5935.2 1.3129e-14
5936.45 1.3064e-14
5937.7 1.306e-14
5938.96 1.3102e-14
5940.21 1.2919e-14
5941.46 1.2851e-14
5942.72 1.2721e-14
5943.97 1.2956e-14
5945.22 1.2861e-14
5946.48 1.2855e-14
5947.73 1.2877e-14
5948.98 1.2819e-14
5950.24 1.2877e-14
5951.49 1.2921e-14
5952.74 1.2904e-14
5954.0 1.3004e-14
5955.25 1.297e-14
5956.5 1.2831e-14
5957.76 1.2782e-14
5959.01 1.2825e-14
5960.26 1.2937e-14
5961.52 1.2851e-14
5962.77 1.2829e-14
5964.02 1.2722e-14
5965.28 1.2837e-14
5966.53 1.2742e-14
5967.78 1.26e-14
5969.04 1.2614e-14
5970.29 1.2711e-14
5971.54 1.2728e-14
5972.8 1.2601e-14
5974.05 1.2733e-14
5975.3 1.2653e-14
5976.56 1.2537e-14
5977.81 1.257e-14
5979.06 1.2562e-14
5980.32 1.2557e-14
5981.57 1.2609e-14
5982.82 1.2591e-14
5984.08 1.2451e-14
5985.33 1.2469e-14
5986.59 1.2511e-14
5987.84 1.2493e-14
5989.09 1.2518e-14
5990.35 1.2524e-14
5991.6 1.2448e-14
5992.85 1.2426e-14
5994.11 1.2379e-14
5995.36 1.2391e-14
5996.61 1.2383e-14
5997.87 1.2403e-14
5999.12 1.2249e-14
6000.37 1.2418e-14
6001.63 1.2358e-14
6002.88 1.2291e-14
6004.13 1.2294e-14
6005.39 1.2307e-14
6006.64 1.2368e-14
6007.89 1.2381e-14
6009.15 1.229e-14
6010.4 1.2252e-14
6011.65 1.2177e-14
6012.91 1.2089e-14
6014.16 1.2124e-14
6015.41 1.21e-14
6016.67 1.2118e-14
6017.92 1.2168e-14
6019.17 1.2116e-14
6020.43 1.2126e-14
6021.68 1.2115e-14
6022.93 1.2116e-14
6024.19 1.2166e-14
6025.44 1.2116e-14
6026.69 1.2129e-14
6027.95 1.2015e-14
6029.2 1.214e-14
6030.45 1.2057e-14
6031.71 1.2095e-14
6032.96 1.2117e-14
6034.21 1.2189e-14
6035.47 1.2118e-14
6036.72 1.2179e-14
6037.97 1.2158e-14
6039.23 1.221e-14
6040.48 1.2261e-14
6041.73 1.2159e-14
6042.99 1.2238e-14
6044.24 1.218e-14
6045.49 1.2275e-14
6046.75 1.2238e-14
6048.0 1.2315e-14
6049.25 1.2341e-14
6050.51 1.2327e-14
6051.76 1.2372e-14
6053.01 1.2432e-14
6054.27 1.2408e-14
6055.52 1.2464e-14
6056.77 1.2459e-14
6058.03 1.2548e-14
6059.28 1.2379e-14
6060.53 1.247e-14
6061.79 1.2628e-14
6063.04 1.2504e-14
6064.3 1.2549e-14
6065.55 1.2545e-14
6066.8 1.247e-14
6068.06 1.2568e-14
6069.31 1.2644e-14
6070.56 1.2545e-14
6071.82 1.2542e-14
6073.07 1.2556e-14
6074.32 1.2636e-14
6075.58 1.2748e-14
6076.83 1.2786e-14
6078.08 1.2531e-14
6079.34 1.2646e-14
6080.59 1.2624e-14
6081.84 1.2694e-14
6083.1 1.2625e-14
6084.35 1.2637e-14
6085.6 1.2635e-14
6086.86 1.2558e-14
6088.11 1.2607e-14
6089.36 1.2504e-14
6090.62 1.243e-14
6091.87 1.2554e-14
6093.12 1.2571e-14
6094.38 1.2432e-14
6095.63 1.2319e-14
6096.88 1.2206e-14
6098.14 1.236e-14
6099.39 1.2306e-14
6100.64 1.2349e-14
6101.9 1.232e-14
6103.15 1.213e-14
6104.4 1.2083e-14
6105.66 1.2057e-14
6106.91 1.208e-14
6108.16 1.2076e-14
6109.42 1.198e-14
6110.67 1.1933e-14
6111.92 1.1992e-14
6113.18 1.192e-14
6114.43 1.1805e-14
6115.68 1.1775e-14
6116.94 1.1786e-14
6118.19 1.1782e-14
6119.44 1.1762e-14
6120.7 1.1856e-14
6121.95 1.1818e-14
6123.2 1.1795e-14
6124.46 1.1746e-14
6125.71 1.1799e-14
6126.96 1.1868e-14
6128.22 1.1895e-14
6129.47 1.1807e-14
6130.72 1.1868e-14
6131.98 1.1901e-14
6133.23 1.1986e-14
6134.48 1.2024e-14
6135.74 1.2062e-14
6136.99 1.2083e-14
6138.24 1.2026e-14
6139.5 1.2151e-14
6140.75 1.2224e-14
6142.01 1.2167e-14
6143.26 1.2189e-14
6144.51 1.2224e-14
6145.77 1.2262e-14
6147.02 1.2369e-14
6148.27 1.2469e-14
6149.53 1.2534e-14
6150.78 1.2444e-14
6152.03 1.2555e-14
6153.29 1.2556e-14
6154.54 1.2514e-14
6155.79 1.2705e-14
6157.05 1.2764e-14
6158.3 1.2656e-14
6159.55 1.2614e-14
6160.81 1.2738e-14
6162.06 1.2754e-14
6163.31 1.2855e-14
6164.57 1.2833e-14
6165.82 1.2847e-14
6167.07 1.2836e-14
6168.33 1.2875e-14
6169.58 1.2869e-14
6170.83 1.2899e-14
6172.09 1.2963e-14
6173.34 1.2835e-14
6174.59 1.2821e-14
6175.85 1.2904e-14
6177.1 1.2815e-14
6178.35 1.2983e-14
6179.61 1.2856e-14
6180.86 1.276e-14
6182.11 1.2702e-14
6183.37 1.2694e-14
6184.62 1.2711e-14
6185.87 1.2788e-14
6187.13 1.2774e-14
6188.38 1.2666e-14
6189.63 1.2715e-14
6190.89 1.266e-14
6192.14 1.2609e-14
6193.39 1.2494e-14
6194.65 1.2495e-14
6195.9 1.2517e-14
6197.15 1.2392e-14
6198.41 1.2242e-14
6199.66 1.2204e-14
6200.91 1.2171e-14
6202.17 1.1952e-14
6203.42 1.1961e-14
6204.67 1.1961e-14
6205.93 1.1898e-14
6207.18 1.1769e-14
6208.43 1.1716e-14
6209.69 1.1575e-14
6210.94 1.1506e-14
6212.19 1.145e-14
6213.45 1.1385e-14
6214.7 1.1385e-14
6215.95 1.1293e-14
6217.21 1.1276e-14
6218.46 1.1232e-14
6219.72 1.1091e-14
6220.97 1.0922e-14
6222.22 1.0898e-14
6223.48 1.0938e-14
6224.73 1.084e-14
6225.98 1.0792e-14
6227.24 1.0677e-14
6228.49 1.0675e-14
6229.74 1.0674e-14
6231.0 1.0709e-14
6232.25 1.0575e-14
6233.5 1.0507e-14
6234.76 1.0438e-14
6236.01 1.039e-14
6237.26 1.0416e-14
6238.52 1.0376e-14
6239.77 1.0335e-14
6241.02 1.0532e-14
6242.28 1.0464e-14
6243.53 1.0435e-14
6244.78 1.0451e-14
6246.04 1.0388e-14
6247.29 1.0345e-14
6248.54 1.0373e-14
6249.8 1.0365e-14
6251.05 1.0373e-14
6252.3 1.0458e-14
6253.56 1.0362e-14
6254.81 1.0425e-14
6256.06 1.0559e-14
6257.32 1.0516e-14
6258.57 1.0527e-14
6259.82 1.0562e-14
6261.08 1.0589e-14
6262.33 1.0683e-14
6263.58 1.076e-14
6264.84 1.0814e-14
6266.09 1.0808e-14
6267.34 1.0808e-14
6268.6 1.0825e-14
6269.85 1.0933e-14
6271.1 1.0902e-14
6272.36 1.0996e-14
6273.61 1.0985e-14
6274.86 1.0965e-14
6276.12 1.0778e-14
6277.37 1.0834e-14
6278.62 1.0979e-14
6279.88 1.104e-14
6281.13 1.1062e-14
6282.38 1.0835e-14
6283.64 1.0889e-14
6284.89 1.0825e-14
6286.14 1.0919e-14
6287.4 1.0878e-14
6288.65 1.0894e-14
6289.9 1.0827e-14
6291.16 1.0807e-14
6292.41 1.0773e-14
6293.66 1.0622e-14
6294.92 1.0761e-14
6296.17 1.0818e-14
6297.43 1.0904e-14
6298.68 1.0864e-14
6299.93 1.0785e-14
6301.19 1.0958e-14
6302.44 1.0755e-14
6303.69 1.076e-14
6304.95 1.0742e-14
6306.2 1.0776e-14
6307.45 1.063e-14
6308.71 1.0711e-14
6309.96 1.0703e-14
6311.21 1.0568e-14
6312.47 1.0671e-14
6313.72 1.0746e-14
6314.97 1.059e-14
6316.23 1.0542e-14
6317.48 1.0479e-14
6318.73 1.0381e-14
6319.99 1.0376e-14
6321.24 1.0323e-14
6322.49 1.0303e-14
6323.75 1.0307e-14
6325.0 1.0256e-14
6326.25 1.0198e-14
6327.51 1.0162e-14
6328.76 9.9811e-15
6330.01 1.0046e-14
6331.27 1.0054e-14
6332.52 1.0014e-14
6333.77 1.2041e-14
6335.03 1.5496e-14
6336.28 1.126e-14
6337.53 1.0451e-14
6338.79 1.093e-14
6340.04 1.0696e-14
6341.29 1.0211e-14
6342.55 9.7354e-15
6343.8 9.3462e-15
6345.05 9.1804e-15
6346.31 9.029e-15
6347.56 9.0797e-15
6348.81 8.9565e-15
6350.07 9.0213e-15
6351.32 8.9169e-15
6352.57 8.8989e-15
6353.83 8.9318e-15
6355.08 9.0046e-15
6356.33 8.9734e-15
6357.59 8.8856e-15
6358.84 8.9088e-15
6360.09 8.9723e-15
6361.35 8.939e-15
6362.6 8.8697e-15
6363.85 8.679e-15
6365.11 8.7278e-15
6366.36 8.6497e-15
6367.61 8.5765e-15
6368.87 8.5162e-15
6370.12 8.5938e-15
6371.37 8.5828e-15
6372.63 8.6183e-15
6373.88 8.6127e-15
6375.14 8.5106e-15
6376.39 8.474e-15
6377.64 8.4182e-15
6378.9 8.4543e-15
6380.15 8.4781e-15
6381.4 8.4902e-15
6382.66 8.5796e-15
6383.91 8.5591e-15
6385.16 8.4393e-15
6386.42 8.5169e-15
6387.67 8.5153e-15
6388.92 8.5385e-15
6390.18 8.5053e-15
6391.43 8.4884e-15
6392.68 8.5366e-15
6393.94 8.5895e-15
6395.19 8.5181e-15
6396.44 8.6135e-15
6397.7 8.5804e-15
6398.95 8.7475e-15
6400.2 8.7194e-15
6401.46 8.722e-15
6402.71 8.8107e-15
6403.96 8.878e-15
6405.22 9.053e-15
6406.47 9.0454e-15
6407.72 9.0822e-15
6408.98 9.1887e-15
6410.23 9.2385e-15
6411.48 9.2549e-15
6412.74 9.3501e-15
6413.99 9.4593e-15
6415.24 9.6124e-15
6416.5 9.7356e-15
6417.75 9.811e-15
6419.0 9.9201e-15
6420.26 1.0066e-14
6421.51 1.0157e-14
6422.76 1.0417e-14
6424.02 1.0514e-14
6425.27 1.0566e-14
6426.52 1.0733e-14
6427.78 1.0888e-14
6429.03 1.1104e-14
6430.28 1.1313e-14
6431.54 1.1335e-14
6432.79 1.1496e-14
6434.04 1.1708e-14
6435.3 1.1825e-14
6436.55 1.2101e-14
6437.8 1.2232e-14
6439.06 1.2352e-14
6440.31 1.2698e-14
6441.56 1.2842e-14
6442.82 1.302e-14
6444.07 1.3147e-14
6445.32 1.3359e-14
6446.58 1.3387e-14
6447.83 1.371e-14
6449.08 1.4075e-14
6450.34 1.4208e-14
6451.59 1.4311e-14
6452.85 1.4551e-14
6454.1 1.4748e-14
6455.35 1.4893e-14
6456.61 1.5076e-14
6457.86 1.5137e-14
6459.11 1.5382e-14
6460.37 1.5598e-14
6461.62 1.5744e-14
6462.87 1.5961e-14
6464.13 1.6089e-14
6465.38 1.6208e-14
6466.63 1.6444e-14
6467.89 1.6485e-14
6469.14 1.6669e-14
6470.39 1.679e-14
6471.65 1.7014e-14
6472.9 1.718e-14
6474.15 1.7056e-14
6475.41 1.7145e-14
6476.66 1.734e-14
6477.91 1.7514e-14
6479.17 1.7709e-14
6480.42 1.7767e-14
6481.67 1.7959e-14
6482.93 1.8108e-14
6484.18 1.8138e-14
6485.43 1.8328e-14
6486.69 1.8423e-14
6487.94 1.8614e-14
6489.19 1.8824e-14
6490.45 1.8867e-14
6491.7 1.8893e-14
6492.95 1.8875e-14
6494.21 1.901e-14
6495.46 1.9172e-14
6496.71 1.9109e-14
6497.97 1.9222e-14
6499.22 1.949e-14
6500.47 1.9536e-14
6501.73 1.972e-14
6502.98 1.9834e-14
6504.23 1.9839e-14
6505.49 1.9897e-14
6506.74 1.9896e-14
6507.99 1.9992e-14
6509.25 2.0061e-14
6510.5 2.0024e-14
6511.75 2.006e-14
6513.01 2.0187e-14
6514.26 2.009e-14
6515.51 1.9957e-14
6516.77 1.9844e-14
6518.02 1.9866e-14
6519.27 1.9994e-14
6520.53 2.0109e-14
6521.78 2.0161e-14
6523.03 2.0199e-14
6524.29 2.0174e-14
6525.54 2.0218e-14
6526.79 2.0437e-14
6528.05 2.0332e-14
6529.3 2.0291e-14
6530.56 2.0206e-14
6531.81 2.0096e-14
6533.06 2.0076e-14
6534.32 2.0043e-14
6535.57 2.0075e-14
6536.82 2.0126e-14
6538.08 2.0162e-14
6539.33 2.0092e-14
6540.58 2.0077e-14
6541.84 1.9921e-14
6543.09 1.9935e-14
6544.34 1.987e-14
6545.6 1.9814e-14
6546.85 1.9783e-14
6548.1 1.9666e-14
6549.36 1.9685e-14
6550.61 1.96e-14
6551.86 1.9664e-14
6553.12 1.9624e-14
6554.37 1.9509e-14
6555.62 1.9451e-14
6556.88 1.9415e-14
6558.13 1.9391e-14
6559.38 1.9399e-14
6560.64 1.9395e-14
6561.89 1.9366e-14
6563.14 1.9347e-14
6564.4 1.9223e-14
6565.65 1.912e-14
6566.9 1.9187e-14
6568.16 1.9071e-14
6569.41 1.8972e-14
6570.66 1.8984e-14
6571.92 1.895e-14
6573.17 1.8965e-14
6574.42 1.8704e-14
6575.68 1.8591e-14
6576.93 1.8656e-14
6578.18 1.8589e-14
6579.44 1.8665e-14
6580.69 1.854e-14
6581.94 1.8414e-14
6583.2 1.8394e-14
6584.45 1.8389e-14
6585.7 1.8339e-14
6586.96 1.8212e-14
6588.21 1.8315e-14
6589.46 1.8269e-14
6590.72 1.8181e-14
6591.97 1.8154e-14
6593.22 1.8156e-14
6594.48 1.7902e-14
6595.73 1.7844e-14
6596.98 1.7945e-14
6598.24 1.7865e-14
6599.49 1.7737e-14
6600.74 1.7837e-14
6602.0 1.7792e-14
6603.25 1.7551e-14
6604.5 1.757e-14
6605.76 1.7696e-14
6607.01 1.7452e-14
6608.27 1.732e-14
6609.52 1.7483e-14
6610.77 1.7343e-14
6612.03 1.7247e-14
6613.28 1.7193e-14
6614.53 1.7115e-14
6615.79 1.7106e-14
6617.04 1.7167e-14
6618.29 1.7004e-14
6619.55 1.6829e-14
6620.8 1.6979e-14
6622.05 1.6955e-14
6623.31 1.6927e-14
6624.56 1.6764e-14
6625.81 1.6831e-14
6627.07 1.6708e-14
6628.32 1.6746e-14
6629.57 1.662e-14
6630.83 1.6492e-14
6632.08 1.65e-14
6633.33 1.6405e-14
6634.59 1.6232e-14
6635.84 1.6281e-14
6637.09 1.6213e-14
6638.35 1.6074e-14
6639.6 1.5966e-14
6640.85 1.5959e-14
6642.11 1.5807e-14
6643.36 1.5677e-14
6644.61 1.565e-14
6645.87 1.5532e-14
6647.12 1.5464e-14
6648.37 1.5357e-14
6649.63 1.533e-14
6650.88 1.5407e-14
6652.13 1.5256e-14
6653.39 1.5227e-14
6654.64 1.5045e-14
6655.89 1.4953e-14
6657.15 1.4897e-14
6658.4 1.4964e-14
6659.65 1.4914e-14
6660.91 1.4753e-14
6662.16 1.4722e-14
6663.41 1.4569e-14
6664.67 1.459e-14
6665.92 1.4501e-14
6667.17 1.4513e-14
6668.43 1.4535e-14
6669.68 1.4305e-14
6670.93 1.4308e-14
6672.19 1.4252e-14
6673.44 1.4222e-14
6674.69 1.4233e-14
6675.95 1.4264e-14
6677.2 1.4109e-14
6678.45 1.4029e-14
6679.71 1.401e-14
6680.96 1.4026e-14
6682.21 1.3956e-14
6683.47 1.3962e-14
6684.72 1.394e-14
6685.98 1.3915e-14
6687.23 1.3836e-14
6688.48 1.3761e-14
6689.74 1.3736e-14
6690.99 1.3801e-14
6692.24 1.3697e-14
6693.5 1.3632e-14
6694.75 1.367e-14
6696.0 1.3567e-14
6697.26 1.3447e-14
6698.51 1.3504e-14
6699.76 1.3405e-14
6701.02 1.34e-14
6702.27 1.3459e-14
6703.52 1.3497e-14
6704.78 1.3329e-14
6706.03 1.3403e-14
6707.28 1.3401e-14
6708.54 1.334e-14
6709.79 1.3326e-14
6711.04 1.3282e-14
6712.3 1.3271e-14
6713.55 1.3276e-14
6714.8 1.3205e-14
6716.06 1.318e-14
6717.31 1.3116e-14
6718.56 1.3209e-14
6719.82 1.318e-14
6721.07 1.3281e-14
6722.32 1.319e-14
6723.58 1.3145e-14
6724.83 1.3112e-14
6726.08 1.3059e-14
6727.34 1.3052e-14
6728.59 1.3004e-14
6729.84 1.2958e-14
6731.1 1.302e-14
6732.35 1.2927e-14
6733.6 1.2934e-14
6734.86 1.2947e-14
6736.11 1.2896e-14
6737.36 1.2844e-14
6738.62 1.2946e-14
6739.87 1.2942e-14
6741.12 1.2907e-14
6742.38 1.2913e-14
6743.63 1.2663e-14
6744.88 1.2878e-14
6746.14 1.2898e-14
6747.39 1.2714e-14
6748.64 1.271e-14
6749.9 1.2772e-14
6751.15 1.2701e-14
6752.4 1.2583e-14
6753.66 1.4893e-14
6754.91 1.3385e-14
6756.16 1.3203e-14
6757.42 1.2957e-14
6758.67 1.3923e-14
6759.92 1.3096e-14
6761.18 1.2478e-14
6762.43 1.2431e-14
6763.69 1.2356e-14
6764.94 1.239e-14
6766.19 1.2361e-14
6767.45 1.2358e-14
6768.7 1.2297e-14
6769.95 1.238e-14
6771.21 1.2344e-14
6772.46 1.2253e-14
6773.71 1.2193e-14
6774.97 1.2171e-14
6776.22 1.2199e-14
6777.47 1.218e-14
6778.73 1.2158e-14
6779.98 1.216e-14
6781.23 1.2148e-14
6782.49 1.2082e-14
6783.74 1.2081e-14
6784.99 1.2084e-14
6786.25 1.1835e-14
6787.5 1.1941e-14
6788.75 1.1891e-14
6790.01 1.1884e-14
6791.26 1.188e-14
6792.51 1.1861e-14
6793.77 1.1896e-14
6795.02 1.1887e-14
6796.27 1.1884e-14
6797.53 1.185e-14
6798.78 1.1795e-14
6800.03 1.1747e-14
6801.29 1.1632e-14
6802.54 1.1742e-14
6803.79 1.1706e-14
6805.05 1.16e-14
6806.3 1.1626e-14
6807.55 1.1603e-14
6808.81 1.1579e-14
6810.06 1.1528e-14
6811.31 1.1458e-14
6812.57 1.1468e-14
6813.82 1.1368e-14
6815.07 1.1384e-14
6816.33 1.1268e-14
6817.58 1.1251e-14
6818.83 1.1185e-14
6820.09 1.1205e-14
6821.34 1.1262e-14
6822.59 1.1172e-14
6823.85 1.1211e-14
6825.1 1.1128e-14
6826.35 1.113e-14
6827.61 1.1177e-14
6828.86 1.1123e-14
6830.11 1.0932e-14
6831.37 1.0904e-14
6832.62 1.0915e-14
6833.87 1.0929e-14
6835.13 1.0937e-14
6836.38 1.0745e-14
6837.63 1.074e-14
6838.89 1.0769e-14
6840.14 1.0662e-14
6841.4 1.0547e-14
6842.65 1.0649e-14
6843.9 1.063e-14
6845.16 1.0667e-14
6846.41 1.0678e-14
6847.66 1.055e-14
6848.92 1.0509e-14
6850.17 1.058e-14
6851.42 1.0499e-14
6852.68 1.0497e-14
6853.93 1.0428e-14
6855.18 1.0373e-14
6856.44 1.0323e-14
6857.69 1.0374e-14
6858.94 1.0372e-14
6860.2 1.0239e-14
6861.45 1.0218e-14
6862.7 1.0176e-14
6863.96 1.0246e-14
6865.21 1.0129e-14
6866.46 9.634e-15
6867.72 9.4566e-15
6868.97 9.8764e-15
6870.22 1.0392e-14
6871.48 1.0071e-14
6872.73 1.0104e-14
6873.98 1.0026e-14
6875.24 1.0193e-14
6876.49 9.981e-15
6877.74 1.0069e-14
6879.0 1.0116e-14
6880.25 1.017e-14
6881.5 1.0172e-14
6882.76 9.7563e-15
6884.01 9.7983e-15
6885.26 9.841e-15
6886.52 9.9675e-15
6887.77 1.0011e-14
6889.02 9.9865e-15
6890.28 1.021e-14
6891.53 1.0037e-14
6892.78 1.0061e-14
6894.04 1.0418e-14
6895.29 1.0107e-14
6896.54 1.0191e-14
6897.8 1.0517e-14
6899.05 1.0141e-14
6900.3 1.0128e-14
6901.56 1.0529e-14
6902.81 1.027e-14
6904.06 1.0071e-14
6905.32 1.0434e-14
6906.57 1.049e-14
6907.82 1.0243e-14
6909.08 1.0314e-14
6910.33 1.0568e-14
6911.58 1.0177e-14
6912.84 1.0165e-14
6914.09 1.0406e-14
6915.34 1.0585e-14
6916.6 1.0319e-14
6917.85 1.0131e-14
6919.11 1.0443e-14
6920.36 1.0557e-14
6921.61 1.0444e-14
6922.87 1.0186e-14
6924.12 1.0374e-14
6925.37 1.0472e-14
6926.63 1.0328e-14
6927.88 1.0277e-14
6929.13 1.0253e-14
6930.39 1.0467e-14
6931.64 1.0163e-14
6932.89 1.0193e-14
6934.15 1.0197e-14
6935.4 1.0272e-14
6936.65 1.0299e-14
6937.91 1.0186e-14
6939.16 1.0081e-14
6940.41 1.0092e-14
6941.67 1.0293e-14
6942.92 1.0205e-14
6944.17 1.0217e-14
6945.43 1.0233e-14
6946.68 1.0245e-14
6947.93 1.0213e-14
6949.19 1.0235e-14
6950.44 1.0352e-14
6951.69 1.032e-14
6952.95 1.0353e-14
6954.2 1.0308e-14
6955.45 1.0254e-14
6956.71 1.0268e-14
6957.96 1.0249e-14
6959.21 1.0294e-14
6960.47 1.0304e-14
6961.72 1.0399e-14
6962.97 1.0419e-14
6964.23 1.0513e-14
6965.48 1.0422e-14
6966.73 1.0568e-14
6967.99 1.0565e-14
6969.24 1.0521e-14
6970.49 1.0557e-14
6971.75 1.0593e-14
6973.0 1.0545e-14
6974.25 1.0563e-14
6975.51 1.062e-14
6976.76 1.0611e-14
6978.01 1.0619e-14
6979.27 1.0606e-14
6980.52 1.0629e-14
6981.77 1.0501e-14
6983.03 1.0627e-14
6984.28 1.0583e-14
6985.53 1.0501e-14
6986.79 1.0465e-14
6988.04 1.0452e-14
6989.29 1.0393e-14
6990.55 1.0417e-14
6991.8 1.0408e-14
6993.05 1.0369e-14
6994.31 1.0325e-14
6995.56 1.0366e-14
6996.82 1.0415e-14
6998.07 1.0326e-14
6999.32 1.0372e-14
7000.58 1.0357e-14
7001.83 1.0375e-14
7003.08 1.0272e-14
7004.34 1.0319e-14
7005.59 1.0158e-14
7006.84 1.0249e-14
7008.1 1.0425e-14
7009.35 1.0318e-14
7010.6 1.0351e-14
7011.86 1.0295e-14
7013.11 1.0338e-14
7014.36 1.0323e-14
7015.62 1.0036e-14
7016.87 1.0055e-14
7018.12 1.0161e-14
7019.38 1.0242e-14
7020.63 1.0264e-14
7021.88 1.0181e-14
7023.14 1.015e-14
7024.39 1.0151e-14
7025.64 1.0181e-14
7026.9 1.0102e-14
7028.15 9.888e-15
7029.4 1.013e-14
7030.66 1.0248e-14
7031.91 1.0187e-14
7033.16 1.0116e-14
7034.42 1.0078e-14
7035.67 1.0091e-14
7036.92 9.9979e-15
7038.18 9.9245e-15
7039.43 9.8822e-15
7040.68 9.9152e-15
7041.94 9.9817e-15
7043.19 9.9737e-15
7044.44 9.9555e-15
7045.7 9.9456e-15
7046.95 9.8798e-15
7048.2 9.7816e-15
7049.46 9.8184e-15
7050.71 9.7893e-15
7051.96 9.6986e-15
7053.22 9.6929e-15
7054.47 9.716e-15
7055.72 9.8125e-15
7056.98 9.6992e-15
7058.23 9.7209e-15
7059.48 9.7424e-15
7060.74 9.6754e-15
7061.99 9.6854e-15
7063.24 9.5862e-15
7064.5 9.6237e-15
7065.75 9.527e-15
7067.0 9.6353e-15
7068.26 9.6588e-15
7069.51 9.623e-15
7070.76 9.5804e-15
7072.02 9.5858e-15
7073.27 9.6824e-15
7074.53 9.6028e-15
7075.78 9.5975e-15
7077.03 9.4722e-15
7078.29 9.4767e-15
7079.54 9.515e-15
7080.79 9.5787e-15
7082.05 9.5343e-15
7083.3 9.6223e-15
7084.55 9.5885e-15
7085.81 9.6923e-15
7087.06 9.6761e-15
7088.31 9.6786e-15
7089.57 9.5758e-15
7090.82 9.6658e-15
7092.07 9.7619e-15
7093.33 9.6533e-15
7094.58 9.7499e-15
7095.83 9.7479e-15
7097.09 9.6942e-15
7098.34 9.6542e-15
7099.59 9.7108e-15
7100.85 9.7323e-15
7102.1 9.6692e-15
7103.35 9.8048e-15
7104.61 9.7665e-15
7105.86 9.6433e-15
7107.11 9.8244e-15
7108.37 9.7464e-15
7109.62 9.8044e-15
7110.87 9.8551e-15
7112.13 9.9281e-15
7113.38 9.8861e-15
7114.63 9.842e-15
7115.89 9.8541e-15
7117.14 9.7931e-15
7118.39 9.9452e-15
7119.65 9.8632e-15
7120.9 9.9109e-15
7122.15 9.9014e-15
7123.41 9.917e-15
7124.66 9.9335e-15
7125.91 9.8796e-15
7127.17 9.8761e-15
7128.42 9.8561e-15
7129.67 9.8318e-15
7130.93 9.7877e-15
7132.18 9.7977e-15
7133.43 9.8973e-15
7134.69 9.8031e-15
7135.94 9.8733e-15
7137.19 9.8444e-15
7138.45 9.7331e-15
7139.7 9.6968e-15
7140.95 9.8023e-15
7142.21 9.7464e-15
7143.46 9.673e-15
7144.71 9.7734e-15
7145.97 9.7398e-15
7147.22 9.7577e-15
7148.47 9.645e-15
7149.73 9.6475e-15
7150.98 9.5904e-15
7152.24 9.6245e-15
7153.49 9.5951e-15
7154.74 9.5313e-15
7156.0 9.5417e-15
7157.25 9.6072e-15
7158.5 9.6561e-15
7159.76 9.5576e-15
7161.01 9.5749e-15
7162.26 9.5659e-15
7163.52 9.5017e-15
7164.77 9.4834e-15
7166.02 9.4103e-15
7167.28 9.2127e-15
7168.53 9.3545e-15
7169.78 9.2759e-15
7171.04 9.2608e-15
7172.29 9.3569e-15
7173.54 9.3796e-15
7174.8 9.4272e-15
7176.05 9.2459e-15
7177.3 9.2831e-15
7178.56 9.4821e-15
7179.81 9.3593e-15
7181.06 9.3942e-15
7182.32 9.4663e-15
7183.57 9.4046e-15
7184.82 9.3256e-15
7186.08 9.3026e-15
7187.33 9.5338e-15
7188.58 9.7494e-15
7189.84 9.3955e-15
7191.09 9.4155e-15
7192.34 9.4496e-15
7193.6 9.478e-15
7194.85 9.5488e-15
7196.1 9.5194e-15
7197.36 9.3278e-15
7198.61 9.4331e-15
7199.86 9.2932e-15
7201.12 9.4603e-15
7202.37 9.6423e-15
7203.62 9.5831e-15
7204.88 9.5189e-15
7206.13 9.6054e-15
7207.38 9.7949e-15
7208.64 9.7296e-15
7209.89 9.5305e-15
7211.14 9.5138e-15
7212.4 9.7243e-15
7213.65 9.7627e-15
7214.9 9.6671e-15
7216.16 9.5926e-15
7217.41 9.644e-15
7218.66 9.6909e-15
7219.92 9.8074e-15
7221.17 9.8781e-15
7222.42 9.6832e-15
7223.68 9.5794e-15
7224.93 9.7597e-15
7226.18 9.7874e-15
7227.44 9.6837e-15
7228.69 9.6796e-15
7229.95 9.7095e-15
7231.2 9.6563e-15
7232.45 9.6077e-15
7233.71 9.5291e-15
7234.96 9.7253e-15
7236.21 9.9468e-15
7237.47 9.8301e-15
7238.72 9.7999e-15
7239.97 9.5372e-15
7241.23 9.7366e-15
7242.48 9.7148e-15
7243.73 9.9091e-15
7244.99 9.8938e-15
7246.24 9.8667e-15
7247.49 9.735e-15
7248.75 9.7002e-15
7250.0 9.7432e-15
7251.25 9.5544e-15
7252.51 9.6347e-15
7253.76 9.8834e-15
7255.01 1.0073e-14
7256.27 9.7884e-15
7257.52 9.6466e-15
7258.77 9.7306e-15
7260.03 9.7493e-15
7261.28 9.7297e-15
7262.53 9.7216e-15
7263.79 9.6364e-15
7265.04 9.5726e-15
7266.29 9.9015e-15
7267.55 9.9168e-15
7268.8 9.8253e-15
7270.05 9.7132e-15
7271.31 9.6168e-15
7272.56 9.6017e-15
7273.81 9.6166e-15
7275.07 9.6648e-15
7276.32 9.7277e-15
7277.57 9.4171e-15
7278.83 9.757e-15
7280.08 9.7762e-15
7281.33 9.6459e-15
7282.59 9.5691e-15
7283.84 9.7002e-15
7285.09 9.8728e-15
7286.35 9.5702e-15
7287.6 9.4767e-15
7288.85 9.6246e-15
7290.11 9.4822e-15
7291.36 9.4766e-15
7292.61 9.6631e-15
7293.87 9.4095e-15
7295.12 9.3212e-15
7296.37 9.5189e-15
7297.63 9.5535e-15
7298.88 9.3974e-15
7300.13 9.2297e-15
7301.39 9.2793e-15
7302.64 9.1894e-15
7303.89 9.3683e-15
7305.15 9.5036e-15
7306.4 9.3673e-15
7307.66 9.421e-15
7308.91 9.2003e-15
7310.16 9.3928e-15
7311.42 9.3075e-15
7312.67 9.3627e-15
7313.92 9.4332e-15
7315.18 9.4417e-15
7316.43 9.124e-15
7317.68 9.0619e-15
7318.94 9.4463e-15
7320.19 9.3425e-15
7321.44 9.5303e-15
7322.7 9.5955e-15
7323.95 9.4562e-15
7325.2 9.4429e-15
7326.46 9.4252e-15
7327.71 9.4402e-15
7328.96 9.5141e-15
7330.22 9.4261e-15
7331.47 9.4049e-15
7332.72 9.3451e-15
7333.98 9.3685e-15
7335.23 9.4096e-15
7336.48 9.5203e-15
7337.74 9.6319e-15
7338.99 9.6315e-15
7340.24 9.7921e-15
7341.5 9.5994e-15
7342.75 9.594e-15
7344.0 9.5465e-15
7345.26 9.5343e-15
7346.51 9.635e-15
7347.76 9.6167e-15
7349.02 9.4491e-15
7350.27 9.4981e-15
7351.52 9.6405e-15
7352.78 9.6242e-15
7354.03 9.6517e-15
7355.28 9.5364e-15
7356.54 9.5481e-15
7357.79 9.5715e-15
7359.04 9.6157e-15
7360.3 9.57e-15
7361.55 9.4678e-15
7362.8 9.4925e-15
7364.06 9.5297e-15
7365.31 9.5329e-15
7366.56 9.5476e-15
7367.82 9.6086e-15
7369.07 9.4325e-15
7370.32 9.5809e-15
7371.58 9.4409e-15
7372.83 9.5277e-15
7374.08 9.6042e-15
7375.34 9.5494e-15
7376.59 9.6056e-15
7377.84 9.5871e-15
7379.1 9.5797e-15
7380.35 9.535e-15
7381.6 9.5138e-15
7382.86 9.5396e-15
7384.11 9.4901e-15
7385.37 9.5423e-15
7386.62 9.5301e-15
7387.87 9.6334e-15
7389.13 9.5986e-15
7390.38 9.518e-15
7391.63 9.5003e-15
7392.89 9.4917e-15
7394.14 9.5246e-15
7395.39 9.488e-15
7396.65 9.4755e-15
7397.9 9.4807e-15
7399.15 9.5221e-15
7400.41 9.5188e-15
7401.66 9.6101e-15
7402.91 9.4991e-15
7404.17 9.5538e-15
7405.42 9.6172e-15
7406.67 9.5908e-15
7407.93 9.5855e-15
7409.18 9.5997e-15
7410.43 9.5656e-15
7411.69 9.6598e-15
7412.94 9.569e-15
7414.19 9.5686e-15
7415.45 9.5229e-15
7416.7 9.5863e-15
7417.95 9.5858e-15
7419.21 9.559e-15
7420.46 9.588e-15
7421.71 9.5242e-15
7422.97 9.5132e-15
7424.22 9.5821e-15
7425.47 9.5267e-15
7426.73 9.606e-15
7427.98 9.6693e-15
7429.23 9.5676e-15
7430.49 9.6252e-15
7431.74 9.5158e-15
7432.99 9.579e-15
7434.25 9.5897e-15
7435.5 9.5391e-15
7436.75 9.6522e-15
7438.01 9.6887e-15
7439.26 9.7027e-15
7440.51 9.6428e-15
7441.77 9.6362e-15
7443.02 9.6783e-15
7444.27 9.6429e-15
7445.53 9.6362e-15
7446.78 9.5444e-15
7448.03 9.6047e-15
7449.29 9.595e-15
7450.54 9.6523e-15
7451.79 9.5773e-15
7453.05 9.577e-15
7454.3 9.6104e-15
7455.55 9.6397e-15
7456.81 9.6598e-15
7458.06 9.6757e-15
7459.31 9.6715e-15
7460.57 9.6526e-15
7461.82 9.6069e-15
7463.08 9.6119e-15
7464.33 9.5446e-15
7465.58 9.6176e-15
7466.84 9.6161e-15
7468.09 9.6637e-15
7469.34 9.4872e-15
7470.6 9.4811e-15
7471.85 9.5484e-15
7473.1 9.5199e-15
7474.36 9.6384e-15
7475.61 9.5213e-15
7476.86 9.4523e-15
7478.12 9.5124e-15
7479.37 9.5708e-15
7480.62 9.56e-15
7481.88 9.4806e-15
7483.13 9.4909e-15
7484.38 9.4215e-15
7485.64 9.4886e-15
7486.89 9.4576e-15
7488.14 9.4511e-15
7489.4 9.3917e-15
7490.65 9.3097e-15
7491.9 9.3927e-15
7493.16 9.433e-15
7494.41 9.4155e-15
7495.66 9.3614e-15
7496.92 9.2653e-15
7498.17 9.3309e-15
7499.42 9.3394e-15
7500.68 9.3313e-15
7501.93 9.2188e-15
7503.18 9.2191e-15
7504.44 9.3238e-15
7505.69 9.3122e-15
7506.94 9.189e-15
7508.2 9.1657e-15
7509.45 9.1806e-15
7510.7 9.1579e-15
7511.96 9.1326e-15
7513.21 9.1381e-15
7514.46 9.1172e-15
7515.72 9.1463e-15
7516.97 9.0249e-15
7518.22 8.9703e-15
7519.48 8.9962e-15
7520.73 9.051e-15
7521.98 9.071e-15
7523.24 9.0656e-15
7524.49 9.0128e-15
7525.74 8.9553e-15
7527.0 9.0236e-15
7528.25 8.8571e-15
7529.5 8.8928e-15
7530.76 8.9835e-15
7532.01 8.9329e-15
7533.26 8.868e-15
7534.52 8.7921e-15
7535.77 8.7469e-15
7537.02 8.7513e-15
7538.28 8.7723e-15
7539.53 8.784e-15
7540.79 8.7753e-15
7542.04 8.7517e-15
7543.29 8.732e-15
7544.55 8.7422e-15
7545.8 8.7184e-15
7547.05 8.619e-15
7548.31 8.5805e-15
7549.56 8.6003e-15
7550.81 8.581e-15
7552.07 8.2795e-15
7553.32 8.2981e-15
7554.57 8.4654e-15
7555.83 8.5587e-15
7557.08 8.5228e-15
7558.33 8.4555e-15
7559.59 8.5405e-15
7560.84 8.4392e-15
7562.09 8.363e-15
7563.35 8.3937e-15
7564.6 8.3631e-15
7565.85 8.349e-15
7567.11 8.2427e-15
7568.36 8.2224e-15
7569.61 8.2407e-15
7570.87 8.3427e-15
7572.12 8.2318e-15
7573.37 8.1696e-15
7574.63 8.0666e-15
7575.88 8.0649e-15
7577.13 8.051e-15
7578.39 8.0008e-15
7579.64 7.9362e-15
7580.89 7.8778e-15
7582.15 7.8227e-15
7583.4 7.8134e-15
7584.65 7.7351e-15
7585.91 7.8566e-15
7587.16 7.7395e-15
7588.41 7.6638e-15
7589.67 7.6082e-15
7590.92 7.483e-15
7592.17 7.2574e-15
7593.43 6.8926e-15
7594.68 6.688e-15
7595.93 6.9931e-15
7597.19 7.3179e-15
7598.44 6.8423e-15
7599.69 6.6852e-15
7600.95 6.461e-15
7602.2 6.404e-15
7603.45 6.3351e-15
7604.71 6.375e-15
7605.96 6.43e-15
7607.21 6.6624e-15
7608.47 6.5224e-15
7609.72 6.6821e-15
7610.97 6.9577e-15
7612.23 6.8411e-15
7613.48 7.1747e-15
7614.73 6.9597e-15
7615.99 7.3929e-15
7617.24 7.8354e-15
7618.5 7.066e-15
7619.75 6.3653e-15
7621.0 6.1995e-15
7622.26 6.2992e-15
7623.51 6.1786e-15
7624.76 6.6235e-15
7626.02 6.9611e-15
7627.27 6.2889e-15
7628.52 7.0111e-15
7629.78 6.951e-15
7631.03 6.2171e-15
7632.28 7.4408e-15
7633.54 7.2403e-15
7634.79 6.113e-15
7636.04 6.948e-15
7637.3 7.9037e-15
7638.55 6.449e-15
7639.8 6.5674e-15
7641.06 8.2125e-15
7642.31 7.7744e-15
7643.56 6.8367e-15
7644.82 7.383e-15
7646.07 8.4548e-15
7647.32 7.4531e-15
7648.58 6.5219e-15
7649.83 7.5127e-15
7651.08 9.2429e-15
7652.34 7.7417e-15
7653.59 7.1224e-15
7654.84 8.1161e-15
7656.1 8.9474e-15
7657.35 8.1682e-15
7658.6 7.4557e-15
7659.86 7.4719e-15
7661.11 8.5609e-15
7662.36 8.4298e-15
7663.62 7.7913e-15
7664.87 7.718e-15
7666.12 8.2776e-15
7667.38 8.6472e-15
7668.63 8.2087e-15
7669.88 7.8993e-15
7671.14 8.1949e-15
7672.39 8.6258e-15
7673.64 8.4646e-15
7674.9 8.1965e-15
7676.15 8.1994e-15
7677.4 8.5383e-15
7678.66 8.6507e-15
7679.91 8.3791e-15
7681.16 8.4381e-15
7682.42 8.3825e-15
7683.67 8.6674e-15
7684.92 8.8191e-15
7686.18 8.5769e-15
7687.43 8.6253e-15
7688.68 8.4819e-15
7689.94 8.709e-15
7691.19 8.9339e-15
7692.44 8.7867e-15
7693.7 8.5653e-15
7694.95 8.6419e-15
7696.21 8.5633e-15
7697.46 8.5967e-15
7698.71 8.7713e-15
7699.97 8.7709e-15
7701.22 8.905e-15
7702.47 8.8911e-15
7703.73 8.7978e-15
7704.98 8.805e-15
7706.23 8.894e-15
7707.49 8.9477e-15
7708.74 8.851e-15
7709.99 8.9099e-15
7711.25 8.9154e-15
7712.5 8.793e-15
7713.75 8.9963e-15
7715.01 9.1409e-15
7716.26 8.9223e-15
7717.51 8.9208e-15
7718.77 8.8905e-15
7720.02 8.9302e-15
7721.27 8.8591e-15
7722.53 8.9143e-15
7723.78 8.8623e-15
7725.03 8.8113e-15
7726.29 8.8519e-15
7727.54 8.8916e-15
7728.79 8.9764e-15
7730.05 8.9826e-15
7731.3 8.9605e-15
7732.55 9.009e-15
7733.81 8.9488e-15
7735.06 9.0378e-15
7736.31 8.9732e-15
7737.57 8.8407e-15
7738.82 8.8581e-15
7740.07 8.8627e-15
7741.33 8.8078e-15
7742.58 8.8296e-15
7743.83 8.8851e-15
7745.09 8.8949e-15
7746.34 8.8869e-15
7747.59 8.9381e-15
7748.85 8.946e-15
7750.1 8.717e-15
7751.35 8.7361e-15
7752.61 8.9647e-15
7753.86 8.8854e-15
7755.11 8.7973e-15
7756.37 8.8069e-15
7757.62 8.8716e-15
7758.87 8.9562e-15
7760.13 8.9224e-15
7761.38 8.7721e-15
7762.63 8.9569e-15
7763.89 9.0313e-15
7765.14 9.0181e-15
7766.39 8.9389e-15
7767.65 8.8973e-15
7768.9 8.9088e-15
7770.15 9.0038e-15
7771.41 8.9575e-15
7772.66 8.9822e-15
7773.92 9.0828e-15
7775.17 9.0878e-15
7776.42 9.1585e-15
7777.68 9.0935e-15
7778.93 9.1514e-15
7780.18 9.1651e-15
7781.44 9.0258e-15
7782.69 9.0507e-15
7783.94 9.0362e-15
7785.2 9.0458e-15
7786.45 9.052e-15
7787.7 9.0646e-15
7788.96 9.0441e-15
7790.21 9.1241e-15
7791.46 9.1541e-15
7792.72 9.2768e-15
7793.97 9.1102e-15
7795.22 9.2323e-15
7796.48 9.1436e-15
7797.73 9.078e-15
7798.98 9.1415e-15
7800.24 9.0106e-15
7801.49 9.0079e-15
7802.74 9.0331e-15
7804.0 9.1259e-15
7805.25 9.0348e-15
7806.5 9.1344e-15
7807.76 9.1044e-15
7809.01 9.2111e-15
7810.26 9.2077e-15
7811.52 9.1473e-15
7812.77 9.1889e-15
7814.02 9.22e-15
7815.28 9.1146e-15
7816.53 9.0379e-15
7817.78 9.071e-15
7819.04 8.9757e-15
7820.29 9.0653e-15
7821.54 8.8812e-15
7822.8 8.9412e-15
7824.05 9.1865e-15
7825.3 9.1039e-15
7826.56 9.0482e-15
7827.81 9.0267e-15
7829.06 9.0497e-15
7830.32 9.0674e-15
7831.57 8.9998e-15
7832.82 8.9142e-15
7834.08 8.9475e-15
7835.33 8.9467e-15
7836.58 8.8516e-15
7837.84 8.9758e-15
7839.09 8.9596e-15
7840.34 8.9019e-15
7841.6 8.943e-15
7842.85 9.0302e-15
7844.1 8.9544e-15
7845.36 9.0091e-15
7846.61 9.0208e-15
7847.86 8.897e-15
7849.12 8.9241e-15
7850.37 8.9262e-15
7851.63 8.9269e-15
7852.88 8.8532e-15
7854.13 8.7337e-15
7855.39 8.8352e-15
7856.64 8.9167e-15
7857.89 8.8179e-15
7859.15 8.8672e-15
7860.4 8.8725e-15
7861.65 8.8689e-15
7862.91 8.7312e-15
7864.16 8.8108e-15
7865.41 8.7374e-15
7866.67 8.8288e-15
7867.92 8.8516e-15
7869.17 8.7061e-15
7870.43 8.6958e-15
7871.68 8.8322e-15
7872.93 8.7536e-15
7874.19 8.6707e-15
7875.44 8.6958e-15
7876.69 8.7127e-15
7877.95 8.6633e-15
7879.2 8.6593e-15
7880.45 8.7711e-15
7881.71 8.6855e-15
7882.96 8.7289e-15
7884.21 8.7858e-15
7885.47 8.6741e-15
7886.72 8.5791e-15
7887.97 8.6401e-15
7889.23 8.8304e-15
7890.48 8.7917e-15
7891.73 8.5944e-15
7892.99 8.6475e-15
7894.24 8.5254e-15
7895.49 8.5924e-15
7896.75 8.5734e-15
7898.0 8.6005e-15
7899.25 8.6475e-15
7900.51 8.5458e-15
7901.76 8.4759e-15
7903.01 8.5104e-15
7904.27 8.5458e-15
7905.52 8.5816e-15
7906.77 8.5254e-15
7908.03 8.5428e-15
7909.28 8.4724e-15
7910.53 8.5513e-15
7911.79 8.7159e-15
7913.04 8.7335e-15
7914.29 8.5559e-15
7915.55 8.5605e-15
7916.8 8.7572e-15
7918.05 8.5977e-15
7919.31 8.4715e-15
7920.56 8.5951e-15
7921.81 8.4412e-15
7923.07 8.4625e-15
7924.32 8.3492e-15
7925.57 8.4391e-15
7926.83 8.41e-15
7928.08 8.3902e-15
7929.34 8.3568e-15
7930.59 8.3601e-15
7931.84 8.5324e-15
7933.1 8.601e-15
7934.35 8.5439e-15
7935.6 8.5397e-15
7936.86 8.538e-15
7938.11 8.4867e-15
7939.36 8.4408e-15
7940.62 8.4763e-15
7941.87 8.4589e-15
7943.12 8.3728e-15
7944.38 8.2784e-15
7945.63 8.4315e-15
7946.88 8.3755e-15
7948.14 8.3112e-15
7949.39 8.4803e-15
7950.64 8.3676e-15
7951.9 8.2823e-15
7953.15 8.3855e-15
7954.4 8.3011e-15
7955.66 8.3341e-15
7956.91 8.2792e-15
7958.16 8.331e-15
7959.42 8.299e-15
7960.67 8.251e-15
7961.92 8.2352e-15
7963.18 8.2868e-15
7964.43 7.9559e-15
7965.68 8.1678e-15
7966.94 8.3666e-15
7968.19 8.2261e-15
7969.44 8.1927e-15
7970.7 8.2338e-15
7971.95 8.2396e-15
7973.2 8.1683e-15
7974.46 8.3093e-15
7975.71 8.2406e-15
7976.96 8.237e-15
7978.22 8.2204e-15
7979.47 8.3655e-15
7980.72 8.3777e-15
7981.98 8.1954e-15
7983.23 8.1662e-15
7984.48 8.1358e-15
7985.74 8.2112e-15
7986.99 8.2442e-15
7988.24 8.2807e-15
7989.5 8.2477e-15
7990.75 8.338e-15
7992.0 8.3806e-15
7993.26 8.0062e-15
7994.51 7.9991e-15
7995.76 8.3047e-15
7997.02 8.1435e-15
7998.27 8.1389e-15
7999.52 8.0296e-15
8000.78 8.0989e-15
8002.03 8.1298e-15
8003.28 8.1712e-15
8004.54 8.195e-15
8005.79 8.1904e-15
8007.05 8.1074e-15
8008.3 8.1619e-15
8009.55 8.2363e-15
8010.81 8.1743e-15
8012.06 8.1702e-15
8013.31 8.022e-15
8014.57 8.0442e-15
8015.82 8.1099e-15
8017.07 8.0956e-15
8018.33 8.0983e-15
8019.58 8.0905e-15
8020.83 7.9827e-15
8022.09 8.0729e-15
8023.34 8.0499e-15
8024.59 8.1198e-15
8025.85 8.315e-15
8027.1 8.0651e-15
8028.35 8.1198e-15
8029.61 8.1077e-15
8030.86 8.1692e-15
8032.11 8.0384e-15
8033.37 7.9776e-15
8034.62 7.9338e-15
8035.87 7.8828e-15
8037.13 7.895e-15
8038.38 7.9641e-15
8039.63 7.9623e-15
8040.89 7.9843e-15
8042.14 7.9485e-15
8043.39 7.97e-15
8044.65 8.0562e-15
8045.9 8.0208e-15
8047.15 8.0363e-15
8048.41 8.0664e-15
8049.66 7.9556e-15
8050.91 7.9677e-15
8052.17 7.8663e-15
8053.42 7.8028e-15
8054.67 7.8131e-15
8055.93 7.8738e-15
8057.18 7.7995e-15
8058.43 7.9072e-15
8059.69 7.9303e-15
8060.94 7.9096e-15
8062.19 7.8163e-15
8063.45 7.7987e-15
8064.7 7.8627e-15
8065.95 7.7541e-15
8067.21 7.6931e-15
8068.46 7.735e-15
8069.71 7.6976e-15
8070.97 7.6378e-15
8072.22 7.6665e-15
8073.47 7.7501e-15
8074.73 7.7621e-15
8075.98 7.6926e-15
8077.23 7.7788e-15
8078.49 7.8404e-15
8079.74 7.7184e-15
8080.99 7.6984e-15
8082.25 7.6808e-15
8083.5 7.711e-15
8084.76 7.6432e-15
8086.01 7.6213e-15
8087.26 7.63e-15
8088.52 7.6408e-15
8089.77 7.6e-15
8091.02 7.6175e-15
8092.28 7.7667e-15
8093.53 7.6732e-15
8094.78 7.6274e-15
8096.04 7.7078e-15
8097.29 7.4704e-15
8098.54 7.6935e-15
8099.8 7.7425e-15
8101.05 7.6595e-15
8102.3 7.751e-15
8103.56 7.7303e-15
8104.81 7.7011e-15
8106.06 7.5867e-15
8107.32 7.5797e-15
8108.57 7.554e-15
8109.82 7.5593e-15
8111.08 7.623e-15
8112.33 7.6261e-15
8113.58 7.6493e-15
8114.84 7.6341e-15
8116.09 7.7636e-15
8117.34 7.8324e-15
8118.6 7.9039e-15
8119.85 7.8703e-15
8121.1 7.8081e-15
8122.36 7.7565e-15
8123.61 7.7382e-15
8124.86 7.9096e-15
8126.12 7.7446e-15
8127.37 7.881e-15
8128.62 7.7707e-15
8129.88 7.6538e-15
8131.13 7.696e-15
8132.38 7.677e-15
8133.64 7.6022e-15
8134.89 7.7669e-15
8136.14 7.7802e-15
8137.4 7.8035e-15
8138.65 7.7888e-15
8139.9 7.5144e-15
8141.16 7.7712e-15
8142.41 7.95e-15
8143.66 7.8046e-15
8144.92 7.773e-15
8146.17 7.6014e-15
8147.42 7.5746e-15
8148.68 7.78e-15
8149.93 7.839e-15
8151.18 7.8376e-15
8152.44 7.6057e-15
8153.69 7.5892e-15
8154.94 7.7891e-15
8156.2 7.8405e-15
8157.45 7.5794e-15
8158.7 7.777e-15
8159.96 7.4835e-15
8161.21 7.2829e-15
8162.47 7.6756e-15
8163.72 7.7219e-15
8164.97 7.8443e-15
8166.23 8.1215e-15
8167.48 7.6456e-15
8168.73 7.3625e-15
8169.99 7.621e-15
8171.24 7.9683e-15
8172.49 7.7228e-15
8173.75 7.5137e-15
8175.0 7.5297e-15
8176.25 7.3433e-15
8177.51 7.2593e-15
8178.76 7.5794e-15
8180.01 7.606e-15
8181.27 7.6179e-15
8182.52 7.8026e-15
8183.77 7.8098e-15
8185.03 7.5754e-15
8186.28 7.6688e-15
8187.53 7.7214e-15
8188.79 7.533e-15
8190.04 7.5948e-15
8191.29 7.6178e-15
8192.55 7.3647e-15
8193.8 7.603e-15
8195.05 7.6698e-15
8196.31 7.3252e-15
8197.56 7.2168e-15
8198.81 7.4847e-15
8200.07 7.4157e-15
8201.32 7.3773e-15
8202.57 7.3788e-15
8203.83 7.379e-15
8205.08 7.3327e-15
8206.33 7.3347e-15
8207.59 7.2492e-15
8208.84 7.1664e-15
8210.09 7.0448e-15
8211.35 6.9088e-15
8212.6 7.0204e-15
8213.85 7.0264e-15
8215.11 6.9386e-15
8216.36 6.8532e-15
8217.61 6.5594e-15
8218.87 6.8369e-15
8220.12 6.774e-15
8221.37 6.6096e-15
8222.63 6.5902e-15
8223.88 6.5202e-15
8225.13 6.4935e-15
8226.39 6.1238e-15
8227.64 6.0371e-15
8228.89 6.3577e-15
8230.15 6.3751e-15
8231.4 6.1662e-15
8232.65 6.2948e-15
8233.91 6.252e-15
8235.16 6.0625e-15
8236.41 5.9054e-15
8237.67 5.8511e-15
8238.92 5.6919e-15
8240.18 5.6412e-15
8241.43 5.6957e-15
8242.68 5.5444e-15
8243.94 5.6686e-15
8245.19 5.6422e-15
8246.44 5.4513e-15
8247.7 5.4408e-15
8248.95 5.4366e-15
8250.2 5.3544e-15
8251.46 5.2799e-15
8252.71 5.1032e-15
8253.96 5.0917e-15
8255.22 4.8699e-15
8256.47 4.7596e-15
8257.72 4.996e-15
8258.98 4.8465e-15
8260.23 4.7776e-15
8261.48 4.7021e-15
8262.74 4.4738e-15
8263.99 4.5251e-15
8265.24 4.4296e-15
8266.5 4.3738e-15
8267.75 4.3866e-15
8269.0 4.3032e-15
8270.26 4.2763e-15
8271.51 4.0994e-15
8272.76 4.0573e-15
8274.02 3.988e-15
8275.27 4.0645e-15
8276.52 4.0143e-15
8277.78 4.0295e-15
8279.03 3.8858e-15
8280.28 3.8263e-15
8281.54 3.8065e-15
8282.79 3.8114e-15
8284.04 3.9122e-15
8285.3 3.711e-15
8286.55 3.5876e-15
8287.8 3.5289e-15
8289.06 3.3054e-15
8290.31 3.5733e-15
8291.56 3.6855e-15
8292.82 3.4452e-15
8294.07 3.3321e-15
8295.32 3.5388e-15
8296.58 3.4555e-15
8297.83 3.41e-15
8299.08 3.5179e-15
8300.34 3.408e-15
8301.59 3.3322e-15
8302.84 3.3538e-15
8304.1 3.3654e-15
8305.35 3.4343e-15
8306.6 3.4589e-15
8307.86 3.3387e-15
8309.11 3.4526e-15
8310.36 3.3823e-15
8311.62 3.3562e-15
8312.87 3.4435e-15
8314.12 3.4046e-15
8315.38 3.3156e-15
8316.63 3.3023e-15
8317.89 3.2311e-15
8319.14 3.3245e-15
8320.39 3.2784e-15
8321.65 3.3062e-15
8322.9 3.3355e-15
8324.15 3.3624e-15
8325.41 3.3578e-15
8326.66 3.4145e-15
8327.91 3.3848e-15
8329.17 3.3601e-15
8330.42 3.4496e-15
8331.67 3.398e-15
8332.93 3.453e-15
8334.18 3.4588e-15
8335.43 3.456e-15
8336.69 3.428e-15
8337.94 3.4673e-15
8339.19 3.4898e-15
8340.45 3.6461e-15
8341.7 3.6182e-15
8342.95 3.876e-15
8344.21 3.1074e-15
8345.46 3.2841e-15
8346.71 4.2146e-15
8347.97 3.7518e-15
8349.22 3.7169e-15
8350.47 3.7616e-15
8351.73 3.9067e-15
8352.98 3.8783e-15
8354.23 3.7781e-15
8355.49 3.9278e-15
8356.74 3.8831e-15
8357.99 3.945e-15
8359.25 4.3934e-15
8360.5 4.5045e-15
8361.75 4.1631e-15
8363.01 4.0025e-15
8364.26 4.0036e-15
8365.51 4.0754e-15
8366.77 4.2093e-15
8368.02 4.2442e-15
8369.27 4.3084e-15
8370.53 4.3602e-15
8371.78 4.3248e-15
8373.03 4.3167e-15
8374.29 4.2599e-15
8375.54 4.2866e-15
8376.79 4.2885e-15
8378.05 4.3081e-15
8379.3 4.2526e-15
8380.55 4.3154e-15
8381.81 4.1929e-15
8383.06 4.2655e-15
8384.31 4.4692e-15
8385.57 4.3437e-15
8386.82 4.3488e-15
8388.07 4.3168e-15
8389.33 4.4032e-15
8390.58 4.5458e-15
8391.83 4.5438e-15
8393.09 4.5168e-15
8394.34 4.5506e-15
8395.6 4.5224e-15
8396.85 4.5105e-15
8398.1 4.2597e-15
8399.36 4.5764e-15
8400.61 4.7731e-15
8401.86 4.5501e-15
8403.12 4.547e-15
8404.37 4.5366e-15
8405.62 4.5406e-15
8406.88 4.605e-15
8408.13 4.5889e-15
8409.38 4.5588e-15
8410.64 4.6298e-15
8411.89 4.6041e-15
8413.14 4.4824e-15
8414.4 4.4849e-15
8415.65 4.5794e-15
8416.9 4.724e-15
8418.16 4.6747e-15
8419.41 4.6628e-15
8420.66 4.7429e-15
8421.92 4.7761e-15
8423.17 4.8751e-15
8424.42 4.9374e-15
8425.68 4.9597e-15
8426.93 4.9954e-15
8428.18 4.9318e-15
8429.44 5.3878e-15
8430.69 5.1572e-15
8431.94 4.6439e-15
8433.2 4.9438e-15
8434.45 5.004e-15
8435.7 4.9737e-15
8436.96 4.8719e-15
8438.21 4.834e-15
8439.46 4.8676e-15
8440.72 4.866e-15
8441.97 4.8709e-15
8443.22 4.8943e-15
8444.48 4.8971e-15
8445.73 4.9966e-15
8446.98 4.9684e-15
8448.24 5.0391e-15
8449.49 5.1891e-15
8450.74 5.1627e-15
8452.0 5.3275e-15
8453.25 5.4342e-15
8454.5 5.337e-15
8455.76 5.4359e-15
8457.01 5.3318e-15
8458.26 5.3136e-15
8459.52 5.3058e-15
8460.77 5.2721e-15
8462.02 5.2563e-15
8463.28 5.1021e-15
8464.53 5.3777e-15
8465.78 5.3671e-15
8467.04 5.0646e-15
8468.29 5.1773e-15
8469.54 5.3077e-15
8470.8 5.3493e-15
8472.05 5.3394e-15
8473.31 5.4073e-15
8474.56 5.4377e-15
8475.81 5.5517e-15
8477.07 5.6629e-15
8478.32 5.7581e-15
8479.57 5.7584e-15
8480.83 5.7178e-15
8482.08 5.8483e-15
8483.33 5.9014e-15
8484.59 5.9625e-15
8485.84 5.9071e-15
8487.09 5.9777e-15
8488.35 5.9861e-15
8489.6 5.8983e-15
8490.85 5.9261e-15
8492.11 5.9718e-15
8493.36 5.8152e-15
8494.61 5.8434e-15
8495.87 5.9751e-15
8497.12 6.0773e-15
8498.37 6.1683e-15
8499.63 6.2739e-15
8500.88 6.3309e-15
8502.13 6.3624e-15
8503.39 6.361e-15
8504.64 6.9238e-15
8505.89 7.1656e-15
8507.15 6.7315e-15
8508.4 6.7334e-15
8509.65 6.7163e-15
8510.91 6.7609e-15
8512.16 6.7725e-15
8513.41 6.8361e-15
8514.67 6.9856e-15
8515.92 6.945e-15
8517.17 7.0873e-15
8518.43 7.1416e-15
8519.68 6.9945e-15
8520.93 7.1387e-15
8522.19 7.1745e-15
8523.44 7.1684e-15
8524.69 7.2124e-15
8525.95 7.2277e-15
8527.2 7.2625e-15
8528.45 7.3868e-15
8529.71 7.4279e-15
8530.96 7.4365e-15
8532.21 7.5527e-15
8533.47 7.7494e-15
8534.72 7.7996e-15
8535.97 7.8303e-15
8537.23 7.8973e-15
8538.48 7.9922e-15
8539.73 7.9877e-15
8540.99 7.9448e-15
8542.24 8.0724e-15
8543.49 8.0311e-15
8544.75 8.0881e-15
8546.0 8.1244e-15
8547.25 8.1883e-15
8548.51 8.1069e-15
8549.76 8.026e-15
8551.02 8.0793e-15
8552.27 8.0954e-15
8553.52 8.0676e-15
8554.78 8.1817e-15
8556.03 8.2585e-15
8557.28 8.2053e-15
8558.54 8.3318e-15
8559.79 8.4442e-15
8561.04 8.6371e-15
8562.3 8.6156e-15
8563.55 8.6335e-15
8564.8 8.606e-15
8566.06 8.642e-15
8567.31 8.5578e-15
8568.56 8.5864e-15
8569.82 8.5699e-15
8571.07 8.5647e-15
8572.32 8.6171e-15
8573.58 8.5628e-15
8574.83 8.5337e-15
8576.08 8.4972e-15
8577.34 8.6394e-15
8578.59 8.5613e-15
8579.84 8.521e-15
8581.1 8.5498e-15
8582.35 8.6117e-15
8583.6 8.5084e-15
8584.86 8.6958e-15
8586.11 8.8245e-15
8587.36 8.9179e-15
8588.62 8.9487e-15
8589.87 9.0448e-15
8591.12 8.9696e-15
8592.38 9.0318e-15
8593.63 8.9859e-15
8594.88 8.9888e-15
8596.14 8.9247e-15
8597.39 8.897e-15
8598.64 8.8455e-15
8599.9 8.6472e-15
8601.15 8.714e-15
8602.4 8.7223e-15
8603.66 8.6501e-15
8604.91 8.5943e-15
8606.16 8.6484e-15
8607.42 8.7452e-15
8608.67 8.7233e-15
8609.92 8.715e-15
8611.18 8.8882e-15
8612.43 8.9689e-15
8613.68 9.0464e-15
8614.94 9.0618e-15
8616.19 9.2341e-15
8617.44 9.1186e-15
8618.7 9.207e-15
8619.95 9.1077e-15
8621.2 9.0474e-15
8622.46 9.0785e-15
8623.71 8.9964e-15
8624.96 8.8851e-15
8626.22 8.8146e-15
8627.47 8.7273e-15
8628.73 8.678e-15
8629.98 8.7204e-15
8631.23 8.5629e-15
8632.49 8.7388e-15
8633.74 8.6703e-15
8634.99 8.7166e-15
8636.25 8.7543e-15
8637.5 8.8204e-15
8638.75 8.9235e-15
8640.01 8.9511e-15
8641.26 8.901e-15
8642.51 8.9474e-15
8643.77 8.9661e-15
8645.02 8.8466e-15
8646.27 8.9105e-15
8647.53 8.8102e-15
8648.78 8.8584e-15
8650.03 8.7713e-15
8651.29 8.8137e-15
8652.54 8.6096e-15
8653.79 8.4905e-15
8655.05 8.5545e-15
8656.3 8.6047e-15
8657.55 8.7959e-15
8658.81 8.7405e-15
8660.06 8.7029e-15
8661.31 8.7336e-15
8662.57 8.6797e-15
8663.82 8.8404e-15
8665.07 8.9169e-15
8666.33 8.7579e-15
8667.58 8.6267e-15
8668.83 8.7376e-15
8670.09 8.6194e-15
8671.34 8.5845e-15
8672.59 8.6395e-15
8673.85 8.5842e-15
8675.1 8.5066e-15
8676.35 8.5023e-15
8677.61 8.5174e-15
8678.86 8.5609e-15
8680.11 8.5861e-15
8681.37 8.6193e-15
8682.62 8.5662e-15
8683.87 8.5609e-15
8685.13 8.5031e-15
8686.38 8.4575e-15
8687.63 8.581e-15
8688.89 8.4648e-15
8690.14 8.3699e-15
8691.39 8.4784e-15
8692.65 8.3416e-15
8693.9 8.3979e-15
8695.15 8.4015e-15
8696.41 8.3203e-15
8697.66 8.2473e-15
8698.91 8.3254e-15
8700.17 8.3118e-15
8701.42 8.2539e-15
8702.67 8.2205e-15
8703.93 8.2416e-15
8705.18 8.1577e-15
8706.44 8.1993e-15
8707.69 8.067e-15
8708.94 8.1574e-15
8710.2 8.1814e-15
8711.45 8.1721e-15
8712.7 8.0595e-15
8713.96 8.0573e-15
8715.21 7.8843e-15
8716.46 7.9819e-15
8717.72 7.8547e-15
8718.97 7.8911e-15
8720.22 7.9133e-15
8721.48 7.8513e-15
8722.73 7.8742e-15
8723.98 7.792e-15
8725.24 7.797e-15
8726.49 7.8724e-15
8727.74 7.9189e-15
8729.0 7.832e-15
8730.25 7.8271e-15
8731.5 7.8829e-15
8732.76 7.7829e-15
8734.01 7.7397e-15
8735.26 7.697e-15
8736.52 7.6131e-15
8737.77 7.4757e-15
8739.02 7.453e-15
8740.28 7.4022e-15
8741.53 7.3385e-15
8742.78 7.2921e-15
8744.04 7.3487e-15
8745.29 7.353e-15
8746.54 7.3077e-15
8747.8 7.5205e-15
8749.05 7.4854e-15
8750.3 7.4176e-15
8751.56 7.4607e-15
8752.81 7.3985e-15
8754.06 7.4205e-15
8755.32 7.3704e-15
8756.57 7.2742e-15
8757.82 7.163e-15
8759.08 7.3591e-15
8760.33 7.209e-15
8761.58 7.1314e-15
8762.84 7.1514e-15
8764.09 7.1239e-15
8765.34 7.1541e-15
8766.6 7.161e-15
8767.85 7.0232e-15
8769.1 7.0442e-15
8770.36 7.1932e-15
8771.61 7.2022e-15
8772.86 7.1802e-15
8774.12 7.1615e-15
8775.37 7.018e-15
8776.62 7.2363e-15
8777.88 7.0264e-15
8779.13 6.871e-15
8780.38 6.877e-15
8781.64 6.0444e-15
8782.89 5.9495e-15
8784.15 6.0219e-15
8785.4 6.0089e-15
8786.65 5.9576e-15
8787.91 6.3904e-15
8789.16 6.9937e-15
8790.41 6.9215e-15
8791.67 6.9607e-15
8792.92 7.0961e-15
8794.17 7.0435e-15
8795.43 7.0408e-15
8796.68 7.13e-15
8797.93 7.0552e-15
8799.19 7.0884e-15
8800.44 7.2663e-15
8801.69 7.2224e-15
8802.95 7.0519e-15
8804.2 6.9849e-15
8805.45 6.9748e-15
8806.71 6.8594e-15
8807.96 6.8278e-15
8809.21 6.8122e-15
8810.47 6.8236e-15
8811.72 6.7915e-15
8812.97 6.8654e-15
8814.23 6.743e-15
8815.48 6.8891e-15
8816.73 6.8982e-15
8817.99 6.8873e-15
8819.24 6.8408e-15
8820.49 6.9999e-15
8821.75 7.0144e-15
8823.0 6.9681e-15
8824.25 6.8914e-15
8825.51 6.9066e-15
8826.76 7.1151e-15
8828.01 6.9561e-15
8829.27 6.5167e-15
8830.52 6.6968e-15
8831.77 6.6561e-15
8833.03 6.7328e-15
8834.28 6.7522e-15
8835.53 6.5636e-15
8836.79 6.4508e-15
8838.04 6.6544e-15
8839.29 6.6332e-15
8840.55 6.7764e-15
8841.8 6.9309e-15
8843.05 6.894e-15
8844.31 6.9928e-15
8845.56 7.0009e-15
8846.81 6.9513e-15
8848.07 6.9082e-15
8849.32 6.8684e-15
8850.57 6.8263e-15
8851.83 6.8066e-15
8853.08 6.7525e-15
8854.33 6.6893e-15
8855.59 6.644e-15
8856.84 6.5676e-15
8858.09 6.4295e-15
8859.35 6.5379e-15
8860.6 6.5571e-15
8861.86 6.7146e-15
8863.11 6.7204e-15
8864.36 6.7036e-15
8865.62 6.7966e-15
8866.87 6.9425e-15
8868.12 6.9805e-15
8869.38 6.8783e-15
8870.63 6.8372e-15
8871.88 6.9172e-15
8873.14 6.9007e-15
8874.39 6.8216e-15
8875.64 6.7578e-15
8876.9 6.7468e-15
8878.15 6.6947e-15
8879.4 6.6287e-15
8880.66 6.6429e-15
8881.91 6.5961e-15
8883.16 6.5616e-15
8884.42 6.4454e-15
8885.67 6.8482e-15
8886.92 6.8237e-15
8888.18 6.4972e-15
8889.43 6.6199e-15
8890.68 6.6899e-15
8891.94 6.7704e-15
8893.19 6.7359e-15
8894.44 6.7458e-15
8895.7 6.8274e-15
8896.95 6.7946e-15
8898.2 6.6708e-15
8899.46 6.6976e-15
8900.71 6.5956e-15
8901.96 6.6213e-15
8903.22 6.619e-15
8904.47 6.7696e-15
8905.72 6.5902e-15
8906.98 6.482e-15
8908.23 6.5207e-15
8909.48 6.5011e-15
8910.74 6.5984e-15
8911.99 6.5428e-15
8913.24 6.5052e-15
8914.5 6.5054e-15
8915.75 6.4698e-15
8917.0 6.536e-15
8918.26 6.7402e-15
8919.51 6.1734e-15
8920.76 6.2471e-15
8922.02 6.5986e-15
8923.27 6.4696e-15
8924.52 6.465e-15
8925.78 6.4084e-15
8927.03 6.3432e-15
8928.28 6.224e-15
8929.54 6.1279e-15
8930.79 6.129e-15
8932.04 6.28e-15
8933.3 6.3073e-15
8934.55 6.2799e-15
8935.8 6.4081e-15
8937.06 6.7009e-15
8938.31 6.5107e-15
8939.57 6.4734e-15
8940.82 6.3836e-15
8942.07 6.6178e-15
8943.33 6.4882e-15
8944.58 6.5153e-15
8945.83 6.4001e-15
8947.09 6.2745e-15
8948.34 6.2743e-15
8949.59 6.3189e-15
8950.85 6.2226e-15
8952.1 6.1372e-15
8953.35 6.1051e-15
8954.61 5.9009e-15
8955.86 6.5021e-15
8957.11 6.5378e-15
8958.37 6.0161e-15
8959.62 6.5528e-15
8960.87 6.3423e-15
8962.13 6.0222e-15
8963.38 6.3414e-15
8964.63 6.3025e-15
8965.89 6.0908e-15
8967.14 6.6268e-15
8968.39 6.4197e-15
8969.65 6.2185e-15
8970.9 5.7142e-15
8972.15 5.9734e-15
8973.41 6.0962e-15
8974.66 6.0494e-15
8975.91 6.2851e-15
8977.17 6.3245e-15
8978.42 6.358e-15
8979.67 5.875e-15
8980.93 6.0505e-15
8982.18 6.687e-15
8983.43 6.5557e-15
8984.69 6.2415e-15
8985.94 5.7908e-15
8987.19 5.6637e-15
8988.45 6.0442e-15
8989.7 5.9535e-15
8990.95 5.7079e-15
8992.21 6.2181e-15
8993.46 6.6576e-15
8994.71 6.0112e-15
8995.97 6.1402e-15
8997.22 6.3083e-15
8998.47 6.2962e-15
8999.73 6.2344e-15
9000.98 6.3997e-15
9002.23 5.9557e-15
9003.49 5.9175e-15
9004.74 6.511e-15
9005.99 6.4485e-15
9007.25 6.0859e-15
9008.5 6.4185e-15
9009.75 6.4998e-15
9011.01 6.0758e-15
9012.26 6.1506e-15
9013.51 6.3598e-15
9014.77 5.9456e-15
9016.02 5.4071e-15
9017.28 5.7337e-15
9018.53 6.2622e-15
9019.78 5.895e-15
9021.04 5.6284e-15
9022.29 5.368e-15
9023.54 5.6679e-15
9024.8 5.5191e-15
9026.05 5.5061e-15
9027.3 5.9487e-15
9028.56 5.6736e-15
9029.81 5.4337e-15
9031.06 5.4164e-15
9032.32 5.5207e-15
9033.57 5.555e-15
9034.82 5.291e-15
9036.08 5.35e-15
9037.33 5.3234e-15
9038.58 4.6334e-15
9039.84 3.4382e-15
9041.09 3.1863e-15
9042.34 2.8427e-15
9043.6 2.9816e-15
9044.85 3.0608e-15
9046.1 3.0713e-15
9047.36 3.3291e-15
9048.61 3.4587e-15
9049.86 3.7969e-15
9051.12 4.9561e-15
9052.37 4.8029e-15
9053.62 4.8784e-15
9054.88 5.039e-15
9056.13 4.9183e-15
9057.38 4.9751e-15
9058.64 4.9223e-15
9059.89 4.5996e-15
9061.14 4.6388e-15
9062.4 4.6606e-15
9063.65 4.6975e-15
9064.9 4.844e-15
9066.16 4.7288e-15
9067.41 4.6017e-15
9068.66 4.2327e-15
9069.92 4.6292e-15
9071.17 4.7279e-15
9072.42 4.6204e-15
9073.68 4.8165e-15
9074.93 4.9607e-15
9076.18 4.9138e-15
9077.44 4.7686e-15
9078.69 4.5287e-15
9079.94 4.4759e-15
9081.2 4.7733e-15
9082.45 4.9817e-15
9083.7 5.039e-15
9084.96 4.7543e-15
9086.21 4.4208e-15
9087.46 4.8482e-15
9088.72 5.1681e-15
9089.97 5.0177e-15
9091.22 5.07e-15
9092.48 4.8678e-15
9093.73 4.9574e-15
9094.99 5.0821e-15
9096.24 5.1995e-15
9097.49 5.1633e-15
9098.75 4.8352e-15
9100.0 4.8341e-15
9101.25 5.3356e-15
9102.51 5.2846e-15
9103.76 5.0843e-15
9105.01 4.8812e-15
9106.27 4.8438e-15
9107.52 4.9139e-15
9108.77 5.2809e-15
9110.03 5.3167e-15
9111.28 5.4137e-15
9112.53 5.3845e-15
9113.79 5.3371e-15
9115.04 5.2567e-15
9116.29 5.2286e-15
9117.55 4.892e-15
9118.8 5.1175e-15
9120.05 5.685e-15
9121.31 5.6966e-15
9122.56 5.6908e-15
9123.81 5.7044e-15
9125.07 5.6378e-15
9126.32 5.5601e-15
9127.57 5.351e-15
9128.83 5.2042e-15
9130.08 5.1518e-15
9131.33 5.5841e-15
9132.59 5.7544e-15
9133.84 5.3993e-15
9135.09 5.1049e-15
9136.35 5.0931e-15
9137.6 5.8837e-15
9138.85 6.0127e-15
9140.11 5.7729e-15
9141.36 5.8027e-15
9142.61 5.7782e-15
9143.87 5.6224e-15
9145.12 5.7765e-15
9146.37 5.975e-15
9147.63 5.7962e-15
9148.88 5.8882e-15
9150.13 5.6529e-15
9151.39 5.4275e-15
9152.64 5.2471e-15
9153.89 5.5694e-15
9155.15 5.3262e-15
9156.4 5.5335e-15
9157.65 6.2137e-15
9158.91 5.8776e-15
9160.16 5.7399e-15
9161.41 5.8812e-15
9162.67 5.8175e-15
9163.92 5.7867e-15
9165.17 5.9031e-15
9166.43 5.8085e-15
9167.68 5.6177e-15
9168.93 5.7531e-15
9170.19 5.8503e-15
9171.44 5.8754e-15
9172.7 5.4908e-15
9173.95 5.3386e-15
9175.2 5.9227e-15
9176.46 5.9803e-15
9177.71 6.0268e-15
9178.96 5.9782e-15
9180.22 6.0556e-15
9181.47 5.9892e-15
9182.72 5.8231e-15
9183.98 5.5446e-15
9185.23 5.8194e-15
9186.48 6.0319e-15
9187.74 6.0217e-15
9188.99 5.9028e-15
9190.24 5.855e-15
9191.5 5.8552e-15
9192.75 5.7881e-15
9194.0 5.6273e-15
9195.26 5.212e-15
9196.51 5.4705e-15
9197.76 5.9972e-15
9199.02 6.0887e-15
9200.27 6.173e-15
9201.52 6.1923e-15
9202.78 6.3083e-15
9204.03 6.1725e-15
9205.28 6.0403e-15
9206.54 5.8997e-15
9207.79 5.9501e-15
9209.04 6.0349e-15
9210.3 6.0214e-15
9211.55 5.9706e-15
9212.8 5.7945e-15
9214.06 5.4396e-15
9215.31 5.5038e-15
9216.56 5.5572e-15
9217.82 5.4538e-15
9219.07 5.832e-15
9220.32 5.9086e-15
9221.58 5.7472e-15
9222.83 5.8214e-15
9224.08 5.8108e-15
9225.34 5.5987e-15
9226.59 5.9939e-15
9227.84 6.0416e-15
9229.1 5.8159e-15
9230.35 5.8718e-15
9231.6 5.9132e-15
9232.86 5.696e-15
9234.11 5.636e-15
9235.36 5.5987e-15
9236.62 5.6051e-15
9237.87 5.4721e-15
9239.12 5.342e-15
9240.38 5.5351e-15
9241.63 5.5857e-15
9242.88 5.5928e-15
9244.14 5.4103e-15
9245.39 5.3298e-15
9246.64 5.4446e-15
9247.9 5.6577e-15
9249.15 5.6421e-15
9250.41 5.4859e-15
9251.66 5.4603e-15
9252.91 5.7227e-15
9254.17 5.6963e-15
9255.42 5.7957e-15
9256.67 5.8986e-15
9257.93 5.8781e-15
9259.18 5.5456e-15
9260.43 5.2805e-15
9261.69 5.3052e-15
9262.94 5.5105e-15
9264.19 5.7272e-15
9265.45 5.7526e-15
9266.7 5.6599e-15
9267.95 5.6617e-15
9269.21 5.6142e-15
9270.46 5.6816e-15
9271.71 5.5813e-15
9272.97 5.3639e-15
9274.22 5.4875e-15
9275.47 5.6616e-15
9276.73 5.5023e-15
9277.98 5.1244e-15
9279.23 5.0906e-15
9280.49 5.5808e-15
9281.74 5.6348e-15
9282.99 5.5283e-15
9284.25 5.1747e-15
9285.5 5.0537e-15
9286.75 5.3515e-15
9288.01 5.2847e-15
9289.26 5.2389e-15
9290.51 5.2814e-15
9291.77 5.2536e-15
9293.02 5.2653e-15
9294.27 5.0588e-15
9295.53 5.2767e-15
9296.78 5.3017e-15
