# wavelength flux
3300.0 5.5019109217983667e-14
3301.0 5.499385275565195e-14
3302.0 5.496860788726309e-14
3303.0 5.49433746074949e-14
3304.0 5.491815291102764e-14
3305.0 5.4892942792544e-14
3306.0 5.4867744246729204e-14
3307.0 5.484255726827074e-14
3308.0 5.4817381851858667e-14
3309.0 5.4792217992185434e-14
3310.0 5.476706568394599e-14
3311.0 5.474192492183761e-14
3312.0 5.471679570056011e-14
3313.0 5.4691678014815716e-14
3314.0 5.4666571859308974e-14
3315.0 5.464147722874701e-14
3316.0 5.461639411783929e-14
3317.0 5.459132252129776e-14
3318.0 5.456626243383676e-14
3319.0 5.4541213850173115e-14
3320.0 5.451617676502594e-14
3321.0 5.449115117311689e-14
3322.0 5.4466137069170046e-14
3323.0 5.444113444791185e-14
3324.0 5.4416143304071204e-14
3325.0 5.4391163632379415e-14
3326.0 5.436619542757028e-14
3327.0 5.4341238684379834e-14
3328.0 5.4316293397546694e-14
3329.0 5.429135956181185e-14
3330.0 5.426643717191867e-14
3331.0 5.4241526222612976e-14
3332.0 5.4216626708643044e-14
3333.0 5.4191738624759393e-14
3334.0 5.416686196571511e-14
3335.0 5.4141996726265654e-14
3336.0 5.411714290116887e-14
3337.0 5.409230048518502e-14
3338.0 5.4067469473076785e-14
3339.0 5.404264985960927e-14
3340.0 5.4017841639549854e-14
3341.0 5.399304480766846e-14
3342.0 5.396825935873738e-14
3343.0 5.3943485287531267e-14
3344.0 5.3918722588827226e-14
3345.0 5.389397125740474e-14
3346.0 5.3869231288045625e-14
3347.0 5.384450267553415e-14
3348.0 5.3819785414657016e-14
3349.0 5.379507950020324e-14
3350.0 5.377038492696431e-14
3351.0 5.3745701689734016e-14
3352.0 5.372102978330866e-14
3353.0 5.3696369202486734e-14
3354.0 5.367171994206931e-14
3355.0 5.364708199685978e-14
3356.0 5.3622455361663887e-14
3357.0 5.359784003128983e-14
3358.0 5.357323600054818e-14
3359.0 5.3548643264251743e-14
3360.0 5.352406181721591e-14
3361.0 5.349949165425835e-14
3362.0 5.347493277019911e-14
3363.0 5.345038515986065e-14
3364.0 5.3425848818067794e-14
3365.0 5.3401323739647773e-14
3366.0 5.337680991943006e-14
3367.0 5.335230735224664e-14
3368.0 5.332781603293185e-14
3369.0 5.330333595632236e-14
3370.0 5.327886711725722e-14
3371.0 5.325440951057791e-14
3372.0 5.322996313112813e-14
3373.0 5.320552797375407e-14
3374.0 5.318110403330428e-14
3375.0 5.3156691304629645e-14
3376.0 5.313228978258342e-14
3377.0 5.310789946202121e-14
3378.0 5.308352033780106e-14
3379.0 5.305915240478319e-14
3380.0 5.303479565783036e-14
3381.0 5.301045009180763e-14
3382.0 5.298611570158242e-14
3383.0 5.296179248202448e-14
3384.0 5.2937480428005937e-14
3385.0 5.291317953440133e-14
3386.0 5.2888889796087395e-14
3387.0 5.2864611207943354e-14
3388.0 5.284034376485075e-14
3389.0 5.2816087461693454e-14
3390.0 5.2791842293357704e-14
3391.0 5.276760825473213e-14
3392.0 5.2743385340707574e-14
3393.0 5.271917354617734e-14
3394.0 5.269497286603705e-14
3395.0 5.2670783295184666e-14
3396.0 5.2646604828520465e-14
3397.0 5.262243746094713e-14
3398.0 5.259828118736966e-14
3399.0 5.257413600269528e-14
3400.0 5.2550001901833714e-14
3401.0 5.252587887969696e-14
3402.0 5.2501766931199314e-14
3403.0 5.2477666051257485e-14
3404.0 5.245357623479049e-14
3405.0 5.2429497476719575e-14
3406.0 5.2405429771968456e-14
3407.0 5.238137311546311e-14
3408.0 5.235732750213187e-14
3409.0 5.2333292926905395e-14
3410.0 5.2309269384716646e-14
3411.0 5.2285256870500984e-14
3412.0 5.226125537919594e-14
3413.0 5.2237264905741503e-14
3414.0 5.221328544507996e-14
3415.0 5.2189316992155926e-14
3416.0 5.216535954191629e-14
3417.0 5.2141413089310336e-14
3418.0 5.2117477629289543e-14
3419.0 5.209355315680782e-14
3420.0 5.206963966682136e-14
3421.0 5.2045737154288666e-14
3422.0 5.2021845614170565e-14
3423.0 5.199796504143017e-14
3424.0 5.1974095431032986e-14
3425.0 5.1950236777946684e-14
3426.0 5.1926389077141363e-14
3427.0 5.1902552323589405e-14
3428.0 5.187872651226549e-14
3429.0 5.18549116381466e-14
3430.0 5.183110769621208e-14
3431.0 5.180731468144344e-14
3432.0 5.178353258882463e-14
3433.0 5.175976141334186e-14
3434.0 5.173600114998364e-14
3435.0 5.171225179374077e-14
3436.0 5.168851333960636e-14
3437.0 5.166478578257586e-14
3438.0 5.164106911764689e-14
3439.0 5.161736333981949e-14
3440.0 5.1593668444095955e-14
3441.0 5.1569984425480874e-14
3442.0 5.154631127898113e-14
3443.0 5.152264899960595e-14
3444.0 5.14989975823667e-14
3445.0 5.147535702227718e-14
3446.0 5.145172731435343e-14
3447.0 5.14281084536138e-14
3448.0 5.140450043507891e-14
3449.0 5.138090325377164e-14
3450.0 5.135731690471724e-14
3451.0 5.1333741382943094e-14
3452.0 5.1310176683479e-14
3453.0 5.1286622801357e-14
3454.0 5.1263079731611416e-14
3455.0 5.123954746927883e-14
3456.0 5.121602600939817e-14
3457.0 5.119251534701051e-14
3458.0 5.1169015477159304e-14
3459.0 5.114552639489028e-14
3460.0 5.1122048095251406e-14
3461.0 5.109858057329292e-14
3462.0 5.107512382406738e-14
3463.0 5.10516778426296e-14
3464.0 5.1028242624036566e-14
3465.0 5.100481816334765e-14
3466.0 5.0981404455624476e-14
3467.0 5.0958001495930886e-14
3468.0 5.0934609279333034e-14
3469.0 5.091122780089936e-14
3470.0 5.088785705570043e-14
3471.0 5.0864497038809245e-14
3472.0 5.084114774530097e-14
3473.0 5.0817809170253054e-14
3474.0 5.079448130874521e-14
3475.0 5.077116415585942e-14
3476.0 5.074785770667993e-14
3477.0 5.072456195629315e-14
3478.0 5.0701276899787874e-14
3479.0 5.067800253225506e-14
3480.0 5.0654738848787976e-14
3481.0 5.0631485844482123e-14
3482.0 5.0608243514435286e-14
3483.0 5.058501185374738e-14
3484.0 5.056179085752071e-14
3485.0 5.0538580520859746e-14
3486.0 5.0515380838871254e-14
3487.0 5.0492191806664225e-14
3488.0 5.0469013419349887e-14
3489.0 5.0445845672041775e-14
3490.0 5.0422688559855515e-14
3491.0 5.0399542077909114e-14
3492.0 5.0376406221322796e-14
3493.0 5.035328098521899e-14
3494.0 5.0330166364722406e-14
3495.0 5.0307062354959975e-14
3496.0 5.02839689510608e-14
3497.0 5.026088614815631e-14
3498.0 5.0237813941380136e-14
3499.0 5.021475232586816e-14
3500.0 5.019170129675845e-14
3500.79 4.708e-14
3501.58 4.6902e-14
3502.36 4.6961e-14
3503.15 4.6689e-14
3503.94 4.744e-14
3504.73 4.7704e-14
3505.51 4.8251e-14
3506.3 4.904e-14
3507.09 4.8407e-14
3507.88 4.8502e-14
3508.66 4.8721e-14
3509.45 4.8662e-14
3510.24 4.8767e-14
3511.03 4.8469e-14
3511.82 4.9182e-14
3512.6 4.9241e-14
3513.39 4.9575e-14
3514.18 5.0254e-14
3514.97 4.8812e-14
3515.75 4.9405e-14
3516.54 4.9888e-14
3517.33 4.9445e-14
3518.12 4.936e-14
3518.9 4.879e-14
3519.69 4.9771e-14
3520.48 4.9425e-14
3521.27 5.0602e-14
3522.06 5.045e-14
3522.84 5.0369e-14
3523.63 5.0409e-14
3524.42 4.9624e-14
3525.21 5.1083e-14
3525.99 5.0926e-14
3526.78 5.1287e-14
3527.57 5.0731e-14
3528.36 5.0309e-14
3529.14 5.0665e-14
3529.93 5.1085e-14
3530.72 5.099e-14
3531.51 5.0723e-14
3532.3 5.1772e-14
3533.08 5.1818e-14
3533.87 5.1387e-14
3534.66 5.1231e-14
3535.45 5.1272e-14
3536.23 5.1862e-14
3537.02 5.1975e-14
3537.81 5.123e-14
3538.6 5.2578e-14
3539.38 5.2291e-14
3540.17 5.2296e-14
3540.96 5.2631e-14
3541.75 5.1939e-14
3542.54 5.1842e-14
3543.32 5.1498e-14
3544.11 5.1778e-14
3544.9 5.1898e-14
3545.69 5.2409e-14
3546.47 5.2223e-14
3547.26 5.2967e-14
3548.05 5.3028e-14
3548.84 5.3171e-14
3549.62 5.3236e-14
3550.41 5.343e-14
3551.2 5.3155e-14
3551.99 5.2926e-14
3552.78 5.3575e-14
3553.56 5.3273e-14
3554.35 5.3222e-14
3555.14 5.2881e-14
3555.93 5.2826e-14
3556.71 5.2409e-14
3557.5 5.3459e-14
3558.29 5.2919e-14
3559.08 5.4141e-14
3559.86 5.2853e-14
3560.65 5.2571e-14
3561.44 5.2684e-14
3562.23 5.2921e-14
3563.02 5.3704e-14
3563.8 5.3694e-14
3564.59 5.4071e-14
3565.38 5.3547e-14
3566.17 5.2964e-14
3566.95 5.1924e-14
3567.74 5.2561e-14
3568.53 5.2657e-14
3569.32 5.2391e-14
3570.1 5.2844e-14
3570.89 5.2326e-14
3571.68 5.2186e-14
3572.47 5.18e-14
3573.26 5.1299e-14
3574.04 5.2531e-14
3574.83 5.1487e-14
3575.62 5.1593e-14
3576.41 5.1588e-14
3577.19 5.2597e-14
3577.98 5.2504e-14
3578.77 5.1831e-14
3579.56 5.1843e-14
3580.34 5.1729e-14
3581.13 5.227e-14
3581.92 5.2014e-14
3582.71 5.2083e-14
3583.5 5.1861e-14
3584.28 5.1346e-14
3585.07 5.1867e-14
3585.86 5.2178e-14
3586.65 5.1876e-14
3587.43 5.2327e-14
3588.22 5.1793e-14
3589.01 5.1399e-14
3589.8 5.2072e-14
3590.58 5.1834e-14
3591.37 5.1425e-14
3592.16 5.1985e-14
3592.95 5.1064e-14
3593.74 5.0945e-14
3594.52 5.1485e-14
3595.31 5.1678e-14
3596.1 5.0934e-14
3596.89 5.135e-14
3597.67 5.0813e-14
3598.46 4.9977e-14
3599.25 4.9935e-14
3600.04 5.0239e-14
3600.82 4.9989e-14
3601.61 4.9863e-14
3602.4 5.0226e-14
3603.19 5.0998e-14
3603.98 5.0996e-14
3604.76 5.0108e-14
3605.55 5.0028e-14
3606.34 4.9733e-14
3607.13 4.9917e-14
3607.91 4.8813e-14
3608.7 4.9732e-14
3609.49 4.9573e-14
3610.28 4.9292e-14
3611.06 4.8916e-14
3611.85 4.8825e-14
3612.64 4.8421e-14
3613.43 4.8904e-14
3614.22 4.9207e-14
3615.0 4.9263e-14
3615.79 4.8782e-14
3616.58 4.8207e-14
3617.37 4.9284e-14
3618.15 4.8454e-14
3618.94 4.8133e-14
3619.73 4.8022e-14
3620.52 4.8073e-14
3621.3 4.9142e-14
3622.09 4.8145e-14
3622.88 4.7426e-14
3623.67 4.7527e-14
3624.46 4.8538e-14
3625.24 4.7735e-14
3626.03 4.7858e-14
3626.82 4.7819e-14
3627.61 4.762e-14
3628.39 4.7752e-14
3629.18 4.8227e-14
3629.97 4.8216e-14
3630.76 4.7739e-14
3631.54 4.7559e-14
3632.33 4.7493e-14
3633.12 4.7901e-14
3633.91 4.7441e-14
3634.7 4.7616e-14
3635.48 4.8053e-14
3636.27 4.8005e-14
3637.06 4.762e-14
3637.85 4.8147e-14
3638.63 4.8493e-14
3639.42 4.8269e-14
3640.21 4.8527e-14
3641.0 4.8784e-14
3641.78 4.8415e-14
3642.57 4.7363e-14
3643.36 4.7713e-14
3644.15 4.7521e-14
3644.94 4.7528e-14
3645.72 4.7544e-14
3646.51 4.7838e-14
3647.3 4.8457e-14
3648.09 4.8064e-14
3648.87 4.7912e-14
3649.66 4.842e-14
3650.45 4.899e-14
3651.24 4.7951e-14
3652.02 4.845e-14
3652.81 4.8127e-14
3653.6 4.7602e-14
3654.39 4.7697e-14
3655.18 4.8188e-14
3655.96 4.8475e-14
3656.75 4.7759e-14
3657.54 4.8133e-14
3658.33 4.7906e-14
3659.11 4.789e-14
3659.9 4.8176e-14
3660.69 4.869e-14
3661.48 4.8533e-14
3662.26 4.8424e-14
3663.05 4.8328e-14
3663.84 4.8295e-14
3664.63 4.8727e-14
3665.42 4.8239e-14
3666.2 4.7656e-14
3666.99 4.8236e-14
3667.78 4.8194e-14
3668.57 4.8197e-14
3669.35 4.7433e-14
3670.14 4.8171e-14
3670.93 4.8181e-14
3671.72 4.8251e-14
3672.5 4.8583e-14
3673.29 4.827e-14
3674.08 4.8235e-14
3674.87 4.8129e-14
3675.66 4.8257e-14
3676.44 4.8735e-14
3677.23 4.8067e-14
3678.02 4.8132e-14
3678.81 4.8294e-14
3679.59 4.8145e-14
3680.38 4.8225e-14
3681.17 4.8151e-14
3681.96 4.7999e-14
3682.74 4.6441e-14
3683.53 4.3313e-14
3684.32 4.3884e-14
3685.11 4.4702e-14
3685.9 4.8168e-14
3686.68 4.803e-14
3687.47 4.7811e-14
3688.26 4.8019e-14
3689.05 4.8265e-14
3689.83 4.8012e-14
3690.62 4.763e-14
3691.41 4.7668e-14
3692.2 4.7765e-14
3692.98 4.7707e-14
3693.77 4.8073e-14
3694.56 4.7808e-14
3695.35 4.8046e-14
3696.14 4.846e-14
3696.92 4.8398e-14
3697.71 4.7985e-14
3698.5 4.775e-14
3699.29 4.7979e-14
3700.07 4.7805e-14
3700.86 4.7344e-14
3701.65 4.7505e-14
3702.44 4.7198e-14
3703.22 4.7157e-14
3704.01 4.7334e-14
3704.8 4.8007e-14
3705.59 4.7484e-14
3706.38 4.7047e-14
3707.16 4.7558e-14
3707.95 4.6825e-14
3708.74 4.6938e-14
3709.53 4.7074e-14
3710.31 4.6203e-14
3711.1 4.6329e-14
3711.89 4.6413e-14
3712.68 4.6517e-14
3713.46 4.6173e-14
3714.25 4.6112e-14
3715.04 4.7013e-14
3715.83 4.6723e-14
3716.62 4.7388e-14
3717.4 4.7101e-14
3718.19 4.6851e-14
3718.98 4.6842e-14
3719.77 4.7122e-14
3720.55 4.7326e-14
3721.34 4.7102e-14
3722.13 4.7361e-14
3722.92 4.7045e-14
3723.7 4.7133e-14
3724.49 4.7117e-14
3725.28 4.697e-14
3726.07 4.6914e-14
3726.86 4.7084e-14
3727.64 4.7198e-14
3728.43 4.6807e-14
3729.22 4.7487e-14
3730.01 4.7017e-14
3730.79 4.7213e-14
3731.58 4.7492e-14
3732.37 4.7587e-14
3733.16 4.7475e-14
3733.94 4.7085e-14
3734.73 4.7211e-14
3735.52 4.6915e-14
3736.31 4.7025e-14
3737.1 4.6957e-14
3737.88 4.706e-14
3738.67 4.6492e-14
3739.46 4.5998e-14
3740.25 4.6236e-14
3741.03 4.6897e-14
3741.82 4.6756e-14
3742.61 4.6648e-14
3743.4 4.6585e-14
3744.18 4.6542e-14
3744.97 4.5732e-14
3745.76 4.6333e-14
3746.55 4.6444e-14
3747.34 4.62e-14
3748.12 4.6897e-14
3748.91 4.6815e-14
3749.7 4.6235e-14
3750.49 4.6472e-14
3751.27 4.6705e-14
3752.06 4.6753e-14
3752.85 4.6176e-14
3753.64 4.5994e-14
3754.42 4.6036e-14
3755.21 4.6446e-14
3756.0 4.6541e-14
3756.79 4.6454e-14
3757.58 4.6713e-14
3758.36 4.6596e-14
3759.15 4.6095e-14
3759.94 4.5927e-14
3760.73 4.6314e-14
3761.51 4.6241e-14
3762.3 4.627e-14
3763.09 4.6361e-14
3763.88 4.5924e-14
3764.66 4.6056e-14
3765.45 4.6088e-14
3766.24 4.6115e-14
3767.03 4.6104e-14
3767.82 4.6193e-14
3768.6 4.5804e-14
3769.39 4.6635e-14
3770.18 4.6617e-14
3770.97 4.606e-14
3771.75 4.631e-14
3772.54 4.5876e-14
3773.33 4.636e-14
3774.12 4.6412e-14
3774.9 4.6168e-14
3775.69 4.6217e-14
3776.48 4.6609e-14
3777.27 4.6592e-14
3778.06 4.6086e-14
3778.84 4.621e-14
3779.63 4.5956e-14
3780.42 4.6174e-14
3781.21 4.6015e-14
3781.99 4.5929e-14
3782.78 4.5956e-14
3783.57 4.53e-14
3784.36 4.5639e-14
3785.14 4.5408e-14
3785.93 4.5629e-14
3786.72 4.513e-14
3787.51 4.4761e-14
3788.3 4.5192e-14
3789.08 4.5364e-14
3789.87 4.5489e-14
3790.66 4.5501e-14
3791.45 4.5569e-14
3792.23 4.5453e-14
3793.02 4.5693e-14
3793.81 4.5398e-14
3794.6 4.5218e-14
3795.38 4.5539e-14
3796.17 4.4859e-14
3796.96 4.471e-14
3797.75 4.5076e-14
3798.54 4.5095e-14
3799.32 4.4814e-14
3800.11 4.4753e-14
3800.9 4.48e-14
3801.69 4.4859e-14
3802.47 4.4967e-14
3803.26 4.493e-14
3804.05 4.4718e-14
3804.84 4.4776e-14
3805.62 4.4373e-14
3806.41 4.463e-14
3807.2 4.4309e-14
3807.99 4.4367e-14
3808.78 4.4273e-14
3809.56 4.4033e-14
3810.35 4.4232e-14
3811.14 4.4252e-14
3811.93 4.421e-14
3812.71 4.4543e-14
3813.5 4.4487e-14
3814.29 4.4544e-14
3815.08 4.424e-14
3815.86 4.3493e-14
3816.65 4.3547e-14
3817.44 4.3515e-14
3818.23 4.3608e-14
3819.02 4.3723e-14
3819.8 4.3057e-14
3820.59 4.2881e-14
3821.38 4.3154e-14
3822.17 4.3106e-14
3822.95 4.3064e-14
3823.74 4.3176e-14
3824.53 4.3008e-14
3825.32 4.331e-14
3826.1 4.3311e-14
3826.89 4.3769e-14
3827.68 4.3323e-14
3828.47 4.3281e-14
3829.26 4.3832e-14
3830.04 4.366e-14
3830.83 4.3246e-14
3831.62 4.3357e-14
3832.41 4.3816e-14
3833.19 4.3527e-14
3833.98 4.3303e-14
3834.77 4.3749e-14
3835.56 4.3822e-14
3836.34 4.3566e-14
3837.13 4.3599e-14
3837.92 4.3556e-14
3838.71 4.375e-14
3839.5 4.3758e-14
3840.28 4.4045e-14
3841.07 4.3552e-14
3841.86 4.3521e-14
3842.65 4.3832e-14
3843.43 4.4024e-14
3844.22 4.366e-14
3845.01 4.1633e-14
3845.8 3.8364e-14
3846.59 3.8068e-14
3847.37 3.8544e-14
3848.16 3.84e-14
3848.95 3.8159e-14
3849.74 3.8607e-14
3850.52 3.9514e-14
3851.31 4.0823e-14
3852.1 4.2325e-14
3852.89 4.3481e-14
3853.67 4.4064e-14
3854.46 4.4347e-14
3855.25 4.456e-14
3856.04 4.4321e-14
3856.83 4.3606e-14
3857.61 4.381e-14
3858.4 4.3829e-14
3859.19 4.4372e-14
3859.98 4.4551e-14
3860.76 4.4451e-14
3861.55 4.4308e-14
3862.34 4.4077e-14
3863.13 4.3746e-14
3863.91 4.2175e-14
3864.7 4.2446e-14
3865.49 4.213e-14
3866.28 4.2534e-14
3867.07 4.3839e-14
3867.85 4.4331e-14
3868.64 4.4381e-14
3869.43 4.419e-14
3870.22 4.4218e-14
3871.0 4.4305e-14
3871.79 4.4062e-14
3872.58 4.4185e-14
3873.37 4.4186e-14
3874.15 4.4532e-14
3874.94 4.4424e-14
3875.73 4.4397e-14
3876.52 4.4631e-14
3877.31 4.4281e-14
3878.09 4.4122e-14
3878.88 4.4297e-14
3879.67 4.4492e-14
3880.46 4.4916e-14
3881.24 4.3842e-14
3882.03 4.4516e-14
3882.82 4.4409e-14
3883.61 4.4407e-14
3884.39 4.4563e-14
3885.18 4.4107e-14
3885.97 4.463e-14
3886.76 4.4551e-14
3887.55 4.4543e-14
3888.33 4.4598e-14
3889.12 4.4616e-14
3889.91 4.4523e-14
3890.7 4.4591e-14
3891.48 4.4716e-14
3892.27 4.4701e-14
3893.06 4.5127e-14
3893.85 4.502e-14
3894.63 4.5065e-14
3895.42 4.5306e-14
3896.21 4.5278e-14
3897.0 4.4575e-14
3897.79 4.503e-14
3898.57 4.5064e-14
3899.36 4.5227e-14
3900.15 4.4864e-14
3900.94 4.5116e-14
3901.72 4.4546e-14
3902.51 4.4841e-14
3903.3 4.4851e-14
3904.09 4.4906e-14
3904.87 4.5046e-14
3905.66 4.4698e-14
3906.45 4.4406e-14
3907.24 4.4542e-14
3908.03 4.482e-14
3908.81 4.455e-14
3909.6 4.484e-14
3910.39 4.4989e-14
3911.18 4.4784e-14
3911.96 4.4808e-14
3912.75 4.4956e-14
3913.54 4.4618e-14
3914.33 4.4268e-14
3915.11 4.4471e-14
3915.9 4.456e-14
3916.69 4.4258e-14
3917.48 4.4465e-14
3918.27 4.4627e-14
3919.05 4.4745e-14
3919.84 4.4972e-14
3920.63 4.4547e-14
3921.42 4.4968e-14
3922.2 4.4879e-14
3922.99 4.4649e-14
3923.78 4.4713e-14
3924.57 4.4815e-14
3925.35 4.4262e-14
3926.14 4.4788e-14
3926.93 4.4663e-14
3927.72 4.4344e-14
3928.51 4.4513e-14
3929.29 4.4452e-14
3930.08 4.3815e-14
3930.87 4.2784e-14
3931.66 3.9216e-14
3932.44 3.8953e-14
3933.23 4.2518e-14
3934.02 4.3832e-14
3934.81 4.4345e-14
3935.59 4.4298e-14
3936.38 4.4175e-14
3937.17 4.3938e-14
3937.96 4.4062e-14
3938.75 4.3292e-14
3939.53 4.1356e-14
3940.32 4.0212e-14
3941.11 4.1593e-14
3941.9 4.3305e-14
3942.68 4.4021e-14
3943.47 4.4002e-14
3944.26 4.3635e-14
3945.05 4.3931e-14
3945.83 4.3817e-14
3946.62 4.3746e-14
3947.41 4.37e-14
3948.2 4.3563e-14
3948.99 4.3381e-14
3949.77 4.3521e-14
3950.56 4.3006e-14
3951.35 4.2814e-14
3952.14 4.2826e-14
3952.92 4.3086e-14
3953.71 4.246e-14
3954.5 4.2728e-14
3955.29 4.2603e-14
3956.07 4.2607e-14
3956.86 4.2233e-14
3957.65 4.2638e-14
3958.44 4.2361e-14
3959.23 4.2408e-14
3960.01 4.2664e-14
3960.8 4.2687e-14
3961.59 4.2706e-14
3962.38 4.2089e-14
3963.16 4.2184e-14
3963.95 4.2132e-14
3964.74 4.2274e-14
3965.53 4.1571e-14
3966.31 3.9354e-14
3967.1 3.8199e-14
3967.89 3.9839e-14
3968.68 4.1255e-14
3969.47 4.1724e-14
3970.25 4.1702e-14
3971.04 4.1455e-14
3971.83 4.1371e-14
3972.62 4.1342e-14
3973.4 4.0889e-14
3974.19 3.998e-14
3974.98 3.9302e-14
3975.77 3.9596e-14
3976.55 4.0328e-14
3977.34 4.0818e-14
3978.13 4.0806e-14
3978.92 4.0552e-14
3979.71 4.049e-14
3980.49 4.0603e-14
3981.28 4.0611e-14
3982.07 4.0529e-14
3982.86 4.0227e-14
3983.64 4.0063e-14
3984.43 4.0388e-14
3985.22 4.0398e-14
3986.01 4.0488e-14
3986.79 4.0291e-14
3987.58 4.0287e-14
3988.37 4.013e-14
3989.16 4.005e-14
3989.95 3.9962e-14
3990.73 4.0303e-14
3991.52 4.0093e-14
3992.31 3.9883e-14
3993.1 4.0126e-14
3993.88 3.965e-14
3994.67 3.9763e-14
3995.46 3.9803e-14
3996.25 3.9771e-14
3997.03 3.9835e-14
3997.82 3.9798e-14
3998.61 4.0005e-14
3999.4 4.0152e-14
4000.19 3.9813e-14
4000.97 4.0009e-14
4001.76 3.9507e-14
4002.55 3.9919e-14
4003.34 3.9599e-14
4004.12 3.9764e-14
4004.91 3.998e-14
4005.7 3.9518e-14
4006.49 3.9639e-14
4007.27 3.9606e-14
4008.06 3.9646e-14
4008.85 3.9405e-14
4009.64 3.9579e-14
4010.43 3.9471e-14
4011.21 3.9509e-14
4012.0 3.966e-14
4012.79 3.9534e-14
4013.58 3.9226e-14
4014.36 3.9504e-14
4015.15 3.9603e-14
4015.94 3.9496e-14
4016.73 3.9467e-14
4017.51 3.9361e-14
4018.3 3.9207e-14
4019.09 3.9401e-14
4019.88 3.9373e-14
4020.67 3.9478e-14
4021.45 3.953e-14
4022.24 3.9444e-14
4023.03 3.9763e-14
4023.82 3.9444e-14
4024.6 3.9401e-14
4025.39 3.9732e-14
4026.18 3.9702e-14
4026.97 3.9757e-14
4027.75 3.9807e-14
4028.54 3.9683e-14
4029.33 3.9559e-14
4030.12 3.995e-14
4030.91 3.9876e-14
4031.69 3.979e-14
4032.48 3.971e-14
4033.27 3.9964e-14
4034.06 3.9941e-14
4034.84 3.9634e-14
4035.63 3.9975e-14
4036.42 4.0312e-14
4037.21 3.9894e-14
4037.99 4.0028e-14
4038.78 4.0413e-14
4039.57 3.9945e-14
4040.36 4.0219e-14
4041.15 4.0312e-14
4041.93 4.0094e-14
4042.72 4.0419e-14
4043.51 4.0201e-14
4044.3 4.0073e-14
4045.08 4.0119e-14
4045.87 4.0324e-14
4046.66 4.004e-14
4047.45 4.0163e-14
4048.23 4.02e-14
4049.02 4.0583e-14
4049.81 4.0246e-14
4050.6 4.044e-14
4051.39 4.0137e-14
4052.17 4.017e-14
4052.96 4.0671e-14
4053.75 4.0553e-14
4054.54 4.0553e-14
4055.32 4.052e-14
4056.11 4.0247e-14
4056.9 3.9224e-14
4057.69 3.8343e-14
4058.47 3.9018e-14
4059.26 3.9773e-14
4060.05 4.1018e-14
4060.84 4.047e-14
4061.63 4.0695e-14
4062.41 4.048e-14
4063.2 4.0555e-14
4063.99 4.0685e-14
4064.78 4.0951e-14
4065.56 4.0871e-14
4066.35 4.0961e-14
4067.14 4.0785e-14
4067.93 4.1012e-14
4068.71 4.0953e-14
4069.5 4.067e-14
4070.29 4.0458e-14
4071.08 4.0695e-14
4071.87 4.0844e-14
4072.65 4.05e-14
4073.44 4.0432e-14
4074.23 4.0775e-14
4075.02 4.0587e-14
4075.8 4.0586e-14
4076.59 4.0656e-14
4077.38 4.0345e-14
4078.17 4.0377e-14
4078.95 4.041e-14
4079.74 4.0441e-14
4080.53 4.0641e-14
4081.32 4.0395e-14
4082.11 4.0336e-14
4082.89 4.0173e-14
4083.68 4.0218e-14
4084.47 4.0268e-14
4085.26 4.0378e-14
4086.04 4.04e-14
4086.83 4.0169e-14
4087.62 4.0127e-14
4088.41 4.0387e-14
4089.19 4.0115e-14
4089.98 3.9968e-14
4090.77 4.0391e-14
4091.56 4.0169e-14
4092.35 3.9973e-14
4093.13 4.0045e-14
4093.92 4.0024e-14
4094.71 3.9816e-14
4095.5 3.9725e-14
4096.28 3.9946e-14
4097.07 3.9985e-14
4097.86 3.9761e-14
4098.65 3.9983e-14
4099.43 3.9817e-14
4100.22 4.0055e-14
4101.01 4.0216e-14
4101.8 3.999e-14
4102.59 3.9805e-14
4103.37 3.9724e-14
4104.16 3.9365e-14
4104.95 3.9899e-14
4105.74 3.929e-14
4106.52 3.971e-14
4107.31 3.9949e-14
4108.1 3.9601e-14
4108.89 3.9533e-14
4109.67 3.9494e-14
4110.46 3.9378e-14
4111.25 3.9574e-14
4112.04 3.955e-14
4112.83 3.9286e-14
4113.61 3.9143e-14
4114.4 3.8834e-14
4115.19 3.9003e-14
4115.98 3.9303e-14
4116.76 3.9179e-14
4117.55 3.8996e-14
4118.34 3.8985e-14
4119.13 3.8949e-14
4119.91 3.9257e-14
4120.7 3.8991e-14
4121.49 3.8652e-14
4122.28 3.877e-14
4123.07 3.8204e-14
4123.85 3.8566e-14
4124.64 3.8408e-14
4125.43 3.8663e-14
4126.22 3.8317e-14
4127.0 3.8203e-14
4127.79 3.8177e-14
4128.58 3.8112e-14
4129.37 3.814e-14
4130.15 3.8039e-14
4130.94 3.7854e-14
4131.73 3.7638e-14
4132.52 3.7833e-14
4133.31 3.7654e-14
4134.09 3.7824e-14
4134.88 3.7626e-14
4135.67 3.7235e-14
4136.46 3.7515e-14
4137.24 3.74e-14
4138.03 3.7184e-14
4138.82 3.7384e-14
4139.61 3.7487e-14
4140.39 3.7118e-14
4141.18 3.7083e-14
4141.97 3.7347e-14
4142.76 3.7339e-14
4143.55 3.7261e-14
4144.33 3.6776e-14
4145.12 3.704e-14
4145.91 3.6906e-14
4146.7 3.7099e-14
4147.48 3.6943e-14
4148.27 3.7033e-14
4149.06 3.6877e-14
4149.85 3.6895e-14
4150.63 3.6781e-14
4151.42 3.6754e-14
4152.21 3.6808e-14
4153.0 3.6494e-14
4153.79 3.6493e-14
4154.57 3.6423e-14
4155.36 3.6673e-14
4156.15 3.6435e-14
4156.94 3.5882e-14
4157.72 3.6467e-14
4158.51 3.6763e-14
4159.3 3.6649e-14
4160.09 3.6635e-14
4160.87 3.6703e-14
4161.66 3.6211e-14
4162.45 3.6298e-14
4163.24 3.6267e-14
4164.03 3.6256e-14
4164.81 3.6333e-14
4165.6 3.6242e-14
4166.39 3.6375e-14
4167.18 3.6002e-14
4167.96 3.5929e-14
4168.75 3.6017e-14
4169.54 3.5824e-14
4170.33 3.567e-14
4171.11 3.5956e-14
4171.9 3.5995e-14
4172.69 3.6104e-14
4173.48 3.6071e-14
4174.27 3.5773e-14
4175.05 3.5856e-14
4175.84 3.5809e-14
4176.63 3.5624e-14
4177.42 3.5851e-14
4178.2 3.566e-14
4178.99 3.5704e-14
4179.78 3.5594e-14
4180.57 3.5588e-14
4181.35 3.5535e-14
4182.14 3.5644e-14
4182.93 3.5923e-14
4183.72 3.6061e-14
4184.51 3.5708e-14
4185.29 3.5646e-14
4186.08 3.5525e-14
4186.87 3.5814e-14
4187.66 3.5967e-14
4188.44 3.5832e-14
4189.23 3.6092e-14
4190.02 3.5814e-14
4190.81 3.6008e-14
4191.59 3.604e-14
4192.38 3.5906e-14
4193.17 3.604e-14
4193.96 3.597e-14
4194.75 3.5862e-14
4195.53 3.589e-14
4196.32 3.6225e-14
4197.11 3.6021e-14
4197.9 3.6013e-14
4198.68 3.6177e-14
4199.47 3.5745e-14
4200.26 3.5875e-14
4201.05 3.6005e-14
4201.83 3.5895e-14
4202.62 3.5319e-14
4203.41 3.5751e-14
4204.2 3.5815e-14
4204.99 3.5814e-14
4205.77 3.5884e-14
4206.56 3.5345e-14
4207.35 3.5758e-14
4208.14 3.5698e-14
4208.92 3.5612e-14
4209.71 3.5564e-14
4210.5 3.5718e-14
4211.29 3.556e-14
4212.07 3.5695e-14
4212.86 3.5645e-14
4213.65 3.5394e-14
4214.44 3.5388e-14
4215.23 3.5235e-14
4216.01 3.5141e-14
4216.8 3.5353e-14
4217.59 3.5369e-14
4218.38 3.5397e-14
4219.16 3.5194e-14
4219.95 3.5239e-14
4220.74 3.5188e-14
4221.53 3.5111e-14
4222.31 3.4869e-14
4223.1 3.5001e-14
4223.89 3.473e-14
4224.68 3.5009e-14
4225.47 3.474e-14
4226.25 3.4732e-14
4227.04 3.4828e-14
4227.83 3.4828e-14
4228.62 3.4742e-14
4229.4 3.4595e-14
4230.19 3.4484e-14
4230.98 3.4516e-14
4231.77 3.4278e-14
4232.55 3.4199e-14
4233.34 3.4247e-14
4234.13 3.4335e-14
4234.92 3.438e-14
4235.71 3.4116e-14
4236.49 3.4154e-14
4237.28 3.423e-14
4238.07 3.4302e-14
4238.86 3.4065e-14
4239.64 3.3991e-14
4240.43 3.4018e-14
4241.22 3.3671e-14
4242.01 3.3488e-14
4242.79 3.3616e-14
4243.58 3.3761e-14
4244.37 3.3606e-14
4245.16 3.3592e-14
4245.95 3.3558e-14
4246.73 3.3054e-14
4247.52 3.2546e-14
4248.31 3.2073e-14
4249.1 3.2996e-14
4249.88 3.2975e-14
4250.67 3.3463e-14
4251.46 3.356e-14
4252.25 3.3272e-14
4253.03 3.3359e-14
4253.82 3.3537e-14
4254.61 3.3404e-14
4255.4 3.3622e-14
4256.19 3.3667e-14
4256.97 3.3642e-14
4257.76 3.3469e-14
4258.55 3.3528e-14
4259.34 3.3752e-14
4260.12 3.3653e-14
4260.91 3.339e-14
4261.7 3.3689e-14
4262.49 3.2842e-14
4263.27 3.1022e-14
4264.06 3.0903e-14
4264.85 3.1373e-14
4265.64 3.1913e-14
4266.43 3.3031e-14
4267.21 3.3168e-14
4268.0 3.3408e-14
4268.79 3.3708e-14
4269.58 3.3856e-14
4270.36 3.377e-14
4271.15 3.3892e-14
4271.94 3.3695e-14
4272.73 3.3622e-14
4273.51 3.3635e-14
4274.3 3.3709e-14
4275.09 3.381e-14
4275.88 3.3907e-14
4276.67 3.3611e-14
4277.45 3.3941e-14
4278.24 3.3817e-14
4279.03 3.361e-14
4279.82 3.371e-14
4280.6 3.3714e-14
4281.39 3.3854e-14
4282.18 3.3854e-14
4282.97 3.3738e-14
4283.75 3.3601e-14
4284.54 3.3861e-14
4285.33 3.3657e-14
4286.12 3.3818e-14
4286.91 3.3757e-14
4287.69 3.3864e-14
4288.48 3.3623e-14
4289.27 3.3517e-14
4290.06 3.3419e-14
4290.84 3.3754e-14
4291.63 3.353e-14
4292.42 3.3733e-14
4293.21 3.3478e-14
4293.99 3.3284e-14
4294.78 3.4569e-14
4295.57 3.4364e-14
4296.36 3.4965e-14
4297.15 3.3602e-14
4297.93 3.3506e-14
4298.72 3.3436e-14
4299.51 3.315e-14
4300.3 3.3111e-14
4301.08 3.3181e-14
4301.87 3.314e-14
4302.66 3.3178e-14
4303.45 3.2927e-14
4304.23 3.2975e-14
4305.02 3.2999e-14
4305.81 3.2958e-14
4306.6 3.302e-14
4307.39 3.2844e-14
4308.17 3.2821e-14
4308.96 3.3019e-14
4309.75 3.2886e-14
4310.54 3.295e-14
4311.32 3.299e-14
4312.11 3.2947e-14
4312.9 3.3042e-14
4313.69 3.275e-14
4314.47 3.2934e-14
4315.26 3.2826e-14
4316.05 3.2698e-14
4316.84 3.2824e-14
4317.63 3.2887e-14
4318.41 3.2764e-14
4319.2 3.2837e-14
4319.99 3.2775e-14
4320.78 3.2761e-14
4321.56 3.2759e-14
4322.35 3.2722e-14
4323.14 3.2649e-14
4323.93 3.2943e-14
4324.71 3.2654e-14
4325.5 3.2736e-14
4326.29 3.2801e-14
4327.08 3.2641e-14
4327.87 3.2665e-14
4328.65 3.2795e-14
4329.44 3.2661e-14
4330.23 3.2645e-14
4331.02 3.244e-14
4331.8 3.2441e-14
4332.59 3.2583e-14
4333.38 3.2468e-14
4334.17 3.237e-14
4334.95 3.2284e-14
4335.74 3.1049e-14
4336.53 3.0646e-14
4337.32 3.0572e-14
4338.11 2.9924e-14
4338.89 3.0022e-14
4339.68 2.9327e-14
4340.47 2.9601e-14
4341.26 3.0012e-14
4342.04 3.2196e-14
4342.83 3.2254e-14
4343.62 3.2167e-14
4344.41 3.2284e-14
4345.19 3.2282e-14
4345.98 3.2291e-14
4346.77 3.2391e-14
4347.56 3.2575e-14
4348.35 3.2206e-14
4349.13 3.2242e-14
4349.92 3.2342e-14
4350.71 3.2151e-14
4351.5 3.2346e-14
4352.28 3.2271e-14
4353.07 3.2326e-14
4353.86 3.2267e-14
4354.65 3.2273e-14
4355.43 3.2192e-14
4356.22 3.2302e-14
4357.01 3.2122e-14
4357.8 3.2326e-14
4358.59 3.2257e-14
4359.37 3.2346e-14
4360.16 3.2109e-14
4360.95 3.2269e-14
4361.74 3.2387e-14
4362.52 3.2306e-14
4363.31 3.228e-14
4364.1 3.22e-14
4364.89 3.2337e-14
4365.67 3.2546e-14
4366.46 3.2383e-14
4367.25 3.2205e-14
4368.04 3.222e-14
4368.83 3.2057e-14
4369.61 3.2156e-14
4370.4 3.2118e-14
4371.19 3.2078e-14
4371.98 3.2314e-14
4372.76 3.2075e-14
4373.55 3.2175e-14
4374.34 3.2089e-14
4375.13 3.1984e-14
4375.91 3.2402e-14
4376.7 3.2179e-14
4377.49 3.2048e-14
4378.28 3.2189e-14
4379.07 3.1948e-14
4379.85 3.209e-14
4380.64 3.1834e-14
4381.43 3.1725e-14
4382.22 3.1876e-14
4383.0 3.2081e-14
4383.79 3.1981e-14
4384.58 3.183e-14
4385.37 3.176e-14
4386.15 3.176e-14
4386.94 3.1966e-14
4387.73 3.1867e-14
4388.52 3.188e-14
4389.31 3.1543e-14
4390.09 3.1859e-14
4390.88 3.189e-14
4391.67 3.1824e-14
4392.46 3.166e-14
4393.24 3.1449e-14
4394.03 3.1632e-14
4394.82 3.1742e-14
4395.61 3.173e-14
4396.39 3.1762e-14
4397.18 3.1518e-14
4397.97 3.1681e-14
4398.76 3.1694e-14
4399.55 3.1693e-14
4400.33 3.1688e-14
4401.12 3.1706e-14
4401.91 3.1593e-14
4402.7 3.1508e-14
4403.48 3.1659e-14
4404.27 3.1466e-14
4405.06 3.1485e-14
4405.85 3.1516e-14
4406.63 3.1549e-14
4407.42 3.1345e-14
4408.21 3.127e-14
4409.0 3.1329e-14
4409.79 3.124e-14
4410.57 3.1143e-14
4411.36 3.1331e-14
4412.15 3.123e-14
4412.94 3.1027e-14
4413.72 3.1114e-14
4414.51 3.2019e-14
4415.3 3.1351e-14
4416.09 3.1023e-14
4416.87 3.0864e-14
4417.66 3.0925e-14
4418.45 3.0825e-14
4419.24 3.0771e-14
4420.03 3.0689e-14
4420.81 3.0759e-14
4421.6 3.0685e-14
4422.39 3.0479e-14
4423.18 3.0421e-14
4423.96 3.0473e-14
4424.75 3.036e-14
4425.54 3.0211e-14
4426.33 3.0279e-14
4427.11 3.0055e-14
4427.9 3.0127e-14
4428.69 3.0312e-14
4429.48 3.0204e-14
4430.27 3.0201e-14
4431.05 2.9874e-14
4431.84 2.991e-14
4432.63 2.9978e-14
4433.42 3.001e-14
4434.2 3.0175e-14
4434.99 3.0196e-14
4435.78 3.0175e-14
4436.57 3.022e-14
4437.35 3.0158e-14
4438.14 3.0253e-14
4438.93 2.9956e-14
4439.72 2.9912e-14
4440.51 2.9925e-14
4441.29 2.9986e-14
4442.08 3.0145e-14
4442.87 2.9964e-14
4443.66 3.0133e-14
4444.44 3.0177e-14
4445.23 2.9891e-14
4446.02 3.0037e-14
4446.81 3.014e-14
4447.59 3.0106e-14
4448.38 3.0102e-14
4449.17 3.0166e-14
4449.96 3.0024e-14
4450.75 3.0151e-14
4451.53 3.0129e-14
4452.32 3.0012e-14
4453.11 3.0143e-14
4453.9 3.0133e-14
4454.68 3.019e-14
4455.47 3.0025e-14
4456.26 3.0073e-14
4457.05 3.0248e-14
4457.83 3.0286e-14
4458.62 3.0197e-14
4459.41 3.0276e-14
4460.2 3.0292e-14
4460.99 3.0287e-14
4461.77 3.045e-14
4462.56 3.0422e-14
4463.35 3.0339e-14
4464.14 3.0562e-14
4464.92 3.0629e-14
4465.71 3.046e-14
4466.5 3.0584e-14
4467.29 3.0524e-14
4468.07 3.0459e-14
4468.86 3.0472e-14
4469.65 3.0507e-14
4470.44 3.0359e-14
4471.23 3.0537e-14
4472.01 3.057e-14
4472.8 3.0725e-14
4473.59 3.0661e-14
4474.38 3.054e-14
4475.16 3.0692e-14
4475.95 3.0586e-14
4476.74 3.0621e-14
4477.53 3.0452e-14
4478.31 3.0654e-14
4479.1 3.0704e-14
4479.89 3.0708e-14
4480.68 3.0767e-14
4481.47 3.0707e-14
4482.25 3.0804e-14
4483.04 3.0785e-14
4483.83 3.074e-14
4484.62 3.0805e-14
4485.4 3.0693e-14
4486.19 3.1036e-14
4486.98 3.0727e-14
4487.77 3.109e-14
4488.55 3.1029e-14
4489.34 3.1115e-14
4490.13 3.1034e-14
4490.92 3.0843e-14
4491.71 3.1021e-14
4492.49 3.0862e-14
4493.28 3.0964e-14
4494.07 3.1107e-14
4494.86 3.103e-14
4495.64 3.0884e-14
4496.43 3.0971e-14
4497.22 3.0823e-14
4498.01 3.0977e-14
4498.79 3.0888e-14
4499.58 3.09e-14
4500.37 3.0844e-14
4501.16 3.0867e-14
4501.95 3.0765e-14
4502.73 3.086e-14
4503.52 3.0756e-14
4504.31 3.0977e-14
4505.1 3.0885e-14
4505.88 3.0942e-14
4506.67 3.0823e-14
4507.46 3.0795e-14
4508.25 3.0804e-14
4509.03 3.065e-14
4509.82 3.0823e-14
4510.61 3.0626e-14
4511.4 3.0619e-14
4512.19 3.0604e-14
4512.97 3.0739e-14
4513.76 3.062e-14
4514.55 3.0768e-14
4515.34 3.0716e-14
4516.12 3.067e-14
4516.91 3.0744e-14
4517.7 3.0564e-14
4518.49 3.0392e-14
4519.27 3.0245e-14
4520.06 3.0417e-14
4520.85 3.0347e-14
4521.64 3.0308e-14
4522.43 3.0406e-14
4523.21 3.0296e-14
4524.0 3.0353e-14
4524.79 3.0461e-14
4525.58 3.0389e-14
4526.36 3.0278e-14
4527.15 3.0292e-14
4527.94 3.0328e-14
4528.73 3.0091e-14
4529.51 3.0118e-14
4530.3 2.9973e-14
4531.09 3.0071e-14
4531.88 3.0077e-14
4532.67 2.9962e-14
4533.45 3.033e-14
4534.24 3.007e-14
4535.03 3.0085e-14
4535.82 2.9829e-14
4536.6 2.9083e-14
4537.39 2.8567e-14
4538.18 2.8204e-14
4538.97 2.8317e-14
4539.76 2.8773e-14
4540.54 2.9059e-14
4541.33 2.9553e-14
4542.12 3.0073e-14
4542.91 3.0134e-14
4543.69 2.9808e-14
4544.48 2.9722e-14
4545.27 2.9737e-14
4546.06 3.0047e-14
4546.84 2.9928e-14
4547.63 2.9778e-14
4548.42 2.9866e-14
4549.21 2.9752e-14
4550.0 3.1179e-14
4550.78 3.1746e-14
4551.57 2.9672e-14
4552.36 2.985e-14
4553.15 2.9675e-14
4553.93 2.99e-14
4554.72 2.957e-14
4555.51 2.9747e-14
4556.3 2.992e-14
4557.08 2.9825e-14
4557.87 2.9889e-14
4558.66 3.0064e-14
4559.45 3.0027e-14
4560.24 2.9964e-14
4561.02 3.0045e-14
4561.81 2.9789e-14
4562.6 3.0134e-14
4563.39 3.007e-14
4564.17 3.0186e-14
4564.96 3.0006e-14
4565.75 3.0211e-14
4566.54 3.0273e-14
4567.32 3.0289e-14
4568.11 3.02e-14
4568.9 3.0284e-14
4569.69 2.983e-14
4570.48 2.9569e-14
4571.26 2.8288e-14
4572.05 2.8332e-14
4572.84 2.825e-14
4573.63 2.8506e-14
4574.41 2.9294e-14
4575.2 3.0137e-14
4575.99 3.0093e-14
4576.78 3.0329e-14
4577.56 3.0273e-14
4578.35 3.0232e-14
4579.14 3.0106e-14
4579.93 3.0146e-14
4580.72 3.0357e-14
4581.5 3.0175e-14
4582.29 3.0134e-14
4583.08 3.0511e-14
4583.87 3.0213e-14
4584.65 3.0327e-14
4585.44 3.0238e-14
4586.23 3.0319e-14
4587.02 3.0265e-14
4587.8 3.0302e-14
4588.59 3.0282e-14
4589.38 3.0151e-14
4590.17 3.014e-14
4590.96 3.0283e-14
4591.74 2.9972e-14
4592.53 2.9639e-14
4593.32 2.9905e-14
4594.11 3.0184e-14
4594.89 3.0118e-14
4595.68 2.9897e-14
4596.47 3.0123e-14
4597.26 3.003e-14
4598.04 2.9912e-14
4598.83 2.9927e-14
4599.62 2.9918e-14
4600.41 2.985e-14
4601.2 2.9808e-14
4601.98 2.9867e-14
4602.77 2.976e-14
4603.56 2.8965e-14
4604.35 2.8052e-14
4605.13 2.6958e-14
4605.92 2.6441e-14
4606.71 2.6386e-14
4607.5 2.5504e-14
4608.28 2.515e-14
4609.07 2.5542e-14
4609.86 2.5991e-14
4610.65 2.7543e-14
4611.44 2.9454e-14
4612.22 2.9422e-14
4613.01 2.9264e-14
4613.8 2.9269e-14
4614.59 2.9327e-14
4615.37 2.945e-14
4616.16 2.9129e-14
4616.95 2.9168e-14
4617.74 2.9173e-14
4618.52 2.9252e-14
4619.31 2.9083e-14
4620.1 2.907e-14
4620.89 2.919e-14
4621.68 2.8954e-14
4622.46 2.8828e-14
4623.25 2.8749e-14
4624.04 2.897e-14
4624.83 2.8938e-14
4625.61 2.8785e-14
4626.4 2.8704e-14
4627.19 2.8601e-14
4627.98 2.87e-14
4628.76 2.8633e-14
4629.55 2.8568e-14
4630.34 2.8438e-14
4631.13 2.8629e-14
4631.92 2.8512e-14
4632.7 2.8373e-14
4633.49 2.8362e-14
4634.28 2.8343e-14
4635.07 2.8401e-14
4635.85 2.8235e-14
4636.64 2.8264e-14
4637.43 2.8241e-14
4638.22 2.8233e-14
4639.0 2.8282e-14
4639.79 2.807e-14
4640.58 2.782e-14
4641.37 2.8016e-14
4642.16 2.7958e-14
4642.94 2.7852e-14
4643.73 2.7788e-14
4644.52 2.7726e-14
4645.31 2.7818e-14
4646.09 2.7763e-14
4646.88 2.7562e-14
4647.67 2.762e-14
4648.46 2.7585e-14
4649.24 2.7624e-14
4650.03 2.745e-14
4650.82 2.712e-14
4651.61 2.7327e-14
4652.4 2.7285e-14
4653.18 2.73e-14
4653.97 2.718e-14
4654.76 2.6982e-14
4655.55 2.6956e-14
4656.33 2.7142e-14
4657.12 2.6994e-14
4657.91 2.7082e-14
4658.7 2.685e-14
4659.48 2.6967e-14
4660.27 2.6848e-14
4661.06 2.6754e-14
4661.85 2.6582e-14
4662.64 2.6711e-14
4663.42 2.6648e-14
4664.21 2.6462e-14
4665.0 2.6372e-14
4665.79 2.6315e-14
4666.57 2.6346e-14
4667.36 2.62e-14
4668.15 2.6183e-14
4668.94 2.5912e-14
4669.72 2.6019e-14
4670.51 2.6069e-14
4671.3 2.6085e-14
4672.09 2.5753e-14
4672.88 2.5724e-14
4673.66 2.5863e-14
4674.45 2.579e-14
4675.24 2.5536e-14
4676.03 2.5513e-14
4676.81 2.554e-14
4677.6 2.5337e-14
4678.39 2.5252e-14
4679.18 2.5068e-14
4679.96 2.5278e-14
4680.75 2.5296e-14
4681.54 2.5098e-14
4682.33 2.5104e-14
4683.12 2.5099e-14
4683.9 2.5134e-14
4684.69 2.5058e-14
4685.48 2.5131e-14
4686.27 2.4925e-14
4687.05 2.4786e-14
4687.84 2.4769e-14
4688.63 2.4896e-14
4689.42 2.4853e-14
4690.2 2.4932e-14
4690.99 2.4889e-14
4691.78 2.4917e-14
4692.57 2.4779e-14
4693.36 2.4737e-14
4694.14 2.4766e-14
4694.93 2.4923e-14
4695.72 2.4795e-14
4696.51 2.4879e-14
4697.29 2.4769e-14
4698.08 2.4881e-14
4698.87 2.4682e-14
4699.66 2.4801e-14
4700.44 2.4571e-14
4701.23 2.4728e-14
4702.02 2.4738e-14
4702.81 2.4527e-14
4703.6 2.4481e-14
4704.38 2.4506e-14
4705.17 2.4664e-14
4705.96 2.4728e-14
4706.75 2.4828e-14
4707.53 2.485e-14
4708.32 2.4638e-14
4709.11 2.4582e-14
4709.9 2.4731e-14
4710.68 2.4793e-14
4711.47 2.4715e-14
4712.26 2.477e-14
4713.05 2.4763e-14
4713.84 2.4725e-14
4714.62 2.4801e-14
4715.41 2.4879e-14
4716.2 2.4771e-14
4716.99 2.4838e-14
4717.77 2.4731e-14
4718.56 2.4714e-14
4719.35 2.487e-14
4720.14 2.4802e-14
4720.92 2.4815e-14
4721.71 2.4891e-14
4722.5 2.4741e-14
4723.29 2.4979e-14
4724.08 2.5001e-14
4724.86 2.4993e-14
4725.65 2.5085e-14
4726.44 2.5297e-14
4727.23 2.5161e-14
4728.01 2.5141e-14
4728.8 2.5254e-14
4729.59 2.535e-14
4730.38 2.5169e-14
4731.16 2.5282e-14
4731.95 2.5231e-14
4732.74 2.5527e-14
4733.53 2.5475e-14
4734.32 2.5373e-14
4735.1 2.5413e-14
4735.89 2.5399e-14
4736.68 2.506e-14
4737.47 2.4945e-14
4738.25 2.4787e-14
4739.04 2.5283e-14
4739.83 2.5629e-14
4740.62 2.5563e-14
4741.4 2.5726e-14
4742.19 2.5714e-14
4742.98 2.567e-14
4743.77 2.5713e-14
4744.56 2.5805e-14
4745.34 2.6111e-14
4746.13 2.5859e-14
4746.92 2.5943e-14
4747.71 2.599e-14
4748.49 2.6151e-14
4749.28 2.6076e-14
4750.07 2.5965e-14
4750.86 2.6136e-14
4751.64 2.6072e-14
4752.43 2.6032e-14
4753.22 2.6174e-14
4754.01 2.6337e-14
4754.8 2.6241e-14
4755.58 2.6345e-14
4756.37 2.6335e-14
4757.16 2.6401e-14
4757.95 2.6372e-14
4758.73 2.6503e-14
4759.52 2.651e-14
4760.31 2.6439e-14
4761.1 2.6495e-14
4761.88 2.6669e-14
4762.67 2.6448e-14
4763.46 2.6554e-14
4764.25 2.675e-14
4765.04 2.692e-14
4765.82 2.6964e-14
4766.61 2.6954e-14
4767.4 2.6997e-14
4768.19 2.6977e-14
4768.97 2.7e-14
4769.76 2.6862e-14
4770.55 2.7035e-14
4771.34 2.7061e-14
4772.12 2.718e-14
4772.91 2.7149e-14
4773.7 2.7116e-14
4774.49 2.7173e-14
4775.28 2.7296e-14
4776.06 2.7414e-14
4776.85 2.7328e-14
4777.64 2.7348e-14
4778.43 2.7514e-14
4779.21 2.7308e-14
4780.0 2.7509e-14
4780.79 2.7351e-14
4781.58 2.7414e-14
4782.36 2.7385e-14
4783.15 2.7466e-14
4783.94 2.746e-14
4784.73 2.7472e-14
4785.52 2.7557e-14
4786.3 2.7725e-14
4787.09 2.7668e-14
4787.88 2.7526e-14
4788.67 2.7752e-14
4789.45 2.773e-14
4790.24 2.7745e-14
4791.03 2.7695e-14
4791.82 2.7829e-14
4792.6 2.7808e-14
4793.39 2.7768e-14
4794.18 2.7615e-14
4794.97 2.7732e-14
4795.76 2.7803e-14
4796.54 2.7761e-14
4797.33 2.7663e-14
4798.12 2.7882e-14
4798.91 2.7882e-14
4799.69 2.7996e-14
4800.48 2.7925e-14
4801.27 2.7849e-14
4802.06 2.7834e-14
4802.84 2.7818e-14
4803.63 2.7711e-14
4804.42 2.7894e-14
4805.21 2.7972e-14
4806.0 2.7845e-14
4806.78 2.7871e-14
4807.57 2.7966e-14
4808.36 2.7811e-14
4809.15 2.778e-14
4809.93 2.7831e-14
4810.72 2.781e-14
4811.51 2.7748e-14
4812.3 2.7865e-14
4813.08 2.7757e-14
4813.87 2.7858e-14
4814.66 2.7672e-14
4815.45 2.7793e-14
4816.24 2.7666e-14
4817.02 2.7743e-14
4817.81 2.7638e-14
4818.6 2.7709e-14
4819.39 2.7708e-14
4820.17 2.7633e-14
4820.96 2.7622e-14
4821.75 2.7479e-14
4822.54 2.7686e-14
4823.32 2.7672e-14
4824.11 2.7675e-14
4824.9 2.768e-14
4825.69 2.7381e-14
4826.48 2.7476e-14
4827.26 2.7514e-14
4828.05 2.7482e-14
4828.84 2.7469e-14
4829.63 2.7408e-14
4830.41 2.7264e-14
4831.2 2.7375e-14
4831.99 2.7351e-14
4832.78 2.7316e-14
4833.56 2.7298e-14
4834.35 2.7294e-14
4835.14 2.7223e-14
4835.93 2.7111e-14
4836.72 2.7169e-14
4837.5 2.7386e-14
4838.29 2.7174e-14
4839.08 2.7243e-14
4839.87 2.7253e-14
4840.65 2.7091e-14
4841.44 2.7188e-14
4842.23 2.7224e-14
4843.02 2.7135e-14
4843.8 2.7147e-14
4844.59 2.7073e-14
4845.38 2.7013e-14
4846.17 2.7037e-14
4846.96 2.6792e-14
4847.74 2.6912e-14
4848.53 2.6788e-14
4849.32 2.6766e-14
4850.11 2.6736e-14
4850.89 2.6752e-14
4851.68 2.6795e-14
4852.47 2.6695e-14
4853.26 2.6697e-14
4854.04 2.6605e-14
4854.83 2.6519e-14
4855.62 2.6552e-14
4856.41 2.6553e-14
4857.2 2.6472e-14
4857.98 2.6393e-14
4858.77 2.6563e-14
4859.56 2.6297e-14
4860.35 2.6328e-14
4861.13 2.6354e-14
4861.92 2.6392e-14
4862.71 2.6248e-14
4863.5 2.6234e-14
4864.28 2.6064e-14
4865.07 2.6169e-14
4865.86 2.6234e-14
4866.65 2.6214e-14
4867.44 2.629e-14
4868.22 2.6112e-14
4869.01 2.6158e-14
4869.8 2.5958e-14
4870.59 2.6082e-14
4871.37 2.5971e-14
4872.16 2.6012e-14
4872.95 2.5918e-14
4873.74 2.6003e-14
4874.52 2.593e-14
4875.31 2.5786e-14
4876.1 2.577e-14
4876.89 2.5866e-14
4877.68 2.5642e-14
4878.46 2.5586e-14
4879.25 2.558e-14
4880.04 2.5561e-14
4880.83 2.5592e-14
4881.61 2.5453e-14
4882.4 2.5521e-14
4883.19 2.5545e-14
4883.98 2.5496e-14
4884.76 2.5381e-14
4885.55 2.5496e-14
4886.34 2.5413e-14
4887.13 2.5411e-14
4887.92 2.5416e-14
4888.7 2.5457e-14
4889.49 2.5481e-14
4890.28 2.5389e-14
4891.07 2.5428e-14
4891.85 2.5405e-14
4892.64 2.5311e-14
4893.43 2.523e-14
4894.22 2.5352e-14
4895.0 2.515e-14
4895.79 2.5223e-14
4896.58 2.5247e-14
4897.37 2.5114e-14
4898.16 2.5216e-14
4898.94 2.5246e-14
4899.73 2.5176e-14
4900.52 2.5218e-14
4901.31 2.5121e-14
4902.09 2.5059e-14
4902.88 2.5143e-14
4903.67 2.502e-14
4904.46 2.4928e-14
4905.24 2.5092e-14
4906.03 2.5094e-14
4906.82 2.5116e-14
4907.61 2.4875e-14
4908.4 2.502e-14
4909.18 2.5005e-14
4909.97 2.4828e-14
4910.76 2.486e-14
4911.55 2.4917e-14
4912.33 2.491e-14
4913.12 2.5059e-14
4913.91 2.4899e-14
4914.7 2.472e-14
4915.48 2.487e-14
4916.27 2.4748e-14
4917.06 2.4837e-14
4917.85 2.4771e-14
4918.64 2.4773e-14
4919.42 2.477e-14
4920.21 2.4671e-14
4921.0 2.4651e-14
4921.79 2.4659e-14
4922.57 2.4556e-14
4923.36 2.4676e-14
4924.15 2.4753e-14
4924.94 2.4764e-14
4925.72 2.4655e-14
4926.51 2.4631e-14
4927.3 2.4621e-14
4928.09 2.4731e-14
4928.88 2.4585e-14
4929.66 2.4762e-14
4930.45 2.4763e-14
4931.24 2.4639e-14
4932.03 2.465e-14
4932.81 2.4666e-14
4933.6 2.4609e-14
4934.39 2.4686e-14
4935.18 2.4741e-14
4935.96 2.4725e-14
4936.75 2.468e-14
4937.54 2.4658e-14
4938.33 2.4624e-14
4939.12 2.4622e-14
4939.9 2.4606e-14
4940.69 2.4827e-14
4941.48 2.4719e-14
4942.27 2.4708e-14
4943.05 2.4804e-14
4943.84 2.4817e-14
4944.63 2.4846e-14
4945.42 2.4716e-14
4946.2 2.4737e-14
4946.99 2.4769e-14
4947.78 2.475e-14
4948.57 2.4691e-14
4949.36 2.4675e-14
4950.14 2.4651e-14
4950.93 2.4689e-14
4951.72 2.471e-14
4952.51 2.4729e-14
4953.29 2.4618e-14
4954.08 2.4572e-14
4954.87 2.4606e-14
4955.66 2.4641e-14
4956.44 2.464e-14
4957.23 2.4711e-14
4958.02 2.4597e-14
4958.81 2.4744e-14
4959.6 2.4817e-14
4960.38 2.4747e-14
4961.17 2.4689e-14
4961.96 2.4631e-14
4962.75 2.451e-14
4963.53 2.4688e-14
4964.32 2.4577e-14
4965.11 2.4579e-14
4965.9 2.4524e-14
4966.68 2.4585e-14
4967.47 2.4475e-14
4968.26 2.4692e-14
4969.05 2.4567e-14
4969.84 2.4502e-14
4970.62 2.4458e-14
4971.41 2.4476e-14
4972.2 2.4463e-14
4972.99 2.4592e-14
4973.77 2.4443e-14
4974.56 2.4509e-14
4975.35 2.4365e-14
4976.14 2.4398e-14
4976.92 2.4395e-14
4977.71 2.4373e-14
4978.5 2.4388e-14
4979.29 2.4496e-14
4980.08 2.4512e-14
4980.86 2.4388e-14
4981.65 2.4545e-14
4982.44 2.4307e-14
4983.23 2.4276e-14
4984.01 2.4378e-14
4984.8 2.4185e-14
4985.59 2.3738e-14
4986.38 2.3294e-14
4987.16 2.3154e-14
4987.95 2.2954e-14
4988.74 2.316e-14
4989.53 2.3062e-14
4990.32 2.3161e-14
4991.1 2.3007e-14
4991.89 2.3454e-14
4992.68 2.4192e-14
4993.47 2.4308e-14
4994.25 2.4255e-14
4995.04 2.4268e-14
4995.83 2.4271e-14
4996.62 2.4129e-14
4997.4 2.4046e-14
4998.19 2.4114e-14
4998.98 2.417e-14
4999.77 2.4255e-14
5000.56 2.4056e-14
5001.34 2.4111e-14
5002.13 2.435e-14
5002.92 2.4228e-14
5003.71 2.4225e-14
5004.49 2.4219e-14
5005.28 2.4259e-14
5006.07 2.4226e-14
5006.86 2.4212e-14
5007.64 2.4089e-14
5008.43 2.405e-14
5009.22 2.417e-14
5010.01 2.4147e-14
5010.8 2.4259e-14
5011.58 2.4192e-14
5012.37 2.4109e-14
5013.16 2.4024e-14
5013.95 2.4122e-14
5014.73 2.4103e-14
5015.52 2.3996e-14
5016.31 2.4021e-14
5017.1 2.4012e-14
5017.88 2.4114e-14
5018.67 2.4159e-14
5019.46 2.4104e-14
5020.25 2.4075e-14
5021.04 2.4009e-14
5021.82 2.4019e-14
5022.61 2.3876e-14
5023.4 2.3889e-14
5024.19 2.3811e-14
5024.97 2.3934e-14
5025.76 2.3922e-14
5026.55 2.3893e-14
5027.34 2.3918e-14
5028.12 2.3923e-14
5028.91 2.3754e-14
5029.7 2.3793e-14
5030.49 2.3984e-14
5031.28 2.453e-14
5032.06 2.4989e-14
5032.85 2.4693e-14
5033.64 2.4451e-14
5034.43 2.6254e-14
5035.21 2.4597e-14
5036.0 2.3741e-14
5036.79 2.3753e-14
5037.58 2.3645e-14
5038.36 2.3693e-14
5039.15 2.3754e-14
5039.94 2.3588e-14
5040.73 2.3628e-14
5041.52 2.3719e-14
5042.3 2.3606e-14
5043.09 2.3659e-14
5043.88 2.375e-14
5044.67 2.3761e-14
5045.45 2.3618e-14
5046.24 2.3743e-14
5047.03 2.3494e-14
5047.82 2.3519e-14
5048.6 2.366e-14
5049.39 2.3667e-14
5050.18 2.3731e-14
5050.97 2.3717e-14
5051.76 2.3718e-14
5052.54 2.3809e-14
5053.33 2.3658e-14
5054.12 2.3732e-14
5054.91 2.3825e-14
5055.69 2.3757e-14
5056.48 2.3675e-14
5057.27 2.3606e-14
5058.06 2.369e-14
5058.84 2.3499e-14
5059.63 2.3601e-14
5060.42 2.3647e-14
5061.21 2.3739e-14
5062.0 2.3643e-14
5062.78 2.3754e-14
5063.57 2.3745e-14
5064.36 2.3678e-14
5065.15 2.3816e-14
5065.93 2.3678e-14
5066.72 2.3495e-14
5067.51 2.3481e-14
5068.3 2.3603e-14
5069.08 2.3741e-14
5069.87 2.3729e-14
5070.66 2.3564e-14
5071.45 2.3579e-14
5072.24 2.3696e-14
5073.02 2.3622e-14
5073.81 2.3558e-14
5074.6 2.3747e-14
5075.39 2.357e-14
5076.17 2.3628e-14
5076.96 2.3427e-14
5077.75 2.3514e-14
5078.54 2.3409e-14
5079.32 2.3534e-14
5080.11 2.3584e-14
5080.9 2.3447e-14
5081.69 2.3544e-14
5082.48 2.3542e-14
5083.26 2.3437e-14
5084.05 2.3642e-14
5084.84 2.3547e-14
5085.63 2.3384e-14
5086.41 2.3316e-14
5087.2 2.2439e-14
5087.99 2.2072e-14
5088.78 2.2014e-14
5089.56 2.2228e-14
5090.35 2.3528e-14
5091.14 2.3538e-14
5091.93 2.3437e-14
5092.72 2.3402e-14
5093.5 2.3383e-14
5094.29 2.3422e-14
5095.08 2.3473e-14
5095.87 2.3569e-14
5096.65 2.3262e-14
5097.44 2.3378e-14
5098.23 2.3456e-14
5099.02 2.3387e-14
5099.8 2.3408e-14
5100.59 2.3327e-14
5101.38 2.3351e-14
5102.17 2.3392e-14
5102.96 2.3288e-14
5103.74 2.3351e-14
5104.53 2.3478e-14
5105.32 2.3383e-14
5106.11 2.3407e-14
5106.89 2.3431e-14
5107.68 2.3235e-14
5108.47 2.3453e-14
5109.26 2.3328e-14
5110.04 2.3246e-14
5110.83 2.3404e-14
5111.62 2.3436e-14
5112.41 2.3445e-14
5113.2 2.3412e-14
5113.98 2.3302e-14
5114.77 2.3294e-14
5115.56 2.3286e-14
5116.35 2.3359e-14
5117.13 2.3327e-14
5117.92 2.3128e-14
5118.71 2.3249e-14
5119.5 2.3205e-14
5120.28 2.3236e-14
5121.07 2.3184e-14
5121.86 2.3278e-14
5122.65 2.3197e-14
5123.44 2.3227e-14
5124.22 2.3182e-14
5125.01 2.3161e-14
5125.8 2.3158e-14
5126.59 2.313e-14
5127.37 2.3264e-14
5128.16 2.3255e-14
5128.95 2.3157e-14
5129.74 2.3372e-14
5130.52 2.3151e-14
5131.31 2.328e-14
5132.1 2.3125e-14
5132.89 2.305e-14
5133.68 2.3046e-14
5134.46 2.3015e-14
5135.25 2.3095e-14
5136.04 2.2977e-14
5136.83 2.3015e-14
5137.61 2.3009e-14
5138.4 2.3184e-14
5139.19 2.3143e-14
5139.98 2.2993e-14
5140.76 2.2821e-14
5141.55 2.2994e-14
5142.34 2.2975e-14
5143.13 2.3018e-14
5143.92 2.2868e-14
5144.7 2.2981e-14
5145.49 2.2881e-14
5146.28 2.3055e-14
5147.07 2.2902e-14
5147.85 2.3006e-14
5148.64 2.3019e-14
5149.43 2.2826e-14
5150.22 2.2747e-14
5151.0 2.2843e-14
5151.79 2.2786e-14
5152.58 2.2686e-14
5153.37 2.2709e-14
5154.16 2.2873e-14
5154.94 2.279e-14
5155.73 2.274e-14
5156.52 2.2862e-14
5157.31 2.279e-14
5158.09 2.2746e-14
5158.88 2.2787e-14
5159.67 2.2685e-14
5160.46 2.2729e-14
5161.24 2.2792e-14
5162.03 2.2801e-14
5162.82 2.2806e-14
5163.61 2.2837e-14
5164.4 2.2812e-14
5165.18 2.2615e-14
5165.97 2.2728e-14
5166.76 2.2707e-14
5167.55 2.2694e-14
5168.33 2.2573e-14
5169.12 2.2648e-14
5169.91 2.2717e-14
5170.7 2.2606e-14
5171.48 2.275e-14
5172.27 2.2961e-14
5173.06 2.2762e-14
5173.85 2.2709e-14
5174.64 2.2689e-14
5175.42 2.2566e-14
5176.21 2.2608e-14
5177.0 2.2574e-14
5177.79 2.2673e-14
5178.57 2.2439e-14
5179.36 2.2576e-14
5180.15 2.2554e-14
5180.94 2.2508e-14
5181.72 2.2493e-14
5182.51 2.2425e-14
5183.3 2.2506e-14
5184.09 2.2309e-14
5184.88 2.2348e-14
5185.66 2.2391e-14
5186.45 2.2303e-14
5187.24 2.2465e-14
5188.03 2.2223e-14
5188.81 2.2419e-14
5189.6 2.2428e-14
5190.39 2.225e-14
5191.18 2.2244e-14
5191.96 2.2201e-14
5192.75 2.2243e-14
5193.54 2.2172e-14
5194.33 2.2266e-14
5195.12 2.219e-14
5195.9 2.2255e-14
5196.69 2.212e-14
5197.48 2.2143e-14
5198.27 2.2155e-14
5199.05 2.2224e-14
5199.84 2.215e-14
5200.63 2.2026e-14
5201.42 2.1947e-14
5202.2 2.1966e-14
5202.99 2.207e-14
5203.78 2.2112e-14
5204.57 2.1955e-14
5205.36 2.2087e-14
5206.14 2.2018e-14
5206.93 2.194e-14
5207.72 2.1906e-14
5208.51 2.2007e-14
5209.29 2.2023e-14
5210.08 2.1947e-14
5210.87 2.2e-14
5211.66 2.1968e-14
5212.44 2.1949e-14
5213.23 2.1994e-14
5214.02 2.1972e-14
5214.81 2.1966e-14
5215.6 2.1734e-14
5216.38 2.1877e-14
5217.17 2.1942e-14
5217.96 2.1843e-14
5218.75 2.183e-14
5219.53 2.1963e-14
5220.32 2.1873e-14
5221.11 2.1815e-14
5221.9 2.1879e-14
5222.69 2.1924e-14
5223.47 2.1729e-14
5224.26 2.178e-14
5225.05 2.1679e-14
5225.84 2.1741e-14
5226.62 2.1721e-14
5227.41 2.174e-14
5228.2 2.1768e-14
5228.99 2.1617e-14
5229.77 2.1684e-14
5230.56 2.1679e-14
5231.35 2.1569e-14
5232.14 2.1636e-14
5232.93 2.1681e-14
5233.71 2.1613e-14
5234.5 2.159e-14
5235.29 2.149e-14
5236.08 2.1538e-14
5236.86 2.1412e-14
5237.65 2.1455e-14
5238.44 2.1604e-14
5239.23 2.15e-14
5240.01 2.1415e-14
5240.8 2.1541e-14
5241.59 2.1519e-14
5242.38 2.1357e-14
5243.17 2.1504e-14
5243.95 2.1593e-14
5244.74 2.1456e-14
5245.53 2.1331e-14
5246.32 2.1358e-14
5247.1 2.1412e-14
5247.89 2.1414e-14
5248.68 2.1315e-14
5249.47 2.1411e-14
5250.25 2.1243e-14
5251.04 2.1264e-14
5251.83 2.1253e-14
5252.62 2.1284e-14
5253.41 2.1318e-14
5254.19 2.1257e-14
5254.98 2.1291e-14
5255.77 1.993e-14
5256.56 1.9428e-14
5257.34 1.9297e-14
5258.13 1.9291e-14
5258.92 1.9943e-14
5259.71 2.0133e-14
5260.49 2.0693e-14
5261.28 2.1073e-14
5262.07 2.1066e-14
5262.86 2.1081e-14
5263.65 2.1026e-14
5264.43 2.09e-14
5265.22 2.102e-14
5266.01 2.1142e-14
5266.8 2.1054e-14
5267.58 2.1033e-14
5268.37 2.1131e-14
5269.16 2.1115e-14
5269.95 2.0815e-14
5270.73 2.0721e-14
5271.52 2.0899e-14
5272.31 2.0755e-14
5273.1 2.0827e-14
5273.89 2.0873e-14
5274.67 2.0715e-14
5275.46 2.0791e-14
5276.25 2.0823e-14
5277.04 2.0665e-14
5277.82 2.0718e-14
5278.61 2.0721e-14
5279.4 2.0722e-14
5280.19 2.0684e-14
5280.97 2.0687e-14
5281.76 2.0653e-14
5282.55 2.059e-14
5283.34 2.0497e-14
5284.13 2.0562e-14
5284.91 2.0622e-14
5285.7 2.0445e-14
5286.49 2.0352e-14
5287.28 2.0377e-14
5288.06 2.0451e-14
5288.85 2.0489e-14
5289.64 2.0498e-14
5290.43 2.0359e-14
5291.21 2.0394e-14
5292.0 2.0255e-14
5292.79 2.0479e-14
5293.58 2.0226e-14
5294.37 2.0241e-14
5295.15 2.0307e-14
5295.94 2.0283e-14
5296.73 2.0272e-14
5297.52 2.0247e-14
5298.3 2.0254e-14
5299.09 2.0277e-14
5299.88 2.0195e-14
5300.67 2.0169e-14
5301.45 2.0115e-14
5302.24 2.0083e-14
5303.03 2.0159e-14
5303.82 2.0191e-14
5304.61 2.0011e-14
5305.39 2.0002e-14
5306.18 2.008e-14
5306.97 2.0083e-14
5307.76 2.0141e-14
5308.54 1.992e-14
5309.33 2.0032e-14
5310.12 2.0047e-14
5310.91 1.9946e-14
5311.69 1.9885e-14
5312.48 1.9921e-14
5313.27 2.0024e-14
5314.06 2.0075e-14
5314.85 2.0029e-14
5315.63 1.9989e-14
5316.42 1.9951e-14
5317.21 1.9911e-14
5318.0 2.0007e-14
5318.78 1.9926e-14
5319.57 1.9843e-14
5320.36 1.9916e-14
5321.15 1.9727e-14
5321.93 1.9929e-14
5322.72 1.973e-14
5323.51 1.9943e-14
5324.3 1.9919e-14
5325.09 1.993e-14
5325.87 1.9879e-14
5326.66 1.989e-14
5327.45 1.9851e-14
5328.24 1.9922e-14
5329.02 1.9878e-14
5329.81 1.9871e-14
5330.6 1.9948e-14
5331.39 1.9832e-14
5332.17 1.9734e-14
5332.96 1.9826e-14
5333.75 1.9867e-14
5334.54 1.987e-14
5335.33 1.9777e-14
5336.11 1.9898e-14
5336.9 1.9681e-14
5337.69 1.9898e-14
5338.48 1.9824e-14
5339.26 1.984e-14
5340.05 1.9865e-14
5340.84 1.9849e-14
5341.63 1.9827e-14
5342.41 1.9707e-14
5343.2 1.9778e-14
5343.99 1.9837e-14
5344.78 1.9742e-14
5345.57 1.9874e-14
5346.35 1.9895e-14
5347.14 1.991e-14
5347.93 1.9861e-14
5348.72 1.9866e-14
5349.5 1.9754e-14
5350.29 1.9833e-14
5351.08 1.9888e-14
5351.87 1.9728e-14
5352.65 1.9856e-14
5353.44 1.9943e-14
5354.23 1.9915e-14
5355.02 1.987e-14
5355.81 1.982e-14
5356.59 1.9913e-14
5357.38 1.9843e-14
5358.17 1.9743e-14
5358.96 1.9867e-14
5359.74 1.9858e-14
5360.53 1.9916e-14
5361.32 1.9828e-14
5362.11 1.975e-14
5362.89 1.9844e-14
5363.68 1.9755e-14
5364.47 1.9865e-14
5365.26 1.9861e-14
5366.05 1.986e-14
5366.83 1.9853e-14
5367.62 1.9909e-14
5368.41 1.9775e-14
5369.2 1.9734e-14
5369.98 1.987e-14
5370.77 2.0005e-14
5371.56 1.9831e-14
5372.35 1.9842e-14
5373.13 1.9807e-14
5373.92 1.9932e-14
5374.71 1.9935e-14
5375.5 1.9748e-14
5376.29 1.9916e-14
5377.07 1.9926e-14
5377.86 1.9835e-14
5378.65 1.9835e-14
5379.44 1.9847e-14
5380.22 1.9928e-14
5381.01 1.99e-14
5381.8 1.9803e-14
5382.59 1.9942e-14
5383.37 1.977e-14
5384.16 1.9812e-14
5384.95 1.9766e-14
5385.74 1.9891e-14
5386.53 1.9796e-14
5387.31 1.9717e-14
5388.1 1.9729e-14
5388.89 1.9832e-14
5389.68 1.9803e-14
5390.46 1.9669e-14
5391.25 1.9705e-14
5392.04 1.9816e-14
5392.83 1.9758e-14
5393.61 1.9719e-14
5394.4 1.9809e-14
5395.19 1.9759e-14
5395.98 1.971e-14
5396.77 1.9749e-14
5397.55 1.9657e-14
5398.34 1.9661e-14
5399.13 1.9738e-14
5399.92 1.9689e-14
5400.7 1.9739e-14
5401.49 1.9806e-14
5402.28 1.9582e-14
5403.07 1.965e-14
5403.85 1.9741e-14
5404.64 1.9731e-14
5405.43 1.9665e-14
5406.22 1.9851e-14
5407.01 1.9717e-14
5407.79 1.9656e-14
5408.58 1.9606e-14
5409.37 1.9795e-14
5410.16 1.9724e-14
5410.94 1.9692e-14
5411.73 1.9622e-14
5412.52 1.9712e-14
5413.31 1.9619e-14
5414.09 1.9576e-14
5414.88 1.961e-14
5415.67 1.9579e-14
5416.46 1.9512e-14
5417.25 1.9547e-14
5418.03 1.9642e-14
5418.82 1.9349e-14
5419.61 1.9543e-14
5420.4 1.9505e-14
5421.18 1.951e-14
5421.97 1.9561e-14
5422.76 1.9569e-14
5423.55 1.9468e-14
5424.33 1.9499e-14
5425.12 1.9417e-14
5425.91 1.9478e-14
5426.7 1.947e-14
5427.49 1.9412e-14
5428.27 1.9475e-14
5429.06 1.9456e-14
5429.85 1.9367e-14
5430.64 1.9448e-14
5431.42 1.9627e-14
5432.21 1.9481e-14
5433.0 1.9512e-14
5433.79 1.9444e-14
5434.57 1.9408e-14
5435.36 1.9293e-14
5436.15 1.9304e-14
5436.94 1.937e-14
5437.73 1.9321e-14
5438.51 1.9257e-14
5439.3 1.9322e-14
5440.09 1.9249e-14
5440.88 1.9271e-14
5441.66 1.9355e-14
5442.45 1.9286e-14
5443.24 1.9222e-14
5444.03 1.915e-14
5444.81 1.9163e-14
5445.6 1.9341e-14
5446.39 1.9229e-14
5447.18 1.9183e-14
5447.97 1.9108e-14
5448.75 1.9282e-14
5449.54 1.9346e-14
5450.33 1.9112e-14
5451.12 1.9108e-14
5451.9 1.8984e-14
5452.69 1.9212e-14
5453.48 1.9027e-14
5454.27 1.9013e-14
5455.05 1.899e-14
5455.84 1.9106e-14
5456.63 1.9063e-14
5457.42 1.8947e-14
5458.21 1.8946e-14
5458.99 1.9002e-14
5459.78 1.9026e-14
5460.57 1.8857e-14
5461.36 1.8984e-14
5462.14 1.8984e-14
5462.93 1.8992e-14
5463.72 1.8896e-14
5464.51 1.886e-14
5465.29 1.8937e-14
5466.08 1.8829e-14
5466.87 1.8853e-14
5467.66 1.8767e-14
5468.45 1.8829e-14
5469.23 1.8857e-14
5470.02 1.8734e-14
5470.81 1.8696e-14
5471.6 1.8804e-14
5472.38 1.8902e-14
5473.17 1.877e-14
5473.96 1.8692e-14
5474.75 1.882e-14
5475.53 1.8783e-14
5476.32 1.8691e-14
5477.11 1.8898e-14
5477.9 1.8694e-14
5478.69 1.8673e-14
5479.47 1.869e-14
5480.26 1.8798e-14
5481.05 1.8696e-14
5481.84 1.8559e-14
5482.62 1.8571e-14
5483.41 1.8674e-14
5484.2 1.8533e-14
5484.99 1.8509e-14
5485.77 1.8634e-14
5486.56 1.881e-14
5487.35 1.8584e-14
5488.14 1.8574e-14
5488.93 1.85e-14
5489.71 1.8498e-14
5490.5 1.8395e-14
5491.29 1.8333e-14
5492.08 1.8437e-14
5492.86 1.8268e-14
5493.65 1.7854e-14
5494.44 1.7227e-14
5495.23 1.714e-14
5496.01 1.7322e-14
5496.8 1.7366e-14
5497.59 1.7547e-14
5498.38 1.7658e-14
5499.17 1.833e-14
5499.95 1.8339e-14
5500.74 1.8345e-14
5501.53 1.8324e-14
5502.32 1.8269e-14
5503.1 1.8124e-14
5503.89 1.8258e-14
5504.68 1.8282e-14
5505.47 1.8125e-14
5506.25 1.8256e-14
5507.04 1.8261e-14
5507.83 1.8189e-14
5508.62 1.8059e-14
5509.41 1.808e-14
5510.19 1.8088e-14
5510.98 1.8163e-14
5511.77 1.8058e-14
5512.56 1.8142e-14
5513.34 1.8014e-14
5514.13 1.8139e-14
5514.92 1.8168e-14
5515.71 1.815e-14
5516.49 1.8069e-14
5517.28 1.8042e-14
5518.07 1.8092e-14
5518.86 1.8121e-14
5519.65 1.8118e-14
5520.43 1.7945e-14
5521.22 1.8113e-14
5522.01 1.7962e-14
5522.8 1.7879e-14
5523.58 1.7911e-14
5524.37 1.8022e-14
5525.16 1.8028e-14
5525.95 1.793e-14
5526.73 1.8079e-14
5527.52 1.7943e-14
5528.31 1.7974e-14
5529.1 1.7844e-14
5529.89 1.7964e-14
5530.67 1.7861e-14
5531.46 1.7877e-14
5532.25 1.785e-14
5533.04 1.8046e-14
5533.82 1.7992e-14
5534.61 1.7835e-14
5535.4 1.7907e-14
5536.19 1.7832e-14
5536.97 1.7824e-14
5537.76 1.7919e-14
5538.55 1.7836e-14
5539.34 1.7838e-14
5540.13 1.7833e-14
5540.91 1.7861e-14
5541.7 1.7698e-14
5542.49 1.7811e-14
5543.28 1.7909e-14
5544.06 1.7921e-14
5544.85 1.7801e-14
5545.64 1.7929e-14
5546.43 1.7872e-14
5547.21 1.7946e-14
5548.0 1.7856e-14
5548.79 1.7797e-14
5549.58 1.7851e-14
5550.37 1.7879e-14
5551.15 1.7951e-14
5551.94 1.7844e-14
5552.73 1.7775e-14
5553.52 1.7863e-14
5554.3 1.7864e-14
5555.09 1.79e-14
5555.88 1.7855e-14
5556.67 1.7912e-14
5557.45 1.7633e-14
5558.24 1.591e-14
5559.03 1.5439e-14
5559.82 1.5877e-14
5560.61 1.6013e-14
5561.39 1.5911e-14
5562.18 1.6423e-14
5562.97 1.6648e-14
5563.76 1.7252e-14
5564.54 1.7964e-14
5565.33 1.7864e-14
5566.12 1.7886e-14
5566.91 1.7787e-14
5567.69 1.7876e-14
5568.48 1.7846e-14
5569.27 1.7785e-14
5570.06 1.7827e-14
5570.85 1.7991e-14
5571.63 1.7831e-14
5572.42 1.7655e-14
5573.21 1.79e-14
5574.0 1.7792e-14
5574.78 1.7862e-14
5575.57 1.778e-14
5576.36 1.7728e-14
5577.15 1.7902e-14
5577.93 1.7482e-14
5578.72 1.778e-14
5579.51 1.7729e-14
5580.3 1.7762e-14
5581.09 1.7772e-14
5581.87 1.7614e-14
5582.66 1.7658e-14
5583.45 1.7577e-14
5584.24 1.7699e-14
5585.02 1.8043e-14
5585.81 1.7564e-14
5586.6 1.7538e-14
5587.39 1.7647e-14
5588.17 1.7621e-14
5588.96 1.7636e-14
5589.75 1.7733e-14
5590.54 1.7914e-14
5591.33 1.814e-14
5592.11 1.7952e-14
5592.9 1.7896e-14
5593.69 1.7839e-14
5594.48 1.7636e-14
5595.26 1.726e-14
5596.05 1.5775e-14
5596.84 1.5435e-14
5597.63 1.5348e-14
5598.41 1.5583e-14
5599.2 1.715e-14
5599.99 1.7741e-14
5600.54 1.7897e-14
5601.8 1.7927e-14
5603.05 1.7748e-14
5604.3 1.7916e-14
5605.56 1.7934e-14
5606.81 1.7783e-14
5608.06 1.7338e-14
5609.32 1.6843e-14
5610.57 1.6036e-14
5611.82 1.6751e-14
5613.08 1.6486e-14
5614.33 1.6259e-14
5615.58 1.7066e-14
5616.84 1.6988e-14
5618.09 1.7548e-14
5619.34 1.7843e-14
5620.6 1.7914e-14
5621.85 1.7797e-14
5623.1 1.7816e-14
5624.36 1.7801e-14
5625.61 1.7991e-14
5626.86 1.7796e-14
5628.12 1.7886e-14
5629.37 1.7806e-14
5630.62 1.7897e-14
5631.88 1.7657e-14
5633.13 1.7602e-14
5634.38 1.7594e-14
5635.64 1.7713e-14
5636.89 1.7857e-14
5638.14 1.7654e-14
5639.4 1.7589e-14
5640.65 1.7669e-14
5641.9 1.7594e-14
5643.16 1.7636e-14
5644.41 1.767e-14
5645.66 1.7683e-14
5646.92 1.7727e-14
5648.17 1.7701e-14
5649.42 1.7636e-14
5650.68 1.7557e-14
5651.93 1.7581e-14
5653.18 1.7534e-14
5654.44 1.7374e-14
5655.69 1.7458e-14
5656.94 1.7388e-14
5658.2 1.7473e-14
5659.45 1.7544e-14
5660.7 1.7426e-14
5661.96 1.7461e-14
5663.21 1.7409e-14
5664.46 1.7384e-14
5665.72 1.7338e-14
5666.97 1.7297e-14
5668.22 1.7353e-14
5669.48 1.7322e-14
5670.73 1.7327e-14
5671.98 1.7226e-14
5673.24 1.7239e-14
5674.49 1.7187e-14
5675.75 1.7378e-14
5677.0 1.7121e-14
5678.25 1.721e-14
5679.51 1.7373e-14
5680.76 1.7306e-14
5682.01 1.7121e-14
5683.27 1.7232e-14
5684.52 1.717e-14
5685.77 1.7225e-14
5687.03 1.7287e-14
5688.28 1.6977e-14
5689.53 1.7151e-14
5690.79 1.7256e-14
5692.04 1.7218e-14
5693.29 1.714e-14
5694.55 1.7127e-14
5695.8 1.7108e-14
5697.05 1.708e-14
5698.31 1.7027e-14
5699.56 1.7067e-14
5700.81 1.7085e-14
5702.07 1.7117e-14
5703.32 1.705e-14
5704.57 1.7121e-14
5705.83 1.7154e-14
5707.08 1.7184e-14
5708.33 1.7085e-14
5709.59 1.7228e-14
5710.84 1.7114e-14
5712.09 1.7173e-14
5713.35 1.7198e-14
5714.6 1.7185e-14
5715.85 1.7152e-14
5717.11 1.7198e-14
5718.36 1.716e-14
5719.61 1.707e-14
5720.87 1.7101e-14
5722.12 1.7234e-14
5723.37 1.73e-14
5724.63 1.7231e-14
5725.88 1.7204e-14
5727.13 1.7326e-14
5728.39 1.7339e-14
5729.64 1.7436e-14
5730.89 1.735e-14
5732.15 1.7392e-14
5733.4 1.7358e-14
5734.65 1.7314e-14
5735.91 1.7357e-14
5737.16 1.7419e-14
5738.41 1.7474e-14
5739.67 1.7443e-14
5740.92 1.733e-14
5742.17 1.7423e-14
5743.43 1.7366e-14
5744.68 1.7433e-14
5745.93 1.7386e-14
5747.19 1.7403e-14
5748.44 1.7393e-14
5749.69 1.7474e-14
5750.95 1.755e-14
5752.2 1.7581e-14
5753.46 1.7597e-14
5754.71 1.7614e-14
5755.96 1.7608e-14
5757.22 1.7683e-14
5758.47 1.758e-14
5759.72 1.7577e-14
5760.98 1.7674e-14
5762.23 1.7716e-14
5763.48 1.7803e-14
5764.74 1.7799e-14
5765.99 1.777e-14
5767.24 1.7828e-14
5768.5 1.784e-14
5769.75 1.7915e-14
5771.0 1.7942e-14
5772.26 1.7858e-14
5773.51 1.7874e-14
5774.76 1.7833e-14
5776.02 1.7835e-14
5777.27 1.7864e-14
5778.52 1.798e-14
5779.78 1.7953e-14
5781.03 1.7877e-14
5782.28 1.7984e-14
5783.54 1.8051e-14
5784.79 1.801e-14
5786.04 1.8055e-14
5787.3 1.8104e-14
5788.55 1.8098e-14
5789.8 1.819e-14
5791.06 1.8185e-14
5792.31 1.811e-14
5793.56 1.8111e-14
5794.82 1.82e-14
5796.07 1.8126e-14
5797.32 1.8271e-14
5798.58 1.8368e-14
5799.83 1.8163e-14
5801.08 1.823e-14
5802.34 1.8273e-14
5803.59 1.8238e-14
5804.84 1.8348e-14
5806.1 1.837e-14
5807.35 1.8468e-14
5808.6 1.8459e-14
5809.86 1.8249e-14
5811.11 1.832e-14
5812.36 1.8269e-14
5813.62 1.8507e-14
5814.87 1.8349e-14
5816.12 1.8354e-14
5817.38 1.8344e-14
5818.63 1.8314e-14
5819.88 1.8357e-14
5821.14 1.839e-14
5822.39 1.8403e-14
5823.64 1.8341e-14
5824.9 1.8281e-14
5826.15 1.8288e-14
5827.4 1.8418e-14
5828.66 1.8318e-14
5829.91 1.8202e-14
5831.17 1.8378e-14
5832.42 1.834e-14
5833.67 1.8279e-14
5834.93 1.8249e-14
5836.18 1.8267e-14
5837.43 1.8203e-14
5838.69 1.8268e-14
5839.94 1.826e-14
5841.19 1.822e-14
5842.45 1.8281e-14
5843.7 1.8293e-14
5844.95 1.8251e-14
5846.21 1.8175e-14
5847.46 1.8059e-14
5848.71 1.8186e-14
5849.97 1.8216e-14
5851.22 1.8173e-14
5852.47 1.8167e-14
5853.73 1.8134e-14
5854.98 1.8125e-14
5856.23 1.8132e-14
5857.49 1.8097e-14
5858.74 1.8009e-14
5859.99 1.806e-14
5861.25 1.802e-14
5862.5 1.7953e-14
5863.75 1.7922e-14
5865.01 1.7941e-14
5866.26 1.7993e-14
5867.51 1.7896e-14
5868.77 1.7996e-14
5870.02 1.7902e-14
5871.27 1.796e-14
5872.53 1.7698e-14
5873.78 1.783e-14
5875.03 1.7832e-14
5876.29 1.7727e-14
5877.54 1.774e-14
5878.79 1.7716e-14
5880.05 1.757e-14
5881.3 1.6665e-14
5882.55 1.5156e-14
5883.81 1.5032e-14
5885.06 1.5074e-14
5886.31 1.5138e-14
5887.57 1.4712e-14
5888.82 1.4057e-14
5890.07 1.4042e-14
5891.33 1.4936e-14
5892.58 1.6958e-14
5893.83 1.7104e-14
5895.09 1.6378e-14
5896.34 1.6106e-14
5897.59 1.6658e-14
5898.85 1.7035e-14
5900.1 1.6995e-14
5901.35 1.6934e-14
5902.61 1.6943e-14
5903.86 1.7203e-14
5905.11 1.7296e-14
5906.37 1.7198e-14
5907.62 1.7131e-14
5908.88 1.7006e-14
5910.13 1.7072e-14
5911.38 1.715e-14
5912.64 1.711e-14
5913.89 1.7118e-14
5915.14 1.7062e-14
5916.4 1.7048e-14
5917.65 1.7066e-14
5918.9 1.6811e-14
5920.16 1.6694e-14
5921.41 1.6881e-14
5922.66 1.6893e-14
5923.92 1.6664e-14
5925.17 1.6641e-14
5926.42 1.6981e-14
5927.68 1.6993e-14
5928.93 1.7052e-14
5930.18 1.6955e-14
5931.44 1.6857e-14
5932.69 1.6854e-14
5933.94 1.686e-14
5935.2 1.6894e-14
5936.45 1.6931e-14
5937.7 1.6915e-14
5938.96 1.6851e-14
5940.21 1.6686e-14
5941.46 1.6448e-14
5942.72 1.6311e-14
5943.97 1.6409e-14
5945.22 1.6332e-14
5946.48 1.6284e-14
5947.73 1.6249e-14
5948.98 1.6355e-14
5950.24 1.6344e-14
5951.49 1.6379e-14
5952.74 1.6591e-14
5954.0 1.6586e-14
5955.25 1.647e-14
5956.5 1.6424e-14
5957.76 1.6315e-14
5959.01 1.6262e-14
5960.26 1.6323e-14
5961.52 1.6443e-14
5962.77 1.6448e-14
5964.02 1.6428e-14
5965.28 1.6394e-14
5966.53 1.6208e-14
5967.78 1.6023e-14
5969.04 1.6046e-14
5970.29 1.6248e-14
5971.54 1.6179e-14
5972.8 1.6123e-14
5974.05 1.6201e-14
5975.3 1.613e-14
5976.56 1.6173e-14
5977.81 1.6017e-14
5979.06 1.6106e-14
5980.32 1.6193e-14
5981.57 1.6098e-14
5982.82 1.611e-14
5984.08 1.6152e-14
5985.33 1.6131e-14
5986.59 1.6003e-14
5987.84 1.6039e-14
5989.09 1.6028e-14
5990.35 1.5981e-14
5991.6 1.5972e-14
5992.85 1.5996e-14
5994.11 1.603e-14
5995.36 1.6043e-14
5996.61 1.5994e-14
5997.87 1.5952e-14
5999.12 1.5972e-14
6000.37 1.5948e-14
6001.63 1.5905e-14
6002.88 1.5859e-14
6004.13 1.5864e-14
6005.39 1.5889e-14
6006.64 1.5911e-14
6007.89 1.5893e-14
6009.15 1.5827e-14
6010.4 1.5897e-14
6011.65 1.5858e-14
6012.91 1.5845e-14
6014.16 1.5761e-14
6015.41 1.5743e-14
6016.67 1.5813e-14
6017.92 1.5823e-14
6019.17 1.5823e-14
6020.43 1.5734e-14
6021.68 1.5633e-14
6022.93 1.5682e-14
6024.19 1.5721e-14
6025.44 1.5733e-14
6026.69 1.573e-14
6027.95 1.571e-14
6029.2 1.5683e-14
6030.45 1.5792e-14
6031.71 1.5569e-14
6032.96 1.5574e-14
6034.21 1.5593e-14
6035.47 1.5378e-14
6036.72 1.5517e-14
6037.97 1.5586e-14
6039.23 1.5597e-14
6040.48 1.5507e-14
6041.73 1.5525e-14
6042.99 1.5517e-14
6044.24 1.5455e-14
6045.49 1.5393e-14
6046.75 1.5473e-14
6048.0 1.5467e-14
6049.25 1.5455e-14
6050.51 1.5415e-14
6051.76 1.5415e-14
6053.01 1.5475e-14
6054.27 1.5538e-14
6055.52 1.5445e-14
6056.77 1.5451e-14
6058.03 1.5381e-14
6059.28 1.5354e-14
6060.53 1.5331e-14
6061.79 1.54e-14
6063.04 1.5458e-14
6064.3 1.5404e-14
6065.55 1.5243e-14
6066.8 1.5297e-14
6068.06 1.5241e-14
6069.31 1.5219e-14
6070.56 1.5256e-14
6071.82 1.5278e-14
6073.07 1.522e-14
6074.32 1.5148e-14
6075.58 1.5073e-14
6076.83 1.5106e-14
6078.08 1.5128e-14
6079.34 1.5113e-14
6080.59 1.5075e-14
6081.84 1.5066e-14
6083.1 1.5031e-14
6084.35 1.5038e-14
6085.6 1.4927e-14
6086.86 1.4941e-14
6088.11 1.4943e-14
6089.36 1.483e-14
6090.62 1.489e-14
6091.87 1.4946e-14
6093.12 1.4851e-14
6094.38 1.4813e-14
6095.63 1.4847e-14
6096.88 1.4829e-14
6098.14 1.4797e-14
6099.39 1.4757e-14
6100.64 1.4694e-14
6101.9 1.4625e-14
6103.15 1.4627e-14
6104.4 1.4618e-14
6105.66 1.4539e-14
6106.91 1.4463e-14
6108.16 1.4497e-14
6109.42 1.4448e-14
6110.67 1.4436e-14
6111.92 1.4349e-14
6113.18 1.4361e-14
6114.43 1.4336e-14
6115.68 1.4257e-14
6116.94 1.4208e-14
6118.19 1.4194e-14
6119.44 1.4233e-14
6120.7 1.4218e-14
6121.95 1.4183e-14
6123.2 1.4176e-14
6124.46 1.4128e-14
6125.71 1.4097e-14
6126.96 1.4036e-14
6128.22 1.4002e-14
6129.47 1.4052e-14
6130.72 1.4003e-14
6131.98 1.3992e-14
6133.23 1.3922e-14
6134.48 1.3998e-14
6135.74 1.3958e-14
6136.99 1.3896e-14
6138.24 1.3867e-14
6139.5 1.3947e-14
6140.75 1.387e-14
6142.01 1.3835e-14
6143.26 1.3858e-14
6144.51 1.3751e-14
6145.77 1.374e-14
6147.02 1.3784e-14
6148.27 1.3798e-14
6149.53 1.3807e-14
6150.78 1.3751e-14
6152.03 1.3787e-14
6153.29 1.3758e-14
6154.54 1.3809e-14
6155.79 1.3797e-14
6157.05 1.3795e-14
6158.3 1.3758e-14
6159.55 1.371e-14
6160.81 1.3791e-14
6162.06 1.3689e-14
6163.31 1.3762e-14
6164.57 1.3642e-14
6165.82 1.3687e-14
6167.07 1.3637e-14
6168.33 1.3641e-14
6169.58 1.3626e-14
6170.83 1.3644e-14
6172.09 1.3613e-14
6173.34 1.3624e-14
6174.59 1.3574e-14
6175.85 1.358e-14
6177.1 1.358e-14
6178.35 1.36e-14
6179.61 1.3561e-14
6180.86 1.3563e-14
6182.11 1.3594e-14
6183.37 1.3534e-14
6184.62 1.361e-14
6185.87 1.364e-14
6187.13 1.3715e-14
6188.38 1.3636e-14
6189.63 1.3558e-14
6190.89 1.3597e-14
6192.14 1.3597e-14
6193.39 1.3537e-14
6194.65 1.3588e-14
6195.9 1.3542e-14
6197.15 1.3629e-14
6198.41 1.3583e-14
6199.66 1.3593e-14
6200.91 1.3553e-14
6202.17 1.3534e-14
6203.42 1.3542e-14
6204.67 1.3529e-14
6205.93 1.3579e-14
6207.18 1.361e-14
6208.43 1.3803e-14
6209.69 1.3572e-14
6210.94 1.3688e-14
6212.19 1.3698e-14
6213.45 1.363e-14
6214.7 1.3661e-14
6215.95 1.367e-14
6217.21 1.3653e-14
6218.46 1.3747e-14
6219.72 1.3713e-14
6220.97 1.3716e-14
6222.22 1.3712e-14
6223.48 1.3687e-14
6224.73 1.3784e-14
6225.98 1.3742e-14
6227.24 1.3762e-14
6228.49 1.3775e-14
6229.74 1.3729e-14
6231.0 1.3705e-14
6232.25 1.3689e-14
6233.5 1.372e-14
6234.76 1.3791e-14
6236.01 1.375e-14
6237.26 1.377e-14
6238.52 1.3754e-14
6239.77 1.3716e-14
6241.02 1.3784e-14
6242.28 1.3731e-14
6243.53 1.3806e-14
6244.78 1.3845e-14
6246.04 1.3813e-14
6247.29 1.384e-14
6248.54 1.3793e-14
6249.8 1.3777e-14
6251.05 1.3791e-14
6252.3 1.387e-14
6253.56 1.3811e-14
6254.81 1.3808e-14
6256.06 1.3749e-14
6257.32 1.3742e-14
6258.57 1.367e-14
6259.82 1.379e-14
6261.08 1.3844e-14
6262.33 1.3866e-14
6263.58 1.3886e-14
6264.84 1.3842e-14
6266.09 1.3763e-14
6267.34 1.3818e-14
6268.6 1.3747e-14
6269.85 1.377e-14
6271.1 1.3791e-14
6272.36 1.3775e-14
6273.61 1.3766e-14
6274.86 1.379e-14
6276.12 1.3543e-14
6277.37 1.3418e-14
6278.62 1.3501e-14
6279.88 1.3676e-14
6281.13 1.3775e-14
6282.38 1.346e-14
6283.64 1.3307e-14
6284.89 1.3407e-14
6286.14 1.3468e-14
6287.4 1.3472e-14
6288.65 1.3461e-14
6289.9 1.3336e-14
6291.16 1.3337e-14
6292.41 1.3268e-14
6293.66 1.3229e-14
6294.92 1.3246e-14
6296.17 1.3235e-14
6297.43 1.3249e-14
6298.68 1.3651e-14
6299.93 1.2782e-14
6301.19 1.3184e-14
6302.44 1.3711e-14
6303.69 1.3085e-14
6304.95 1.3315e-14
6306.2 1.3159e-14
6307.45 1.3189e-14
6308.71 1.3233e-14
6309.96 1.3193e-14
6311.21 1.3117e-14
6312.47 1.3115e-14
6313.72 1.3109e-14
6314.97 1.3016e-14
6316.23 1.3e-14
6317.48 1.2997e-14
6318.73 1.2999e-14
6319.99 1.2997e-14
6321.24 1.2894e-14
6322.49 1.2948e-14
6323.75 1.2964e-14
6325.0 1.2928e-14
6326.25 1.2926e-14
6327.51 1.2915e-14
6328.76 1.2953e-14
6330.01 1.29e-14
6331.27 1.2884e-14
6332.52 1.2883e-14
6333.77 1.2858e-14
6335.03 1.2847e-14
6336.28 1.289e-14
6337.53 1.2992e-14
6338.79 1.2942e-14
6340.04 1.2954e-14
6341.29 1.2935e-14
6343.8 1.2984e-14
6345.05 1.2924e-14
6346.31 1.2891e-14
6347.56 1.2955e-14
6348.81 1.2955e-14
6350.07 1.2991e-14
6351.32 1.2841e-14
6352.57 1.297e-14
6353.83 1.3015e-14
6355.08 1.3055e-14
6356.33 1.299e-14
6357.59 1.2993e-14
6358.84 1.3084e-14
6360.09 1.3099e-14
6361.35 1.306e-14
6362.6 1.3279e-14
6363.85 1.2956e-14
6365.11 1.2946e-14
6366.36 1.3316e-14
6367.61 1.3255e-14
6368.87 1.3222e-14
6370.12 1.3256e-14
6371.37 1.3438e-14
6372.63 1.3527e-14
6373.88 1.3359e-14
6375.14 1.3256e-14
6376.39 1.3272e-14
6377.64 1.3272e-14
6378.9 1.3341e-14
6380.15 1.3354e-14
6381.4 1.3382e-14
6382.66 1.3526e-14
6383.91 1.3538e-14
6385.16 1.3466e-14
6386.42 1.3508e-14
6387.67 1.3517e-14
6388.92 1.3595e-14
6390.18 1.3641e-14
6391.43 1.3742e-14
6392.68 1.3744e-14
6393.94 1.3783e-14
6395.19 1.3786e-14
6396.44 1.3894e-14
6397.7 1.3968e-14
6398.95 1.3978e-14
6400.2 1.3969e-14
6401.46 1.4027e-14
6402.71 1.4042e-14
6403.96 1.409e-14
6405.22 1.4152e-14
6406.47 1.4165e-14
6407.72 1.4204e-14
6408.98 1.4264e-14
6410.23 1.4327e-14
6411.48 1.4436e-14
6412.74 1.4432e-14
6413.99 1.4444e-14
6415.24 1.4383e-14
6416.5 1.4492e-14
6417.75 1.4583e-14
6419.0 1.4619e-14
6420.26 1.4651e-14
6421.51 1.474e-14
6422.76 1.4801e-14
6424.02 1.4822e-14
6425.27 1.4866e-14
6426.52 1.4922e-14
6427.78 1.495e-14
6429.03 1.5008e-14
6430.28 1.5048e-14
6431.54 1.5117e-14
6432.79 1.5172e-14
6434.04 1.5197e-14
6435.3 1.5272e-14
6436.55 1.5315e-14
6437.8 1.5366e-14
6439.06 1.5454e-14
6440.31 1.5533e-14
6441.56 1.5589e-14
6442.82 1.5626e-14
6444.07 1.5653e-14
6445.32 1.569e-14
6446.58 1.5796e-14
6447.83 1.5819e-14
6449.08 1.5831e-14
6450.34 1.5785e-14
6451.59 1.5901e-14
6452.85 1.5898e-14
6454.1 1.5944e-14
6455.35 1.584e-14
6456.61 1.6025e-14
6457.86 1.6437e-14
6459.11 1.5959e-14
6460.37 1.5928e-14
6461.62 1.6077e-14
6462.87 1.6046e-14
6464.13 1.5959e-14
6465.38 1.5975e-14
6466.63 1.6023e-14
6467.89 1.5986e-14
6469.14 1.5938e-14
6470.39 1.6085e-14
6471.65 1.6097e-14
6472.9 1.5986e-14
6474.15 1.586e-14
6475.41 1.5755e-14
6476.66 1.5788e-14
6477.91 1.5986e-14
6479.17 1.5968e-14
6480.42 1.5978e-14
6481.67 1.6087e-14
6482.93 1.6026e-14
6484.18 1.5936e-14
6485.43 1.6054e-14
6486.69 1.6204e-14
6487.94 1.6226e-14
6489.19 1.6195e-14
6490.45 1.6238e-14
6491.7 1.6181e-14
6492.95 1.6184e-14
6494.21 1.6203e-14
6495.46 1.6245e-14
6496.71 1.613e-14
6497.97 1.6256e-14
6499.22 1.634e-14
6500.47 1.4883e-14
6501.73 1.4736e-14
6502.98 1.4725e-14
6504.23 1.4641e-14
6505.49 1.4792e-14
6506.74 1.6108e-14
6507.99 1.6296e-14
6509.25 1.626e-14
6510.5 1.642e-14
6511.75 1.6351e-14
6513.01 1.637e-14
6514.26 1.6171e-14
6515.51 1.5932e-14
6516.77 1.5809e-14
6518.02 1.5923e-14
6519.27 1.6134e-14
6520.53 1.6188e-14
6521.78 1.6287e-14
6523.03 1.6231e-14
6524.29 1.6131e-14
6525.54 1.6235e-14
6526.79 1.6175e-14
6528.05 1.6126e-14
6529.3 1.6146e-14
6530.56 1.6098e-14
6531.81 1.6089e-14
6533.06 1.5909e-14
6534.32 1.5924e-14
6535.57 1.6079e-14
6536.82 1.6048e-14
6538.08 1.6061e-14
6539.33 1.6121e-14
6540.58 1.6088e-14
6541.84 1.6007e-14
6543.09 1.5913e-14
6544.34 1.5838e-14
6545.6 1.5822e-14
6546.85 1.5887e-14
6548.1 1.5771e-14
6549.36 1.5695e-14
6550.61 1.586e-14
6551.86 1.5836e-14
6553.12 1.5734e-14
6554.37 1.5766e-14
6555.62 1.5828e-14
6556.88 1.5857e-14
6558.13 1.5816e-14
6559.38 1.5862e-14
6560.64 1.5865e-14
6561.89 1.587e-14
6563.14 1.5805e-14
6564.4 1.5708e-14
6565.65 1.5694e-14
6566.9 1.584e-14
6568.16 1.5791e-14
6569.41 1.5693e-14
6570.66 1.5719e-14
6571.92 1.5705e-14
6573.17 1.5726e-14
6574.42 1.5699e-14
6575.68 1.5704e-14
6576.93 1.5711e-14
6578.18 1.5697e-14
6579.44 1.5756e-14
6580.69 1.5595e-14
6581.94 1.5571e-14
6583.2 1.5565e-14
6584.45 1.5597e-14
6585.7 1.556e-14
6586.96 1.55e-14
6588.21 1.5482e-14
6589.46 1.5547e-14
6590.72 1.553e-14
6591.97 1.5521e-14
6593.22 1.5494e-14
6594.48 1.5411e-14
6595.73 1.5431e-14
6596.98 1.5431e-14
6598.24 1.5429e-14
6599.49 1.5371e-14
6600.74 1.5412e-14
6602.0 1.5374e-14
6603.25 1.5358e-14
6604.5 1.5298e-14
6605.76 1.5269e-14
6607.01 1.5267e-14
6608.27 1.5286e-14
6609.52 1.5311e-14
6610.77 1.5189e-14
6612.03 1.5162e-14
6613.28 1.511e-14
6614.53 1.5114e-14
6615.79 1.5133e-14
6617.04 1.5043e-14
6618.29 1.5026e-14
6619.55 1.5022e-14
6620.8 1.5e-14
6622.05 1.4938e-14
6623.31 1.4938e-14
6624.56 1.499e-14
6625.81 1.4926e-14
6627.07 1.4962e-14
6628.32 1.4908e-14
6629.57 1.4834e-14
6630.83 1.4818e-14
6632.08 1.4786e-14
6633.33 1.4791e-14
6634.59 1.473e-14
6635.84 1.4706e-14
6637.09 1.4677e-14
6638.35 1.464e-14
6639.6 1.461e-14
6640.85 1.4588e-14
6642.11 1.3852e-14
6643.36 1.3075e-14
6644.61 1.2809e-14
6645.87 1.2493e-14
6647.12 1.2425e-14
6648.37 1.238e-14
6649.63 1.2328e-14
6650.88 1.2283e-14
6652.13 1.2381e-14
6653.39 1.3181e-14
6654.64 1.4374e-14
6655.89 1.4296e-14
6657.15 1.4277e-14
6658.4 1.4188e-14
6659.65 1.4246e-14
6660.91 1.4219e-14
6662.16 1.4079e-14
6663.41 1.4152e-14
6664.67 1.4159e-14
6665.92 1.4126e-14
6667.17 1.408e-14
6668.43 1.4089e-14
6669.68 1.4125e-14
6670.93 1.4041e-14
6672.19 1.4014e-14
6673.44 1.3951e-14
6674.69 1.4028e-14
6675.95 1.4054e-14
6677.2 1.3963e-14
6678.45 1.3994e-14
6679.71 1.3908e-14
6680.96 1.3933e-14
6682.21 1.386e-14
6683.47 1.3829e-14
6684.72 1.3884e-14
6685.98 1.3867e-14
6687.23 1.3781e-14
6688.48 1.3813e-14
6689.74 1.3754e-14
6690.99 1.3783e-14
6692.24 1.377e-14
6693.5 1.3719e-14
6694.75 1.365e-14
6696.0 1.3688e-14
6697.26 1.3654e-14
6698.51 1.3594e-14
6699.76 1.355e-14
6701.02 1.3543e-14
6702.27 1.3562e-14
6703.52 1.3493e-14
6704.78 1.3549e-14
6706.03 1.3569e-14
6707.28 1.3511e-14
6708.54 1.3493e-14
6709.79 1.3484e-14
6711.04 1.3486e-14
6712.3 1.3496e-14
6713.55 1.3438e-14
6714.8 1.3427e-14
6716.06 1.3462e-14
6717.31 1.345e-14
6718.56 1.3372e-14
6719.82 1.3358e-14
6721.07 1.3367e-14
6722.32 1.336e-14
6723.58 1.3367e-14
6724.83 1.3323e-14
6726.08 1.3309e-14
6727.34 1.3252e-14
6728.59 1.3245e-14
6729.84 1.3196e-14
6731.1 1.3181e-14
6732.35 1.3201e-14
6733.6 1.3156e-14
6734.86 1.3078e-14
6736.11 1.3108e-14
6737.36 1.3043e-14
6738.62 1.3089e-14
6739.87 1.3051e-14
6741.12 1.3014e-14
6742.38 1.304e-14
6743.63 1.3044e-14
6744.88 1.2962e-14
6746.14 1.299e-14
6747.39 1.2958e-14
6748.64 1.2953e-14
6749.9 1.2881e-14
6751.15 1.2904e-14
6752.4 1.2916e-14
6753.66 1.2905e-14
6754.91 1.2927e-14
6756.16 1.2897e-14
6757.42 1.2853e-14
6758.67 1.2818e-14
6759.92 1.2868e-14
6761.18 1.2795e-14
6762.43 1.2722e-14
6763.69 1.2716e-14
6764.94 1.272e-14
6766.19 1.2757e-14
6767.45 1.2722e-14
6768.7 1.2669e-14
6769.95 1.2636e-14
6771.21 1.2644e-14
6772.46 1.2706e-14
6773.71 1.2558e-14
6774.97 1.2524e-14
6776.22 1.2527e-14
6777.47 1.2471e-14
6778.73 1.249e-14
6779.98 1.2447e-14
6781.23 1.241e-14
6782.49 1.2407e-14
6783.74 1.2391e-14
6784.99 1.2339e-14
6786.25 1.2392e-14
6787.5 1.2396e-14
6788.75 1.2351e-14
6790.01 1.2316e-14
6791.26 1.2258e-14
6792.51 1.2317e-14
6793.77 1.231e-14
6795.02 1.2239e-14
6796.27 1.2204e-14
6797.53 1.217e-14
6798.78 1.2189e-14
6800.03 1.2162e-14
6801.29 1.2146e-14
6802.54 1.2131e-14
6803.79 1.207e-14
6805.05 1.2022e-14
6806.3 1.2002e-14
6807.55 1.2005e-14
6808.81 1.2039e-14
6810.06 1.2037e-14
6811.31 1.2023e-14
6812.57 1.1985e-14
6813.82 1.1962e-14
6815.07 1.1961e-14
6816.33 1.1978e-14
6817.58 1.1941e-14
6818.83 1.1969e-14
6820.09 1.1883e-14
6821.34 1.1838e-14
6822.59 1.1842e-14
6823.85 1.1822e-14
6825.1 1.1828e-14
6826.35 1.1876e-14
6827.61 1.198e-14
6828.86 1.1964e-14
6830.11 1.1899e-14
6831.37 1.1831e-14
6832.62 1.1816e-14
6833.87 1.1736e-14
6835.13 1.172e-14
6836.38 1.1752e-14
6837.63 1.1703e-14
6838.89 1.1685e-14
6840.14 1.1683e-14
6841.4 1.1651e-14
6842.65 1.1645e-14
6843.9 1.1619e-14
6845.16 1.1683e-14
6846.41 1.16e-14
6847.66 1.1589e-14
6848.92 1.1663e-14
6850.17 1.1552e-14
6851.42 1.1611e-14
6852.68 1.1541e-14
6853.93 1.1536e-14
6855.18 1.1526e-14
6856.44 1.1607e-14
6857.69 1.1584e-14
6858.94 1.1501e-14
6860.2 1.148e-14
6861.45 1.1412e-14
6862.7 1.143e-14
6863.96 1.1568e-14
6865.21 1.1422e-14
6866.46 1.1041e-14
6867.72 1.046e-14
6868.97 1.0514e-14
6870.22 1.1508e-14
6871.48 1.1491e-14
6872.73 1.1277e-14
6873.98 1.1283e-14
6875.24 1.1456e-14
6876.49 1.1285e-14
6877.74 1.1321e-14
6879.0 1.1349e-14
6880.25 1.1495e-14
6881.5 1.1557e-14
6882.76 1.1091e-14
6884.01 1.1093e-14
6885.26 1.1099e-14
6886.52 1.1103e-14
6887.77 1.1216e-14
6889.02 1.112e-14
6890.28 1.1171e-14
6891.53 1.1403e-14
6892.78 1.102e-14
6894.04 1.1468e-14
6895.29 1.1258e-14
6896.54 1.0861e-14
6897.8 1.1406e-14
6899.05 1.1353e-14
6900.3 1.0929e-14
6901.56 1.1272e-14
6902.81 1.1295e-14
6904.06 1.0844e-14
6905.32 1.1189e-14
6906.57 1.1418e-14
6907.82 1.1073e-14
6909.08 1.096e-14
6910.33 1.1305e-14
6911.58 1.1079e-14
6912.84 1.0939e-14
6914.09 1.1008e-14
6915.34 1.1343e-14
6916.6 1.1061e-14
6917.85 1.0787e-14
6919.11 1.1031e-14
6920.36 1.1248e-14
6921.61 1.1038e-14
6922.87 1.0851e-14
6924.12 1.0876e-14
6925.37 1.1111e-14
6926.63 1.1087e-14
6927.88 1.0933e-14
6929.13 1.0767e-14
6930.39 1.0958e-14
6931.64 1.0935e-14
6932.89 1.0881e-14
6934.15 1.0716e-14
6935.4 1.083e-14
6936.65 1.0871e-14
6937.91 1.0778e-14
6939.16 1.0584e-14
6940.41 1.0547e-14
6941.67 1.0634e-14
6942.92 1.0629e-14
6944.17 1.0753e-14
6945.43 1.0922e-14
6946.68 1.0826e-14
6947.93 1.0699e-14
6949.19 1.0611e-14
6950.44 1.0717e-14
6951.69 1.0924e-14
6952.95 1.0953e-14
6954.2 1.0911e-14
6955.45 1.0689e-14
6956.71 1.0522e-14
6957.96 1.0686e-14
6959.21 1.0783e-14
6960.47 1.0652e-14
6961.72 1.0658e-14
6962.97 1.0861e-14
6964.23 1.0962e-14
6965.48 1.0959e-14
6966.73 1.104e-14
6967.99 1.1135e-14
6969.24 1.112e-14
6970.49 1.0991e-14
6971.75 1.0912e-14
6973.0 1.1015e-14
6974.25 1.1033e-14
6975.51 1.1074e-14
6976.76 1.1019e-14
6978.01 1.0941e-14
6979.27 1.092e-14
6980.52 1.0969e-14
6981.77 1.0925e-14
6983.03 1.0946e-14
6984.28 1.0936e-14
6985.53 1.0838e-14
6986.79 1.069e-14
6988.04 1.0607e-14
6989.29 1.0552e-14
6990.55 1.062e-14
6991.8 1.0677e-14
6993.05 1.064e-14
6994.31 1.0526e-14
6995.56 1.0915e-14
6996.82 1.1278e-14
6998.07 1.0855e-14
6999.32 1.0506e-14
7000.58 1.0686e-14
7001.83 1.0819e-14
7003.08 1.078e-14
7004.34 1.0515e-14
7005.59 1.0335e-14
7006.84 1.05e-14
7008.1 1.0647e-14
7009.35 1.0665e-14
7010.6 1.0609e-14
7011.86 1.0532e-14
7013.11 1.0695e-14
7014.36 1.0759e-14
7015.62 1.05e-14
7016.87 1.0286e-14
7018.12 1.0444e-14
7019.38 1.0637e-14
7020.63 1.0626e-14
7021.88 1.0583e-14
7023.14 1.0466e-14
7024.39 1.0459e-14
7025.64 1.047e-14
7026.9 1.0334e-14
7028.15 1.0208e-14
7029.4 1.0399e-14
7030.66 1.0587e-14
7031.91 1.0694e-14
7033.16 1.072e-14
7034.42 1.0724e-14
7035.67 1.0699e-14
7036.92 1.0558e-14
7038.18 1.0383e-14
7039.43 1.034e-14
7040.68 1.0349e-14
7041.94 1.0492e-14
7043.19 1.059e-14
7044.44 1.056e-14
7045.7 1.0564e-14
7046.95 1.0579e-14
7048.2 1.0522e-14
7049.46 1.0479e-14
7050.71 1.0419e-14
7051.96 1.0338e-14
7053.22 1.0297e-14
7054.47 1.0423e-14
7055.72 1.0503e-14
7056.98 1.0471e-14
7058.23 1.0416e-14
7059.48 1.0465e-14
7060.74 1.0433e-14
7061.99 1.0409e-14
7063.24 1.0446e-14
7064.5 1.0444e-14
7065.75 1.0372e-14
7067.0 1.0387e-14
7068.26 1.0435e-14
7069.51 1.0485e-14
7070.76 1.0499e-14
7072.02 1.0498e-14
7073.27 1.0484e-14
7074.53 1.0442e-14
7075.78 1.0418e-14
7077.03 1.0432e-14
7078.29 1.0394e-14
7079.54 1.0383e-14
7080.79 1.0467e-14
7082.05 1.0471e-14
7083.3 1.0475e-14
7084.55 1.0458e-14
7085.81 1.0462e-14
7087.06 1.0438e-14
7088.31 1.0367e-14
7089.57 1.0395e-14
7090.82 1.0434e-14
7092.07 1.0429e-14
7093.33 1.0475e-14
7094.58 1.0512e-14
7095.83 1.0443e-14
7097.09 1.043e-14
7098.34 1.0452e-14
7099.59 1.0451e-14
7100.85 1.0378e-14
7102.1 1.0377e-14
7103.35 1.0457e-14
7104.61 1.0461e-14
7105.86 1.0375e-14
7107.11 1.0403e-14
7108.37 1.046e-14
7109.62 1.0492e-14
7110.87 1.0499e-14
7112.13 1.0505e-14
7113.38 1.0542e-14
7114.63 1.0504e-14
7115.89 1.0515e-14
7117.14 1.0498e-14
7118.39 1.0419e-14
7119.65 1.0457e-14
7120.9 1.0523e-14
7122.15 1.0494e-14
7123.41 1.0462e-14
7124.66 1.0495e-14
7125.91 1.0498e-14
7127.17 1.046e-14
7128.42 1.0386e-14
7129.67 1.0351e-14
7130.93 1.0416e-14
7132.18 1.0384e-14
7133.43 1.045e-14
7134.69 1.0411e-14
7135.94 1.0448e-14
7137.19 1.0382e-14
7138.45 1.039e-14
7139.7 1.0424e-14
7140.95 1.0405e-14
7142.21 1.0419e-14
7143.46 1.0381e-14
7144.71 1.0352e-14
7145.97 1.0394e-14
7147.22 1.0319e-14
7148.47 1.0314e-14
7149.73 1.0323e-14
7150.98 1.0226e-14
7152.24 1.0249e-14
7153.49 1.0332e-14
7154.74 1.0333e-14
7156.0 1.0303e-14
7157.25 1.029e-14
7158.5 1.0239e-14
7159.76 1.0197e-14
7161.01 1.0255e-14
7162.26 1.0254e-14
7163.52 1.0133e-14
7164.77 1.0188e-14
7166.02 1.0097e-14
7167.28 9.6645e-15
7168.53 9.6845e-15
7169.78 9.6427e-15
7171.04 9.6372e-15
7172.29 9.5986e-15
7173.54 9.2111e-15
7174.8 9.6023e-15
7176.05 9.6363e-15
7177.3 9.1573e-15
7178.56 9.4416e-15
7179.81 9.7589e-15
7181.06 9.8001e-15
7182.32 9.6215e-15
7183.57 9.7128e-15
7184.82 9.3231e-15
7186.08 8.9558e-15
7187.33 8.9773e-15
7188.58 9.6728e-15
7189.84 9.9087e-15
7191.09 9.4557e-15
7192.34 9.1284e-15
7193.6 9.142e-15
7194.85 9.378e-15
7196.1 9.6531e-15
7197.36 9.3946e-15
7198.61 9.4017e-15
7199.86 9.309e-15
7201.12 9.0135e-15
7202.37 9.4137e-15
7203.62 9.6178e-15
7204.88 9.246e-15
7206.13 9.37e-15
7207.38 9.6736e-15
7208.64 9.8077e-15
7209.89 9.5909e-15
7211.14 9.6914e-15
7212.4 9.9305e-15
7213.65 1.0066e-14
7214.9 1.0016e-14
7216.16 9.7649e-15
7217.41 9.6572e-15
7218.66 9.7371e-15
7219.92 9.9042e-15
7221.17 1.0031e-14
7222.42 9.8173e-15
7223.68 9.5211e-15
7224.93 9.6769e-15
7226.18 9.7122e-15
7227.44 9.5207e-15
7228.69 9.5242e-15
7229.95 9.748e-15
7231.2 9.6179e-15
7232.45 9.2198e-15
7233.71 8.9719e-15
7234.96 8.9761e-15
7236.21 9.353e-15
7237.47 9.5077e-15
7238.72 9.5917e-15
7239.97 9.0534e-15
7241.23 9.0434e-15
7242.48 9.3311e-15
7243.73 9.3901e-15
7244.99 9.3495e-15
7246.24 9.2462e-15
7247.49 9.4462e-15
7248.75 9.4154e-15
7250.0 9.3828e-15
7251.25 9.2351e-15
7252.51 8.8463e-15
7253.76 8.8933e-15
7255.01 9.6174e-15
7256.27 9.6115e-15
7257.52 9.2204e-15
7258.77 9.2628e-15
7260.03 9.3488e-15
7261.28 9.339e-15
7262.53 9.283e-15
7263.79 9.1336e-15
7265.04 8.7866e-15
7266.29 9.1451e-15
7267.55 9.6587e-15
7268.8 9.6115e-15
7270.05 9.3381e-15
7271.31 9.3136e-15
7272.56 9.175e-15
7273.81 9.1649e-15
7275.07 8.5249e-15
7276.32 8.1622e-15
7277.57 7.3695e-15
7278.83 7.8544e-15
7280.08 8.2733e-15
7281.33 8.5496e-15
7282.59 8.6328e-15
7283.84 9.6245e-15
7285.09 9.8176e-15
7286.35 9.4627e-15
7287.6 9.1377e-15
7288.85 9.2672e-15
7290.11 9.0673e-15
7291.36 8.938e-15
7292.61 9.2052e-15
7293.87 9.1499e-15
7295.12 9.0074e-15
7296.37 9.2216e-15
7297.63 9.5527e-15
7298.88 9.3626e-15
7300.13 9.108e-15
7301.39 9.1478e-15
7302.64 8.8164e-15
7303.89 8.7035e-15
7305.15 9.1275e-15
7306.4 9.4075e-15
7307.66 9.5078e-15
7308.91 9.055e-15
7310.16 8.9502e-15
7311.42 9.0475e-15
7312.67 9.1522e-15
7313.92 9.3349e-15
7315.18 9.4522e-15
7316.43 8.8565e-15
7317.68 8.8395e-15
7318.94 9.1386e-15
7320.19 9.1862e-15
7321.44 9.457e-15
7322.7 9.5363e-15
7323.95 9.4827e-15
7325.2 9.4495e-15
7326.46 9.4362e-15
7327.71 9.4398e-15
7328.96 9.4591e-15
7330.22 9.4019e-15
7331.47 9.438e-15
7332.72 9.2226e-15
7333.98 9.1215e-15
7335.23 9.2272e-15
7336.48 9.3681e-15
7337.74 9.5708e-15
7338.99 9.5211e-15
7340.24 9.724e-15
7341.5 9.4856e-15
7342.75 9.3182e-15
7344.0 9.4535e-15
7345.26 9.397e-15
7346.51 9.5082e-15
7347.76 9.4341e-15
7349.02 9.348e-15
7350.27 9.2199e-15
7351.52 9.4195e-15
7352.78 9.4982e-15
7354.03 9.4289e-15
7355.28 9.445e-15
7356.54 9.358e-15
7357.79 9.395e-15
7359.04 9.4348e-15
7360.3 9.2405e-15
7361.55 9.1401e-15
7362.8 9.2979e-15
7364.06 9.2585e-15
7365.31 9.254e-15
7366.56 9.3351e-15
7367.82 9.1835e-15
7369.07 9.3087e-15
7370.32 9.3085e-15
7371.58 9.2333e-15
7372.83 9.359e-15
7374.08 9.4108e-15
7375.34 9.413e-15
7376.59 9.3587e-15
7377.84 9.2891e-15
7379.1 9.3632e-15
7380.35 9.39e-15
7381.6 9.3145e-15
7382.86 9.2568e-15
7384.11 9.1831e-15
7385.37 9.2939e-15
7386.62 9.3783e-15
7387.87 9.3782e-15
7389.13 9.3118e-15
7390.38 9.2897e-15
7391.63 9.1593e-15
7392.89 9.2923e-15
7394.14 9.4068e-15
7395.39 9.2738e-15
7396.65 9.1939e-15
7397.9 9.2335e-15
7399.15 9.3566e-15
7400.41 9.4621e-15
7401.66 9.2436e-15
7402.91 9.1984e-15
7404.17 9.4127e-15
7405.42 9.3435e-15
7406.67 9.3248e-15
7407.93 9.3114e-15
7409.18 9.3463e-15
7410.43 9.3637e-15
7411.69 9.328e-15
7412.94 9.4036e-15
7414.19 9.4077e-15
7415.45 9.4564e-15
7416.7 9.4959e-15
7417.95 9.4665e-15
7419.21 9.465e-15
7420.46 9.4134e-15
7421.71 9.4082e-15
7422.97 9.4308e-15
7424.22 9.3587e-15
7425.47 9.3706e-15
7426.73 9.4533e-15
7427.98 9.3037e-15
7429.23 9.2192e-15
7430.49 9.0161e-15
7431.74 9.1274e-15
7432.99 9.1699e-15
7434.25 9.1442e-15
7435.5 9.2103e-15
7436.75 9.1176e-15
7438.01 9.1293e-15
7439.26 9.1939e-15
7440.51 9.0872e-15
7441.77 9.0525e-15
7443.02 9.0947e-15
7444.27 9.0873e-15
7445.53 9.1528e-15
7446.78 9.1136e-15
7448.03 9.1614e-15
7449.29 9.1331e-15
7450.54 9.0754e-15
7451.79 9.0657e-15
7453.05 9.0515e-15
7454.3 9.034e-15
7455.55 9.0559e-15
7456.81 9.007e-15
7458.06 8.9784e-15
7459.31 9.0083e-15
7460.57 8.9673e-15
7461.82 8.9936e-15
7463.08 9.0293e-15
7464.33 8.9883e-15
7465.58 8.9378e-15
7466.84 8.9545e-15
7468.09 8.9131e-15
7469.34 8.953e-15
7470.6 8.9586e-15
7471.85 8.9055e-15
7473.1 8.9407e-15
7474.36 8.8599e-15
7475.61 8.8411e-15
7476.86 8.9331e-15
7478.12 8.7966e-15
7479.37 8.8798e-15
7480.62 8.8159e-15
7481.88 8.7061e-15
7483.13 8.8579e-15
7484.38 8.782e-15
7485.64 8.7673e-15
7486.89 8.7575e-15
7488.14 8.8423e-15
7489.4 8.7797e-15
7490.65 8.7673e-15
7491.9 8.7636e-15
7493.16 8.7111e-15
7494.41 8.7281e-15
7495.66 8.7322e-15
7496.92 8.7283e-15
7498.17 8.6901e-15
7499.42 8.7719e-15
7500.68 8.7332e-15
7501.93 8.6965e-15
7503.18 8.7045e-15
7504.44 8.7096e-15
7505.69 8.7434e-15
7506.94 8.6747e-15
7508.2 8.6817e-15
7509.45 8.6693e-15
7510.7 8.6559e-15
7511.96 8.7132e-15
7513.21 8.7382e-15
7514.46 8.6984e-15
7515.72 8.6341e-15
7516.97 8.6907e-15
7518.22 8.6914e-15
7519.48 8.6524e-15
7520.73 8.6365e-15
7521.98 8.6163e-15
7523.24 8.7233e-15
7524.49 8.6615e-15
7525.74 8.4761e-15
7527.0 8.7303e-15
7528.25 9.0435e-15
7529.5 1.0184e-14
7530.76 8.9325e-15
7532.01 8.6512e-15
7533.26 8.6326e-15
7534.52 8.6036e-15
7535.77 8.5853e-15
7537.02 8.5144e-15
7538.28 8.5894e-15
7539.53 8.5679e-15
7540.79 8.5487e-15
7542.04 8.5541e-15
7543.29 8.5715e-15
7544.55 8.5652e-15
7545.8 8.5218e-15
7547.05 8.5392e-15
7548.31 8.5253e-15
7549.56 8.5056e-15
7550.81 8.5422e-15
7552.07 8.5431e-15
7553.32 8.4671e-15
7554.57 8.5066e-15
7555.83 8.5284e-15
7557.08 8.4612e-15
7558.33 8.412e-15
7559.59 8.4865e-15
7560.84 8.4268e-15
7562.09 8.4618e-15
7563.35 8.484e-15
7564.6 8.468e-15
7565.85 8.4609e-15
7567.11 8.4166e-15
7568.36 8.4138e-15
7569.61 8.4179e-15
7570.87 8.5071e-15
7572.12 8.3706e-15
7573.37 8.3326e-15
7574.63 8.4226e-15
7575.88 8.3971e-15
7577.13 8.4124e-15
7578.39 8.4191e-15
7579.64 8.3303e-15
7580.89 8.3889e-15
7582.15 8.3755e-15
7583.4 8.3599e-15
7584.65 8.3008e-15
7585.91 8.5012e-15
7587.16 8.4534e-15
7588.41 8.4011e-15
7589.67 8.4355e-15
7590.92 8.352e-15
7592.17 8.2761e-15
7593.43 7.9359e-15
7594.68 7.4622e-15
7595.93 7.4234e-15
7597.19 7.9718e-15
7598.44 7.8919e-15
7599.69 7.7842e-15
7600.95 7.4907e-15
7602.2 7.3786e-15
7603.45 7.484e-15
7604.71 7.4396e-15
7605.96 7.53e-15
7607.21 7.8427e-15
7608.47 7.7115e-15
7609.72 7.9338e-15
7610.97 8.3576e-15
7612.23 8.1946e-15
7613.48 8.8604e-15
7614.73 8.4649e-15
7615.99 8.7088e-15
7617.24 9.3899e-15
7618.5 8.6605e-15
7619.75 7.9271e-15
7621.0 7.7237e-15
7622.26 7.9106e-15
7623.51 7.5548e-15
7624.76 8.0061e-15
7626.02 8.8732e-15
7627.27 7.6588e-15
7628.52 8.0935e-15
7629.78 9.0814e-15
7631.03 7.5967e-15
7632.28 7.5767e-15
7633.54 9.1165e-15
7634.79 7.9937e-15
7636.04 7.3305e-15
7637.3 9.4947e-15
7638.55 8.653e-15
7639.8 7.5467e-15
7641.06 8.6056e-15
7642.31 9.3124e-15
7643.56 8.3012e-15
7644.82 8.5882e-15
7646.07 9.5987e-15
7647.32 8.5868e-15
7648.58 7.675e-15
7649.83 8.2354e-15
7651.08 1.0389e-14
7652.34 8.5779e-15
7653.59 8.0032e-15
7654.84 7.7526e-15
7656.1 8.5433e-15
7657.35 8.8452e-15
7658.6 8.148e-15
7659.86 7.9619e-15
7661.11 8.8646e-15
7662.36 8.9569e-15
7663.62 8.2927e-15
7664.87 7.9534e-15
7666.12 8.3421e-15
7667.38 8.9418e-15
7668.63 8.5742e-15
7669.88 8.2007e-15
7671.14 8.1616e-15
7672.39 8.5656e-15
7673.64 8.6295e-15
7674.9 8.3894e-15
7676.15 8.233e-15
7677.4 8.3894e-15
7678.66 8.6377e-15
7679.91 8.3946e-15
7681.16 8.3167e-15
7682.42 8.2116e-15
7683.67 8.4197e-15
7684.92 8.5665e-15
7686.18 8.4016e-15
7687.43 8.4478e-15
7688.68 8.274e-15
7689.94 8.4753e-15
7691.19 8.5994e-15
7692.44 8.5301e-15
7693.7 8.3997e-15
7694.95 8.3061e-15
7696.21 8.2076e-15
7697.46 8.1855e-15
7698.71 8.3484e-15
7699.97 8.4067e-15
7701.22 8.4707e-15
7702.47 8.3312e-15
7703.73 8.3455e-15
7704.98 8.376e-15
7706.23 8.4511e-15
7707.49 8.4073e-15
7708.74 8.4347e-15
7709.99 8.4126e-15
7711.25 8.2582e-15
7712.5 8.4917e-15
7713.75 8.5736e-15
7715.01 8.3638e-15
7716.26 8.3649e-15
7717.51 8.3364e-15
7718.77 8.4879e-15
7720.02 8.4573e-15
7721.27 8.4881e-15
7722.53 8.4054e-15
7723.78 8.3925e-15
7725.03 8.478e-15
7726.29 8.4524e-15
7727.54 8.4608e-15
7728.79 8.4986e-15
7730.05 8.4328e-15
7731.3 8.3658e-15
7732.55 8.3775e-15
7733.81 8.4596e-15
7735.06 8.4366e-15
7736.31 8.4661e-15
7737.57 8.4746e-15
7738.82 8.4464e-15
7740.07 8.4476e-15
7741.33 8.4238e-15
7742.58 8.4596e-15
7743.83 8.4122e-15
7745.09 8.4474e-15
7746.34 8.4223e-15
7747.59 8.4664e-15
7748.85 8.4054e-15
7750.1 8.4141e-15
7751.35 8.4937e-15
7752.61 8.5489e-15
7753.86 8.3825e-15
7755.11 8.4268e-15
7756.37 8.4224e-15
7757.62 8.4752e-15
7758.87 8.4984e-15
7760.13 8.3379e-15
7761.38 8.3987e-15
7762.63 8.5053e-15
7763.89 8.4718e-15
7765.14 8.4581e-15
7766.39 8.3954e-15
7767.65 8.4116e-15
7768.9 8.4212e-15
7770.15 8.3922e-15
7771.41 8.4096e-15
7772.66 8.4787e-15
7773.92 8.4688e-15
7775.17 8.3997e-15
7776.42 8.3882e-15
7777.68 8.3378e-15
7778.93 8.338e-15
7780.18 8.4442e-15
7781.44 8.5112e-15
7782.69 8.428e-15
7783.94 8.4019e-15
7785.2 8.3853e-15
7786.45 8.369e-15
7787.7 8.3856e-15
7788.96 8.3739e-15
7790.21 8.3307e-15
7791.46 8.3548e-15
7792.72 8.5281e-15
7793.97 8.1667e-15
7795.22 8.246e-15
7796.48 8.5007e-15
7797.73 8.3795e-15
7798.98 8.4102e-15
7800.24 8.3741e-15
7801.49 8.4115e-15
7802.74 8.3547e-15
7804.0 8.3735e-15
7805.25 8.3483e-15
7806.5 8.2224e-15
7807.76 8.309e-15
7809.01 8.2777e-15
7810.26 8.2446e-15
7811.52 8.2926e-15
7812.77 8.2643e-15
7814.02 8.3281e-15
7815.28 8.2951e-15
7816.53 8.312e-15
7817.78 7.6683e-15
7819.04 7.6862e-15
7820.29 7.5957e-15
7821.54 7.4294e-15
7822.8 7.6898e-15
7824.05 8.3868e-15
7825.3 8.4367e-15
7826.56 8.3816e-15
7827.81 8.4508e-15
7829.06 8.0744e-15
7830.32 7.3187e-15
7831.57 7.0267e-15
7832.82 6.9635e-15
7834.08 7.0084e-15
7835.33 7.6527e-15
7836.58 8.1099e-15
7837.84 8.2292e-15
7839.09 8.123e-15
7840.34 8.0705e-15
7841.6 8.2218e-15
7842.85 8.2272e-15
7844.1 8.1395e-15
7845.36 8.1427e-15
7846.61 8.1147e-15
7847.86 8.1181e-15
7849.12 8.2125e-15
7850.37 8.1287e-15
7851.63 8.3208e-15
7852.88 7.9203e-15
7854.13 7.8464e-15
7855.39 8.3138e-15
7856.64 8.1645e-15
7857.89 8.146e-15
7859.15 8.2157e-15
7860.4 8.0981e-15
7861.65 8.0148e-15
7862.91 8.1068e-15
7864.16 8.052e-15
7865.41 7.9618e-15
7866.67 7.9714e-15
7867.92 8.0262e-15
7869.17 7.9323e-15
7870.43 8.0716e-15
7871.68 8.0934e-15
7872.93 7.9291e-15
7874.19 8.0113e-15
7875.44 7.9524e-15
7876.69 7.8652e-15
7877.95 7.9288e-15
7879.2 8.0004e-15
7880.45 8.005e-15
7881.71 7.9188e-15
7882.96 7.9092e-15
7884.21 8.0302e-15
7885.47 7.9033e-15
7886.72 7.8472e-15
7887.97 7.9199e-15
7889.23 7.8592e-15
7890.48 7.7616e-15
7891.73 7.7859e-15
7892.99 7.7875e-15
7894.24 7.7775e-15
7895.49 7.697e-15
7896.75 7.7098e-15
7898.0 7.9003e-15
7899.25 7.8989e-15
7900.51 7.7959e-15
7901.76 7.6191e-15
7903.01 7.7347e-15
7904.27 7.842e-15
7905.52 7.9056e-15
7906.77 7.871e-15
7908.03 7.7485e-15
7909.28 7.6233e-15
7910.53 7.6975e-15
7911.79 7.9744e-15
7913.04 7.6101e-15
7914.29 7.5169e-15
7915.55 7.9892e-15
7916.8 7.7672e-15
7918.05 7.7446e-15
7919.31 7.7847e-15
7920.56 7.7459e-15
7921.81 7.6651e-15
7923.07 7.7656e-15
7924.32 7.6936e-15
7925.57 7.7151e-15
7926.83 7.7776e-15
7928.08 7.6192e-15
7929.34 7.5549e-15
7930.59 7.7325e-15
7931.84 7.0929e-15
7933.1 6.5748e-15
7934.35 6.4563e-15
7935.6 6.4522e-15
7936.86 6.3366e-15
7938.11 6.3374e-15
7939.36 6.5222e-15
7940.62 7.1598e-15
7941.87 7.7297e-15
7943.12 7.7716e-15
7944.38 7.7922e-15
7945.63 7.8257e-15
7946.88 7.813e-15
7948.14 7.812e-15
7949.39 7.7469e-15
7950.64 7.6981e-15
7951.9 7.7675e-15
7953.15 7.8169e-15
7954.4 7.7724e-15
7955.66 7.7333e-15
7956.91 7.7207e-15
7958.16 7.5512e-15
7959.42 7.5277e-15
7960.67 7.4844e-15
7961.92 7.4318e-15
7963.18 7.3738e-15
7964.43 7.5794e-15
7965.68 7.7288e-15
7966.94 7.8725e-15
7968.19 7.6142e-15
7969.44 7.6678e-15
7970.7 7.7805e-15
7971.95 7.7275e-15
7973.2 7.7319e-15
7974.46 7.7546e-15
7975.71 7.7286e-15
7976.96 7.7576e-15
7978.22 7.7117e-15
7979.47 7.7803e-15
7980.72 7.7467e-15
7981.98 7.6876e-15
7983.23 7.7303e-15
7984.48 7.6321e-15
7985.74 7.6235e-15
7986.99 7.7198e-15
7988.24 7.7003e-15
7989.5 7.8009e-15
7990.75 7.7389e-15
7992.0 7.5978e-15
7993.26 7.5256e-15
7994.51 7.5631e-15
7995.76 7.876e-15
7997.02 7.6664e-15
7998.27 7.5431e-15
7999.52 7.5304e-15
8000.78 7.5127e-15
8002.03 7.6762e-15
8003.28 7.7425e-15
8004.54 7.6789e-15
8005.79 7.6425e-15
8007.05 7.4318e-15
8008.3 7.5186e-15
8009.55 7.6918e-15
8010.81 7.6732e-15
8012.06 7.5125e-15
8013.31 7.4725e-15
8014.57 7.5704e-15
8015.82 7.7159e-15
8017.07 7.6283e-15
8018.33 7.6607e-15
8019.58 7.6472e-15
8020.83 7.5751e-15
8022.09 7.5472e-15
8023.34 7.5039e-15
8024.59 7.6901e-15
8025.85 7.4797e-15
8027.1 7.4285e-15
8028.35 7.5915e-15
8029.61 7.544e-15
8030.86 7.6105e-15
8032.11 7.636e-15
8033.37 7.5123e-15
8034.62 7.5288e-15
8035.87 7.4502e-15
8037.13 7.4923e-15
8038.38 7.5884e-15
8039.63 7.55e-15
8040.89 7.5133e-15
8042.14 7.5346e-15
8043.39 7.4906e-15
8044.65 7.4376e-15
8045.9 7.4717e-15
8047.15 7.6055e-15
8048.41 7.6637e-15
8049.66 7.6087e-15
8050.91 7.6463e-15
8052.17 7.5297e-15
8053.42 7.5805e-15
8054.67 7.6358e-15
8055.93 7.5699e-15
8057.18 7.5883e-15
8058.43 7.5926e-15
8059.69 7.5171e-15
8060.94 7.5027e-15
8062.19 7.6232e-15
8063.45 7.5974e-15
8064.7 7.5285e-15
8065.95 7.605e-15
8067.21 7.6688e-15
8068.46 7.6154e-15
8069.71 7.495e-15
8070.97 7.5294e-15
8072.22 7.5351e-15
8073.47 7.5872e-15
8074.73 7.561e-15
8075.98 7.5531e-15
8077.23 7.5369e-15
8078.49 7.4883e-15
8079.74 7.4834e-15
8080.99 7.4922e-15
8082.25 7.5544e-15
8083.5 7.5029e-15
8084.76 7.4592e-15
8086.01 7.4731e-15
8087.26 7.5132e-15
8088.52 7.4881e-15
8089.77 7.4856e-15
8091.02 7.4875e-15
8092.28 7.4189e-15
8093.53 7.423e-15
8094.78 7.4473e-15
8096.04 7.4228e-15
8097.29 7.4014e-15
8098.54 7.3977e-15
8099.8 7.4302e-15
8101.05 7.4867e-15
8102.3 7.4519e-15
8103.56 7.407e-15
8104.81 7.4212e-15
8106.06 7.4196e-15
8107.32 7.3468e-15
8108.57 7.2761e-15
8109.82 7.3658e-15
8111.08 7.3619e-15
8112.33 7.3139e-15
8113.58 7.2834e-15
8114.84 7.4063e-15
8116.09 7.4846e-15
8117.34 7.5112e-15
8118.6 7.3274e-15
8119.85 7.2657e-15
8121.1 7.1083e-15
8122.36 7.0483e-15
8123.61 7.2965e-15
8124.86 7.2742e-15
8126.12 7.1619e-15
8127.37 7.2623e-15
8128.62 7.2503e-15
8129.88 7.106e-15
8131.13 7.0117e-15
8132.38 7.0641e-15
8133.64 6.8091e-15
8134.89 6.7778e-15
8136.14 7.0198e-15
8137.4 7.0673e-15
8138.65 7.0793e-15
8139.9 6.8366e-15
8141.16 6.7748e-15
8142.41 6.8597e-15
8143.66 6.9179e-15
8144.92 6.9781e-15
8146.17 6.875e-15
8147.42 6.6429e-15
8148.68 6.7333e-15
8149.93 6.9126e-15
8151.18 7.1667e-15
8152.44 6.9048e-15
8153.69 6.6226e-15
8154.94 6.6789e-15
8156.2 7.0569e-15
8157.45 6.734e-15
8158.7 6.878e-15
8159.96 6.8668e-15
8161.21 6.3526e-15
8162.47 6.1467e-15
8163.72 6.388e-15
8164.97 6.5421e-15
8166.23 7.0587e-15
8167.48 6.9566e-15
8168.73 6.5224e-15
8169.99 6.5377e-15
8171.24 7.1766e-15
8172.49 7.2266e-15
8173.75 7.0637e-15
8175.0 6.9801e-15
8176.25 6.5124e-15
8177.51 6.017e-15
8178.76 6.1947e-15
8180.01 6.7919e-15
8181.27 6.8889e-15
8182.52 6.8883e-15
8183.77 7.2249e-15
8185.03 7.0886e-15
8186.28 6.8976e-15
8187.53 7.0689e-15
8188.79 6.814e-15
8190.04 6.8339e-15
8191.29 6.9198e-15
8192.55 6.6638e-15
8193.8 6.816e-15
8195.05 7.1171e-15
8196.31 6.7909e-15
8197.56 6.5629e-15
8198.81 6.6329e-15
8200.07 6.6785e-15
8201.32 6.761e-15
8202.57 7.0878e-15
8203.83 7.1138e-15
8205.08 7.1149e-15
8206.33 7.1143e-15
8207.59 7.1047e-15
8208.84 6.9442e-15
8210.09 6.8101e-15
8211.35 6.7049e-15
8212.6 6.8163e-15
8213.85 6.9603e-15
8215.11 6.9407e-15
8216.36 6.8932e-15
8217.61 6.5549e-15
8218.87 6.8006e-15
8220.12 7.0753e-15
8221.37 6.8275e-15
8222.63 6.7647e-15
8223.88 6.6185e-15
8225.13 6.6282e-15
8226.39 6.2467e-15
8227.64 5.5775e-15
8228.89 5.6416e-15
8230.15 6.0578e-15
8231.4 5.9745e-15
8232.65 6.3267e-15
8233.91 6.4846e-15
8235.16 6.548e-15
8236.41 6.6097e-15
8237.67 6.7566e-15
8238.92 6.9053e-15
8240.18 6.7617e-15
8241.43 6.8189e-15
8242.68 6.6241e-15
8243.94 6.6221e-15
8245.19 6.1486e-15
8246.44 6.1413e-15
8247.7 6.0987e-15
8248.95 6.1299e-15
8250.2 6.1468e-15
8251.46 6.297e-15
8252.71 6.2732e-15
8253.96 6.6884e-15
8255.22 6.5854e-15
8256.47 6.3898e-15
8257.72 6.6394e-15
8258.98 6.7015e-15
8260.23 6.7035e-15
8261.48 6.8482e-15
8262.74 6.6789e-15
8263.99 6.7383e-15
8265.24 6.8475e-15
8266.5 7.0025e-15
8267.75 6.9713e-15
8269.0 6.878e-15
8270.26 6.9608e-15
8271.51 6.6629e-15
8272.76 6.4347e-15
8274.02 6.2641e-15
8275.27 6.3185e-15
8276.52 6.3775e-15
8277.78 6.4033e-15
8279.03 6.2713e-15
8280.28 6.3442e-15
8281.54 6.4432e-15
8282.79 6.5074e-15
8284.04 7.0079e-15
8285.3 7.0352e-15
8286.55 6.8046e-15
8287.8 6.3248e-15
8289.06 6.288e-15
8290.31 6.755e-15
8291.56 7.0056e-15
8292.82 6.7019e-15
8294.07 6.3984e-15
8295.32 6.4814e-15
8296.58 6.6648e-15
8297.83 6.9323e-15
8299.08 6.6009e-15
8300.34 6.2759e-15
8301.59 6.5635e-15
8302.84 6.5867e-15
8304.1 6.2052e-15
8305.35 6.1306e-15
8306.6 6.6403e-15
8307.86 6.6746e-15
8309.11 6.788e-15
8310.36 6.8069e-15
8311.62 6.5255e-15
8312.87 6.7879e-15
8314.12 6.7647e-15
8315.38 6.6789e-15
8316.63 6.5135e-15
8317.89 6.3159e-15
8319.14 6.5341e-15
8320.39 6.3985e-15
8321.65 6.1435e-15
8322.9 6.4808e-15
8324.15 6.759e-15
8325.41 6.7313e-15
8326.66 6.6954e-15
8327.91 6.5455e-15
8329.17 6.3709e-15
8330.42 6.4099e-15
8331.67 6.4909e-15
8332.93 6.4784e-15
8334.18 6.5255e-15
8335.43 6.5055e-15
8336.69 6.6513e-15
8337.94 6.4722e-15
8339.19 6.5278e-15
8340.45 6.7939e-15
8341.7 6.852e-15
8342.95 6.5763e-15
8344.21 7.0981e-15
8345.46 7.1823e-15
8346.71 6.5548e-15
8347.97 6.6298e-15
8349.22 6.4569e-15
8350.47 6.51e-15
8351.73 6.5865e-15
8352.98 6.372e-15
8354.23 6.3369e-15
8355.49 6.6006e-15
8356.74 6.3844e-15
8357.99 6.357e-15
8359.25 6.5711e-15
8360.5 6.6718e-15
8361.75 6.5586e-15
8363.01 6.5481e-15
8364.26 6.7417e-15
8365.51 6.792e-15
8366.77 6.5861e-15
8368.02 6.6109e-15
8369.27 6.7513e-15
8370.53 6.6555e-15
8371.78 6.715e-15
8373.03 6.6092e-15
8374.29 6.5288e-15
8375.54 6.5178e-15
8376.79 6.4677e-15
8378.05 6.5386e-15
8379.3 6.62e-15
8380.55 6.5769e-15
8381.81 6.714e-15
8383.06 6.739e-15
8384.31 6.5369e-15
8385.57 6.5479e-15
8386.82 6.6065e-15
8388.07 6.6989e-15
8389.33 6.8144e-15
8390.58 6.774e-15
8391.83 6.8173e-15
8393.09 6.7535e-15
8394.34 6.6709e-15
8395.6 6.8661e-15
8396.85 6.716e-15
8398.1 6.8418e-15
8399.36 6.8449e-15
8400.61 6.6055e-15
8401.86 6.5855e-15
8403.12 6.6512e-15
8404.37 6.66e-15
8405.62 6.5931e-15
8406.88 6.6201e-15
8408.13 6.5341e-15
8409.38 6.473e-15
8410.64 6.633e-15
8411.89 6.703e-15
8413.14 6.7508e-15
8414.4 6.6816e-15
8415.65 6.5244e-15
8416.9 6.5853e-15
8418.16 6.6452e-15
8419.41 6.626e-15
8420.66 6.7313e-15
8421.92 6.6915e-15
8423.17 6.6894e-15
8424.42 6.7474e-15
8425.68 6.7282e-15
8426.93 6.6808e-15
8428.18 6.8973e-15
8429.44 6.761e-15
8430.69 7.0694e-15
8431.94 6.8654e-15
8433.2 6.6188e-15
8434.45 6.5684e-15
8435.7 6.5614e-15
8436.96 6.5571e-15
8438.21 6.5261e-15
8439.46 6.5823e-15
8440.72 6.6908e-15
8441.97 6.666e-15
8443.22 6.6695e-15
8444.48 6.7468e-15
8445.73 6.6594e-15
8446.98 6.688e-15
8448.24 6.7158e-15
8449.49 6.7106e-15
8450.74 6.7111e-15
8452.0 6.6074e-15
8453.25 6.5562e-15
8454.5 6.5343e-15
8455.76 6.5626e-15
8457.01 6.5353e-15
8458.26 6.5553e-15
8459.52 6.5543e-15
8460.77 6.4955e-15
8462.02 6.5437e-15
8463.28 6.7473e-15
8464.53 6.5689e-15
8465.78 6.6283e-15
8467.04 6.818e-15
8468.29 6.7452e-15
8469.54 6.7187e-15
8470.8 6.6954e-15
8472.05 6.7064e-15
8473.31 6.6789e-15
8474.56 6.6493e-15
8475.81 6.6271e-15
8477.07 6.5865e-15
8478.32 6.5132e-15
8479.57 6.4882e-15
8480.83 6.5376e-15
8482.08 6.5791e-15
8483.33 6.6051e-15
8484.59 6.6067e-15
8485.84 6.5993e-15
8487.09 6.586e-15
8488.35 6.5699e-15
8489.6 6.587e-15
8490.85 6.5144e-15
8492.11 6.4742e-15
8493.36 6.5795e-15
8494.61 6.62e-15
8495.87 6.5522e-15
8497.12 6.5926e-15
8498.37 6.5882e-15
8499.63 6.5731e-15
8500.88 6.6167e-15
8502.13 6.5526e-15
8503.39 6.631e-15
8504.64 6.5196e-15
8505.89 6.5393e-15
8507.15 6.5365e-15
8508.4 6.519e-15
8509.65 6.5441e-15
8510.91 6.5348e-15
8512.16 6.406e-15
8513.41 6.5015e-15
8514.67 6.5194e-15
8515.92 6.4686e-15
8517.17 6.5202e-15
8518.43 6.4807e-15
8519.68 6.4974e-15
8520.93 6.4692e-15
8522.19 6.4759e-15
8523.44 6.5132e-15
8524.69 6.5337e-15
8525.95 6.5089e-15
8527.2 6.5019e-15
8528.45 6.4487e-15
8529.71 6.4513e-15
8530.96 6.423e-15
8532.21 6.4692e-15
8533.47 6.4785e-15
8534.72 6.4823e-15
8535.97 6.4029e-15
8537.23 6.4723e-15
8538.48 6.4526e-15
8539.73 6.4069e-15
8540.99 6.4649e-15
8542.24 6.4292e-15
8543.49 6.4297e-15
8544.75 6.4345e-15
8546.0 6.4442e-15
8547.25 6.4712e-15
8548.51 6.4756e-15
8549.76 6.4662e-15
8551.02 6.4681e-15
8552.27 6.4418e-15
8553.52 6.4237e-15
8554.78 6.3771e-15
8556.03 6.4592e-15
8557.28 6.4268e-15
8558.54 6.4492e-15
8559.79 6.4784e-15
8561.04 6.4469e-15
8562.3 6.4152e-15
8563.55 6.4127e-15
8564.8 6.4457e-15
8566.06 6.343e-15
8567.31 6.7314e-15
8568.56 6.4657e-15
8569.82 6.355e-15
8571.07 6.3845e-15
8572.32 6.3708e-15
8573.58 6.3277e-15
8574.83 6.3416e-15
8576.08 6.3288e-15
8577.34 6.387e-15
8578.59 6.4644e-15
8579.84 6.4294e-15
8581.1 6.3519e-15
8582.35 6.3886e-15
8583.6 6.3935e-15
8584.86 6.3745e-15
8586.11 6.4098e-15
8587.36 6.3856e-15
8588.62 6.4296e-15
8589.87 6.371e-15
8591.12 6.3288e-15
8592.38 6.3227e-15
8593.63 6.3239e-15
8594.88 6.3152e-15
8596.14 6.3598e-15
8597.39 6.3714e-15
8598.64 6.4037e-15
8599.9 6.3819e-15
8601.15 6.2937e-15
8602.4 6.3082e-15
8603.66 6.351e-15
8604.91 6.3298e-15
8606.16 6.2857e-15
8607.42 6.2896e-15
8608.67 6.2725e-15
8609.92 6.251e-15
8611.18 6.2062e-15
8612.43 6.2241e-15
8613.68 6.2529e-15
8614.94 6.2239e-15
8616.19 6.3173e-15
8617.44 6.3168e-15
8618.7 6.2816e-15
8619.95 6.271e-15
8621.2 6.2788e-15
8622.46 6.2876e-15
8623.71 6.3832e-15
8624.96 6.4425e-15
8626.22 6.358e-15
8627.47 6.2805e-15
8628.73 6.2916e-15
8629.98 6.2674e-15
8631.23 6.2363e-15
8632.49 6.1858e-15
8633.74 6.1955e-15
8634.99 6.1318e-15
8636.25 6.1531e-15
8637.5 6.1508e-15
8638.75 6.1549e-15
8640.01 6.1382e-15
8641.26 6.1801e-15
8642.51 6.2934e-15
8643.77 6.2684e-15
8645.02 6.2759e-15
8646.27 6.3361e-15
8647.53 6.3193e-15
8648.78 6.2908e-15
8650.03 6.2663e-15
8651.29 6.2572e-15
8652.54 6.2513e-15
8653.79 6.2232e-15
8655.05 6.2146e-15
8656.3 6.1225e-15
8657.55 6.0846e-15
8658.81 6.0645e-15
8660.06 6.0535e-15
8661.31 6.07e-15
8662.57 6.1231e-15
8663.82 6.1732e-15
8665.07 6.1953e-15
8666.33 6.3016e-15
8667.58 6.3374e-15
8668.83 6.2722e-15
8670.09 6.251e-15
8671.34 6.2839e-15
8672.59 6.1891e-15
8673.85 6.1864e-15
8675.1 6.154e-15
8676.35 6.1981e-15
8677.61 6.2057e-15
8678.86 6.1018e-15
8680.11 6.1885e-15
8681.37 6.1998e-15
8682.62 6.1737e-15
8683.87 6.1823e-15
8685.13 6.1407e-15
8686.38 6.0811e-15
8687.63 6.016e-15
8688.89 6.0593e-15
8690.14 6.0313e-15
8691.39 6.0636e-15
8692.65 6.1362e-15
8693.9 6.0988e-15
8695.15 6.1469e-15
8696.41 6.1375e-15
8697.66 6.1206e-15
8698.91 6.205e-15
8700.17 6.1638e-15
8701.42 6.1551e-15
8702.67 6.1913e-15
8703.93 6.1854e-15
8705.18 6.1627e-15
8706.44 6.0745e-15
8707.69 6.0333e-15
8708.94 5.9914e-15
8710.2 5.9832e-15
8711.45 6.0003e-15
8712.7 6.0014e-15
8713.96 6.0303e-15
8715.21 6.0332e-15
8716.46 6.0052e-15
8717.72 6.0722e-15
8718.97 6.1486e-15
8720.22 6.1577e-15
8721.48 6.1395e-15
8722.73 6.086e-15
8723.98 6.1388e-15
8725.24 6.1583e-15
8726.49 6.1208e-15
8727.74 6.0889e-15
8729.0 6.0533e-15
8730.25 6.0211e-15
8731.5 6.0069e-15
8732.76 5.946e-15
8734.01 5.9554e-15
8735.26 5.9917e-15
8736.52 5.9245e-15
8737.77 5.9512e-15
8739.02 5.9584e-15
8740.28 6.0248e-15
8741.53 6.0424e-15
8742.78 6.0545e-15
8744.04 6.0389e-15
8745.29 6.0912e-15
8746.54 6.0504e-15
8747.8 5.9709e-15
8749.05 5.9923e-15
8750.3 6.0002e-15
8751.56 5.9346e-15
8752.81 5.9385e-15
8754.06 5.9947e-15
8755.32 5.9623e-15
8756.57 6.018e-15
8757.82 5.975e-15
8759.08 5.9254e-15
8760.33 5.9639e-15
8761.58 5.9339e-15
8762.84 5.8411e-15
8764.09 5.9024e-15
8765.34 5.8909e-15
8766.6 5.9276e-15
8767.85 6.1412e-15
8769.1 6.0183e-15
8770.36 5.8671e-15
8771.61 5.8309e-15
8772.86 5.8481e-15
8774.12 5.863e-15
8775.37 5.8444e-15
8776.62 5.7973e-15
8777.88 6.1011e-15
8779.13 6.0686e-15
8780.38 5.8998e-15
8781.64 5.9487e-15
8782.89 5.9668e-15
8784.15 5.9002e-15
8785.4 5.829e-15
8786.65 5.8408e-15
8787.91 5.8526e-15
8789.16 5.8099e-15
8790.41 5.859e-15
8791.67 5.8855e-15
8792.92 5.8299e-15
8794.17 5.8549e-15
8795.43 5.8223e-15
8796.68 5.8585e-15
8797.93 5.8838e-15
8799.19 5.8507e-15
8800.44 5.8496e-15
8801.69 5.8086e-15
8802.95 5.8379e-15
8804.2 5.7812e-15
8805.45 5.8205e-15
8806.71 5.8368e-15
8807.96 5.8616e-15
8809.21 5.8506e-15
8810.47 5.7926e-15
8811.72 5.7407e-15
8812.97 5.7049e-15
8814.23 5.7502e-15
8815.48 5.657e-15
8816.73 5.7272e-15
8817.99 5.6778e-15
8819.24 5.6577e-15
8820.49 5.6406e-15
8821.75 5.6712e-15
8823.0 5.6781e-15
8824.25 5.712e-15
8825.51 5.6179e-15
8826.76 5.9388e-15
8828.01 6.1567e-15
8829.27 6.0748e-15
8830.52 5.7911e-15
8831.77 5.6737e-15
8833.03 5.6626e-15
8834.28 5.5858e-15
8835.53 5.7364e-15
8836.79 5.7553e-15
8838.04 5.6039e-15
8839.29 5.6132e-15
8840.55 5.6432e-15
8841.8 5.674e-15
8843.05 5.6742e-15
8844.31 5.6894e-15
8845.56 5.7552e-15
8846.81 5.8144e-15
8848.07 5.7441e-15
8849.32 5.6781e-15
8850.57 5.6778e-15
8851.83 5.6093e-15
8853.08 5.6536e-15
8854.33 5.6804e-15
8855.59 5.6302e-15
8856.84 5.5637e-15
8858.09 5.4237e-15
8859.35 5.4376e-15
8860.6 5.4982e-15
8861.86 5.504e-15
8863.11 5.497e-15
8864.36 5.4757e-15
8865.62 5.4332e-15
8866.87 5.5071e-15
8868.12 5.5615e-15
8869.38 5.5771e-15
8870.63 5.5464e-15
8871.88 5.5726e-15
8873.14 5.6097e-15
8874.39 5.5366e-15
8875.64 5.5339e-15
8876.9 5.5626e-15
8878.15 5.4597e-15
8879.4 5.3996e-15
8880.66 5.3686e-15
8881.91 5.3684e-15
8883.16 5.3519e-15
8884.42 5.4357e-15
8885.67 4.7999e-15
8886.92 5.1328e-15
8888.18 5.507e-15
8889.43 5.3943e-15
8890.68 5.4229e-15
8891.94 5.6631e-15
8893.19 6.0833e-15
8894.44 5.5789e-15
8895.7 5.4215e-15
8896.95 5.5087e-15
8898.2 5.4544e-15
8899.46 5.4225e-15
8900.71 5.5336e-15
8901.96 5.5896e-15
8903.22 5.4991e-15
8904.47 5.4946e-15
8905.72 5.3992e-15
8906.98 5.3402e-15
8908.23 5.3527e-15
8909.48 5.3846e-15
8910.74 5.3786e-15
8911.99 5.2806e-15
8913.24 5.244e-15
8914.5 5.2597e-15
8915.75 5.2541e-15
8917.0 5.2363e-15
8918.26 5.2021e-15
8919.51 5.5256e-15
8920.76 5.4084e-15
8922.02 5.3865e-15
8923.27 5.416e-15
8924.52 5.4508e-15
8925.78 5.4256e-15
8927.03 5.3598e-15
8928.28 5.2288e-15
8929.54 5.0557e-15
8930.79 5.0997e-15
8932.04 5.2265e-15
8933.3 5.1167e-15
8934.55 5.0912e-15
8935.8 5.0973e-15
8937.06 5.2964e-15
8938.31 5.173e-15
8939.57 5.1055e-15
8940.82 5.0311e-15
8942.07 5.1897e-15
8943.33 5.0167e-15
8944.58 5.103e-15
8945.83 5.0013e-15
8947.09 4.9209e-15
8948.34 5.0855e-15
8949.59 5.1804e-15
8950.85 5.1974e-15
8952.1 4.9906e-15
8953.35 4.8587e-15
8954.61 4.7567e-15
8955.86 5.1595e-15
8957.11 5.4106e-15
8958.37 5.2071e-15
8959.62 5.1617e-15
8960.87 5.0104e-15
8962.13 4.5085e-15
8963.38 4.4767e-15
8964.63 4.612e-15
8965.89 4.4665e-15
8967.14 4.8441e-15
8968.39 5.0754e-15
8969.65 4.8911e-15
8970.9 4.5102e-15
8972.15 4.4662e-15
8973.41 4.7025e-15
8974.66 4.6417e-15
8975.91 4.8657e-15
8977.17 5.0699e-15
8978.42 5.1663e-15
8979.67 4.8357e-15
8980.93 4.6519e-15
8982.18 5.0131e-15
8983.43 5.1799e-15
8984.69 4.9802e-15
8985.94 4.4329e-15
8987.19 3.8536e-15
8988.45 3.9088e-15
8989.7 4.1574e-15
8990.95 3.8726e-15
8992.21 4.2642e-15
8993.46 5.0508e-15
8994.71 5.1569e-15
8995.97 5.1154e-15
8997.22 5.2759e-15
8998.47 5.1421e-15
8999.73 4.8344e-15
9000.98 4.7892e-15
9002.23 4.8593e-15
9003.49 4.5641e-15
9004.74 4.9973e-15
9005.99 5.1255e-15
9007.25 4.7959e-15
9008.5 4.9305e-15
9009.75 5.2316e-15
9011.01 4.9526e-15
9012.26 4.8454e-15
9013.51 5.2423e-15
9014.77 5.1159e-15
9016.02 4.5964e-15
9017.28 4.6239e-15
9018.53 5.1089e-15
9019.78 5.0812e-15
9021.04 4.9417e-15
9022.29 4.6433e-15
9023.54 4.8799e-15
9024.8 4.8847e-15
9026.05 4.738e-15
9027.3 5.254e-15
9028.56 5.3296e-15
9029.81 5.1142e-15
9031.06 5.0015e-15
9032.32 5.0486e-15
9033.57 5.0995e-15
9034.82 5.0234e-15
9036.08 4.9424e-15
9037.33 4.7841e-15
9038.58 4.3544e-15
9039.84 4.1674e-15
9041.09 3.9202e-15
9042.34 3.6897e-15
9043.6 4.1375e-15
9044.85 4.8452e-15
9046.1 5.0845e-15
9047.36 5.0621e-15
9048.61 5.0725e-15
9049.86 5.0862e-15
9051.12 5.0016e-15
9052.37 4.7803e-15
9053.62 4.8319e-15
9054.88 5.1507e-15
9056.13 5.1072e-15
9057.38 5.1224e-15
9058.64 5.0348e-15
9059.89 4.7361e-15
9061.14 4.5025e-15
9062.4 4.4255e-15
9063.65 4.4779e-15
9064.9 4.6472e-15
9066.16 4.7128e-15
9067.41 4.7193e-15
9068.66 4.3075e-15
9069.92 4.4609e-15
9071.17 4.588e-15
9072.42 4.4414e-15
9073.68 4.7209e-15
9074.93 4.9026e-15
9076.18 5.0815e-15
9077.44 4.9843e-15
9078.69 4.5309e-15
9079.94 4.1281e-15
9081.2 4.3331e-15
9082.45 4.7709e-15
9083.7 5.0539e-15
9084.96 4.7386e-15
9086.21 4.2332e-15
9087.46 4.2908e-15
9088.72 4.8736e-15
9089.97 4.8088e-15
9091.22 4.7339e-15
9092.48 4.4954e-15
9093.73 4.4274e-15
9094.99 4.7082e-15
9096.24 4.8658e-15
9097.49 4.8314e-15
9098.75 4.4686e-15
9100.0 4.1948e-15
9101.25 4.7781e-15
9102.51 5.0715e-15
9103.76 5.0417e-15
9105.01 4.6376e-15
9106.27 4.3447e-15
9107.52 4.2118e-15
9108.77 4.5788e-15
9110.03 4.9979e-15
9111.28 5.082e-15
9112.53 4.9603e-15
9113.79 4.9483e-15
9115.04 4.7844e-15
9116.29 4.5235e-15
9117.55 4.0693e-15
9118.8 3.9622e-15
9120.05 4.6807e-15
9121.31 4.9952e-15
9122.56 5.0464e-15
9123.81 4.947e-15
9125.07 4.8304e-15
9126.32 4.9716e-15
9127.57 4.7162e-15
9128.83 4.3512e-15
9130.08 4.1256e-15
9131.33 4.4584e-15
9132.59 4.6599e-15
9133.84 4.4713e-15
9135.09 3.9447e-15
9136.35 3.6705e-15
9137.6 4.3168e-15
9138.85 4.8652e-15
9140.11 4.794e-15
9141.36 4.8037e-15
9142.61 4.7155e-15
9143.87 4.6214e-15
9145.12 4.7517e-15
9146.37 4.9529e-15
9147.63 4.945e-15
9148.88 4.7644e-15
9150.13 4.4716e-15
9151.39 4.1101e-15
9152.64 3.714e-15
9153.89 4.0949e-15
9155.15 4.0361e-15
9156.4 4.15e-15
9157.65 4.7547e-15
9158.91 4.7629e-15
9160.16 4.51e-15
9161.41 4.6298e-15
9162.67 4.7661e-15
9163.92 4.7647e-15
9165.17 4.874e-15
9166.43 4.8204e-15
9167.68 4.5249e-15
9168.93 4.551e-15
9170.19 4.6329e-15
9171.44 4.5355e-15
9172.7 4.1386e-15
9173.95 3.7612e-15
9175.2 3.8552e-15
9176.46 4.1908e-15
9177.71 4.3424e-15
9178.96 4.6009e-15
9180.22 4.7344e-15
9181.47 4.6538e-15
9182.72 4.5113e-15
9183.98 4.2288e-15
9185.23 4.2589e-15
9186.48 4.7652e-15
9187.74 4.7967e-15
9188.99 4.7956e-15
9190.24 4.7299e-15
9191.5 4.5977e-15
9192.75 4.5529e-15
9194.0 4.4373e-15
9195.26 4.0595e-15
9196.51 4.0956e-15
9197.76 4.6222e-15
9199.02 4.761e-15
9200.27 4.8402e-15
9201.52 4.9293e-15
9202.78 4.8761e-15
9204.03 4.8284e-15
9205.28 4.7051e-15
9206.54 4.6122e-15
9207.79 4.5191e-15
9209.04 4.6359e-15
9210.3 4.8082e-15
9211.55 4.7455e-15
9212.8 4.5623e-15
9214.06 4.399e-15
9215.31 4.3225e-15
9216.56 4.2438e-15
9217.82 4.2723e-15
9219.07 4.7424e-15
9220.32 4.9046e-15
9221.58 4.7922e-15
9222.83 4.7144e-15
9224.08 4.6231e-15
9225.34 4.4699e-15
9226.59 4.6048e-15
9227.84 4.692e-15
9229.1 4.5954e-15
9230.35 4.5034e-15
9231.6 4.5017e-15
9232.86 4.5635e-15
9234.11 4.5091e-15
9235.36 4.3774e-15
9236.62 4.5107e-15
9237.87 4.439e-15
9239.12 4.3666e-15
9240.38 4.494e-15
9241.63 4.7514e-15
9242.88 4.6421e-15
9244.14 4.412e-15
9245.39 4.256e-15
9246.64 4.4e-15
9247.9 4.6164e-15
9249.15 4.5141e-15
9250.41 4.2848e-15
9251.66 4.2568e-15
9252.91 4.4813e-15
9254.17 4.5431e-15
9255.42 4.5968e-15
9256.67 4.8121e-15
9257.93 4.7775e-15
9259.18 4.5632e-15
9260.43 4.1917e-15
9261.69 4.3155e-15
9262.94 4.537e-15
9264.19 4.7033e-15
9265.45 4.7754e-15
9266.7 4.795e-15
9267.95 4.7378e-15
9269.21 4.657e-15
9270.46 4.5771e-15
9271.71 4.5779e-15
9272.97 4.2108e-15
9274.22 4.2341e-15
9275.47 4.357e-15
9276.73 4.2227e-15
9277.98 3.7964e-15
9279.23 3.5458e-15
9280.49 3.9425e-15
9281.74 4.3511e-15
9282.99 4.4086e-15
9284.25 3.9968e-15
9285.5 3.6949e-15
9286.75 3.8539e-15
9288.01 3.9625e-15
9289.26 4.0675e-15
9290.51 4.1465e-15
9291.77 3.9842e-15
9293.02 3.8914e-15
9294.27 3.6457e-15
9295.53 3.6205e-15
9296.78 3.6111e-15
