# wavelength flux
3300.0 4.944082742839922e-14
3301.0 4.9435587559089914e-14
3302.0 4.943034618841833e-14
3303.0 4.9425103316390616e-14
3304.0 4.941985894301333e-14
3305.0 4.9414613068293383e-14
3306.0 4.940936569223809e-14
3307.0 4.940411681485513e-14
3308.0 4.939886643615254e-14
3309.0 4.939361455613876e-14
3310.0 4.9388361174822605e-14
3311.0 4.9383106292213254e-14
3312.0 4.9377849908320285e-14
3313.0 4.9372592023153644e-14
3314.0 4.9367332636723636e-14
3315.0 4.936207174904099e-14
3316.0 4.9356809360116774e-14
3317.0 4.9351545469962457e-14
3318.0 4.934628007858988e-14
3319.0 4.934101318601125e-14
3320.0 4.933574479223919e-14
3321.0 4.933047489728668e-14
3322.0 4.932520350116708e-14
3323.0 4.931993060389412e-14
3324.0 4.9314656205481953e-14
3325.0 4.930938030594505e-14
3326.0 4.9304102905298335e-14
3327.0 4.929882400355705e-14
3328.0 4.9293543600736843e-14
3329.0 4.928826169685377e-14
3330.0 4.9282978291924244e-14
3331.0 4.9277693385965046e-14
3332.0 4.927240697899336e-14
3333.0 4.9267119071026754e-14
3334.0 4.926182966208317e-14
3335.0 4.925653875218096e-14
3336.0 4.92512463413388e-14
3337.0 4.9245952429575804e-14
3338.0 4.9240657016911457e-14
3339.0 4.923536010336562e-14
3340.0 4.923006168895855e-14
3341.0 4.922476177371087e-14
3342.0 4.921946035764359e-14
3343.0 4.9214157440778134e-14
3344.0 4.920885302313629e-14
3345.0 4.920354710474022e-14
3346.0 4.919823968561248e-14
3347.0 4.9192930765776026e-14
3348.0 4.9187620345254185e-14
3349.0 4.918230842407068e-14
3350.0 4.9176995002249613e-14
3351.0 4.9171680079815477e-14
3352.0 4.916636365679313e-14
3353.0 4.916104573320786e-14
3354.0 4.915572630908531e-14
3355.0 4.915040538445153e-14
3356.0 4.9145082959332926e-14
3357.0 4.9139759033756335e-14
3358.0 4.913443360774895e-14
3359.0 4.9129106681338367e-14
3360.0 4.9123778254552563e-14
3361.0 4.911844832741989e-14
3362.0 4.911311689996913e-14
3363.0 4.9107783972229427e-14
3364.0 4.91024495442303e-14
3365.0 4.909711361600169e-14
3366.0 4.9091776187573905e-14
3367.0 4.908643725897766e-14
3368.0 4.908109683024405e-14
3369.0 4.9075754901404546e-14
3370.0 4.9070411472491023e-14
3371.0 4.9065066543535777e-14
3372.0 4.905972011457144e-14
3373.0 4.905437218563108e-14
3374.0 4.904902275674812e-14
3375.0 4.9043671827956404e-14
3376.0 4.9038319399290143e-14
3377.0 4.9032965470783974e-14
3378.0 4.902761004247289e-14
3379.0 4.90222531143923e-14
3380.0 4.9016894686577976e-14
3381.0 4.901153475906614e-14
3382.0 4.900617333189335e-14
3383.0 4.900081040509659e-14
3384.0 4.8995445978713206e-14
3385.0 4.8990080052780985e-14
3386.0 4.8984712627338063e-14
3387.0 4.897934370242299e-14
3388.0 4.8973973278074715e-14
3389.0 4.896860135433256e-14
3390.0 4.8963227931236263e-14
3391.0 4.895785300882596e-14
3392.0 4.8952476587142165e-14
3393.0 4.89470986662258e-14
3394.0 4.8941719246118156e-14
3395.0 4.893633832686098e-14
3396.0 4.893095590849635e-14
3397.0 4.892557199106676e-14
3398.0 4.892018657461511e-14
3399.0 4.89147996591847e-14
3400.0 4.8909411244819216e-14
3401.0 4.890402133156274e-14
3402.0 4.8898629919459775e-14
3403.0 4.889323700855517e-14
3404.0 4.8887842598894217e-14
3405.0 4.888244669052261e-14
3406.0 4.887704928348641e-14
3407.0 4.887165037783208e-14
3408.0 4.886624997360649e-14
3409.0 4.886084807085692e-14
3410.0 4.885544466963103e-14
3411.0 4.885003976997689e-14
3412.0 4.884463337194297e-14
3413.0 4.8839225475578135e-14
3414.0 4.883381608093163e-14
3415.0 4.8828405188053145e-14
3416.0 4.8822992796992734e-14
3417.0 4.881757890780086e-14
3418.0 4.881216352052838e-14
3419.0 4.8806746635226566e-14
3420.0 4.8801328251947095e-14
3421.0 4.8795908370742016e-14
3422.0 4.879048699166382e-14
3423.0 4.878506411476536e-14
3424.0 4.877963974009989e-14
3425.0 4.877421386772111e-14
3426.0 4.876878649768309e-14
3427.0 4.8763357630040297e-14
3428.0 4.875792726484761e-14
3429.0 4.875249540216033e-14
3430.0 4.874706204203414e-14
3431.0 4.874162718452509e-14
3432.0 4.87361908296897e-14
3433.0 4.873075297758486e-14
3434.0 4.872531362826786e-14
3435.0 4.8719872781796413e-14
3436.0 4.871443043822863e-14
3437.0 4.8708986597623005e-14
3438.0 4.8703541260038446e-14
3439.0 4.869809442553428e-14
3440.0 4.869264609417023e-14
3441.0 4.868719626600642e-14
3442.0 4.868174494110339e-14
3443.0 4.867629211952206e-14
3444.0 4.8670837801323806e-14
3445.0 4.866538198657035e-14
3446.0 4.865992467532386e-14
3447.0 4.8654465867646883e-14
3448.0 4.864900556360239e-14
3449.0 4.864354376325377e-14
3450.0 4.863808046666479e-14
3451.0 4.863261567389965e-14
3452.0 4.8627149385022926e-14
3453.0 4.862168160009962e-14
3454.0 4.861621231919516e-14
3455.0 4.861074154237536e-14
3456.0 4.8605269269706426e-14
3457.0 4.859979550125501e-14
3458.0 4.859432023708815e-14
3459.0 4.858884347727329e-14
3460.0 4.858336522187829e-14
3461.0 4.857788547097141e-14
3462.0 4.857240422462134e-14
3463.0 4.856692148289714e-14
3464.0 4.856143724586835e-14
3465.0 4.855595151360483e-14
3466.0 4.8550464286176923e-14
3467.0 4.854497556365533e-14
3468.0 4.853948534611119e-14
3469.0 4.853399363361606e-14
3470.0 4.852850042624191e-14
3471.0 4.8523005724061056e-14
3472.0 4.851750952714632e-14
3473.0 4.851201183557085e-14
3474.0 4.850651264940829e-14
3475.0 4.8501011968732623e-14
3476.0 4.84955097936183e-14
3477.0 4.849000612414012e-14
3478.0 4.848450096037333e-14
3479.0 4.847899430239361e-14
3480.0 4.8473486150277035e-14
3481.0 4.846797650410007e-14
3482.0 4.846246536393964e-14
3483.0 4.8456952729873007e-14
3484.0 4.8451438601977943e-14
3485.0 4.844592298033256e-14
3486.0 4.844040586501541e-14
3487.0 4.843488725610548e-14
3488.0 4.8429367153682103e-14
3489.0 4.842384555782511e-14
3490.0 4.84183224686147e-14
3491.0 4.8412797886131494e-14
3492.0 4.840727181045652e-14
3493.0 4.840174424167124e-14
3494.0 4.8396215179857504e-14
3495.0 4.839068462509762e-14
3496.0 4.8385152577474264e-14
3497.0 4.837961903707055e-14
3498.0 4.8374084003970024e-14
3499.0 4.836854747825662e-14
3500.0 4.83630094600147e-14
3501.0 4.835746994932904e-14
3501.02 3.6039e-14
3502.76 3.5316e-14
3504.5 3.5026e-14
3506.24 3.464e-14
3507.98 3.4421e-14
3509.71 3.4686e-14
3511.45 3.4625e-14
3513.19 3.5328e-14
3514.93 3.5642e-14
3516.67 3.564e-14
3518.41 3.5928e-14
3520.15 3.6785e-14
3521.89 3.602e-14
3523.63 3.6156e-14
3525.36 3.7439e-14
3527.1 3.6993e-14
3528.84 3.7215e-14
3530.58 3.8063e-14
3532.32 3.8668e-14
3534.06 3.8456e-14
3535.8 3.8415e-14
3537.54 3.8718e-14
3539.28 3.9214e-14
3541.01 3.8989e-14
3542.75 3.9718e-14
3544.49 3.9599e-14
3546.23 4.0558e-14
3547.97 4.032e-14
3549.71 4.0304e-14
3551.45 4.093e-14
3553.19 4.0536e-14
3554.92 4.1285e-14
3556.66 4.1817e-14
3558.4 4.0924e-14
3560.14 4.0954e-14
3561.88 4.1359e-14
3563.62 4.1585e-14
3565.36 4.0754e-14
3567.1 4.0467e-14
3568.84 4.0959e-14
3570.57 4.1115e-14
3572.31 4.0845e-14
3574.05 4.1133e-14
3575.79 4.1446e-14
3577.53 4.1682e-14
3579.27 4.2067e-14
3581.01 4.1595e-14
3582.75 4.1183e-14
3584.49 4.1765e-14
3586.22 4.1625e-14
3587.96 4.0869e-14
3589.7 4.0778e-14
3591.44 4.0581e-14
3593.18 4.0005e-14
3594.92 4.0112e-14
3596.66 3.9951e-14
3598.4 3.9465e-14
3600.13 3.8987e-14
3601.87 3.8733e-14
3603.61 3.8401e-14
3605.35 3.8215e-14
3607.09 3.7766e-14
3608.83 3.7881e-14
3610.57 3.7225e-14
3612.31 3.7313e-14
3614.05 3.7035e-14
3615.78 3.6539e-14
3617.52 3.7184e-14
3619.26 3.6502e-14
3621.0 3.6538e-14
3622.74 3.6699e-14
3624.48 3.6311e-14
3626.22 3.5642e-14
3627.96 3.5899e-14
3629.7 3.5462e-14
3631.43 3.5453e-14
3633.17 3.5363e-14
3634.91 3.5535e-14
3636.65 3.454e-14
3638.39 3.4765e-14
3640.13 3.4654e-14
3641.87 3.4724e-14
3643.61 3.5129e-14
3645.34 3.5049e-14
3647.08 3.5548e-14
3648.82 3.5558e-14
3650.56 3.5047e-14
3652.3 3.5695e-14
3654.04 3.5566e-14
3655.78 3.6104e-14
3657.52 3.6012e-14
3659.26 3.6136e-14
3660.99 3.576e-14
3662.73 3.5575e-14
3664.47 3.6076e-14
3666.21 3.6679e-14
3667.95 3.7472e-14
3669.69 3.8209e-14
3671.43 3.8726e-14
3673.17 3.9253e-14
3674.91 3.9723e-14
3676.64 3.9576e-14
3678.38 4.0248e-14
3680.12 4.0483e-14
3681.86 4.1013e-14
3683.6 4.1636e-14
3685.34 4.2125e-14
3687.08 4.3227e-14
3688.82 4.4487e-14
3690.55 4.4957e-14
3692.29 4.6379e-14
3694.03 4.7303e-14
3695.77 4.774e-14
3697.51 4.7653e-14
3699.25 4.8431e-14
3700.99 4.9647e-14
3702.73 5.0535e-14
3704.47 5.1314e-14
3706.2 5.1413e-14
3707.94 5.2148e-14
3709.68 5.2532e-14
3711.42 5.3257e-14
3713.16 5.4087e-14
3714.9 5.3723e-14
3716.64 5.4193e-14
3718.38 5.4257e-14
3720.12 5.4609e-14
3721.85 5.4943e-14
3723.59 5.4885e-14
3725.33 5.5205e-14
3727.07 5.546e-14
3728.81 5.4736e-14
3730.55 5.4352e-14
3732.29 5.4179e-14
3734.03 5.3667e-14
3735.76 5.3579e-14
3737.5 5.242e-14
3739.24 5.2077e-14
3740.98 5.1663e-14
3742.72 5.1421e-14
3744.46 5.0106e-14
3746.2 4.981e-14
3747.94 4.9367e-14
3749.68 4.9156e-14
3751.41 4.8814e-14
3753.15 4.8225e-14
3754.89 4.7687e-14
3756.63 4.7088e-14
3758.37 4.6738e-14
3760.11 4.5593e-14
3761.85 4.5342e-14
3763.59 4.4836e-14
3765.33 4.4345e-14
3767.06 4.3899e-14
3768.8 4.2928e-14
3770.54 4.2137e-14
3772.28 4.2212e-14
3774.02 4.1472e-14
3775.76 4.068e-14
3777.5 4.0784e-14
3779.24 4.1219e-14
3780.97 4.0852e-14
3782.71 4.0196e-14
3784.45 3.9827e-14
3786.19 3.9551e-14
3787.93 3.9573e-14
3789.67 3.9428e-14
3791.41 3.9226e-14
3793.15 3.8757e-14
3794.89 3.8767e-14
3796.62 3.8723e-14
3798.36 3.8519e-14
3800.1 3.8312e-14
3801.84 3.7984e-14
3803.58 3.6704e-14
3805.32 3.6647e-14
3807.06 3.6835e-14
3808.8 3.6464e-14
3810.54 3.7098e-14
3812.27 3.694e-14
3814.01 3.6603e-14
3815.75 3.7159e-14
3817.49 3.713e-14
3819.23 3.7402e-14
3820.97 3.7847e-14
3822.71 3.8292e-14
3824.45 3.8236e-14
3826.18 3.7942e-14
3827.92 3.7558e-14
3829.66 3.7527e-14
3831.4 3.7554e-14
3833.14 3.7513e-14
3834.88 3.7464e-14
3836.62 3.6854e-14
3838.36 3.6526e-14
3840.1 3.6067e-14
3841.83 3.6163e-14
3843.57 3.6629e-14
3845.31 3.5871e-14
3847.05 3.5848e-14
3848.79 3.6206e-14
3850.53 3.5831e-14
3852.27 3.5991e-14
3854.01 3.6136e-14
3855.75 3.6626e-14
3857.48 3.7236e-14
3859.22 3.7385e-14
3860.96 3.7413e-14
3862.7 3.7651e-14
3864.44 3.7262e-14
3866.18 3.7109e-14
3867.92 3.7838e-14
3869.66 3.768e-14
3871.39 3.7839e-14
3873.13 3.8617e-14
3874.87 3.9179e-14
3876.61 3.9221e-14
3878.35 3.9757e-14
3880.09 4.0252e-14
3881.83 4.0464e-14
3883.57 4.0614e-14
3885.31 4.0523e-14
3887.04 4.1223e-14
3888.78 4.2113e-14
3890.52 4.2804e-14
3892.26 4.3502e-14
3894.0 4.3431e-14
3895.74 4.3989e-14
3897.48 4.501e-14
3899.22 4.5471e-14
3900.96 4.5982e-14
3902.69 4.7235e-14
3904.43 4.7844e-14
3906.17 4.9055e-14
3907.91 4.9649e-14
3909.65 4.9678e-14
3911.39 5.0313e-14
3913.13 5.127e-14
3914.87 5.1245e-14
3916.61 5.1208e-14
3918.34 5.1896e-14
3920.08 5.2133e-14
3921.82 5.3018e-14
3923.56 5.3323e-14
3925.3 5.3246e-14
3927.04 5.3963e-14
3928.78 5.4007e-14
3930.52 5.334e-14
3932.25 5.3209e-14
3933.99 5.3353e-14
3935.73 5.3424e-14
3937.47 5.3792e-14
3939.21 5.4141e-14
3940.95 5.4169e-14
3942.69 5.4272e-14
3944.43 5.4711e-14
3946.17 5.4439e-14
3947.9 5.4699e-14
3949.64 5.4941e-14
3951.38 5.5323e-14
3953.12 5.5051e-14
3954.86 5.5021e-14
3956.6 5.482e-14
3958.34 5.454e-14
3960.08 5.5329e-14
3961.82 5.5825e-14
3963.55 5.507e-14
3965.29 5.4506e-14
3967.03 5.4824e-14
3968.77 5.5381e-14
3970.51 5.493e-14
3972.25 5.4625e-14
3973.99 5.5332e-14
3975.73 5.5807e-14
3977.46 5.5321e-14
3979.2 5.5727e-14
3980.94 5.6271e-14
3982.68 5.5912e-14
3984.42 5.6256e-14
3986.16 5.597e-14
3987.9 5.6367e-14
3989.64 5.6377e-14
3991.38 5.6419e-14
3993.11 5.568e-14
3994.85 5.5543e-14
3996.59 5.5902e-14
3998.33 5.5356e-14
4000.07 5.5076e-14
4001.81 5.4427e-14
4003.55 5.5043e-14
4005.29 5.5115e-14
4007.03 5.4528e-14
4008.76 5.3943e-14
4010.5 5.3182e-14
4012.24 5.3096e-14
4013.98 5.2479e-14
4015.72 5.2144e-14
4017.46 5.044e-14
4019.2 5.0483e-14
4020.94 5.0185e-14
4022.67 4.9333e-14
4024.41 4.861e-14
4026.15 4.8216e-14
4027.89 4.7692e-14
4029.63 4.7107e-14
4031.37 4.6566e-14
4033.11 4.6649e-14
4034.85 4.6315e-14
4036.59 4.6047e-14
4038.32 4.5921e-14
4040.06 4.6075e-14
4041.8 4.6909e-14
4043.54 4.653e-14
4045.28 4.6123e-14
4047.02 4.6406e-14
4048.76 4.6601e-14
4050.5 4.652e-14
4052.24 4.6451e-14
4053.97 4.6691e-14
4055.71 4.7175e-14
4057.45 4.7062e-14
4059.19 4.7547e-14
4060.93 4.798e-14
4062.67 4.84e-14
4064.41 4.8365e-14
4066.15 4.8576e-14
4067.88 4.8577e-14
4069.62 4.9152e-14
4071.36 4.9561e-14
4073.1 4.9547e-14
4074.84 4.9562e-14
4076.58 4.9599e-14
4078.32 4.9974e-14
4080.06 5.0133e-14
4081.8 5.0873e-14
4083.53 5.084e-14
4085.27 5.1554e-14
4087.01 5.1414e-14
4088.75 5.0693e-14
4090.49 5.0821e-14
4092.23 5.0971e-14
4093.97 5.1389e-14
4095.71 5.187e-14
4097.45 5.186e-14
4099.18 5.1715e-14
4100.92 5.171e-14
4102.66 5.1942e-14
4104.4 5.2204e-14
4106.14 5.2026e-14
4107.88 5.1829e-14
4109.62 5.1644e-14
4111.36 5.1781e-14
4113.09 5.113e-14
4114.83 5.154e-14
4116.57 5.1771e-14
4118.31 5.1569e-14
4120.05 5.1694e-14
4121.79 5.1341e-14
4123.53 5.1152e-14
4125.27 5.1174e-14
4127.01 5.0442e-14
4128.74 5.1152e-14
4130.48 5.0704e-14
4132.22 5.0396e-14
4133.96 4.9948e-14
4135.7 4.9897e-14
4137.44 4.8749e-14
4139.18 4.8584e-14
4140.92 4.8328e-14
4142.66 4.7441e-14
4144.39 4.7044e-14
4146.13 4.6525e-14
4147.87 4.5508e-14
4149.61 4.5015e-14
4151.35 4.4082e-14
4153.09 4.3545e-14
4154.83 4.2712e-14
4156.57 4.2445e-14
4158.3 4.1344e-14
4160.04 4.1373e-14
4161.78 4.1174e-14
4163.52 4.0864e-14
4165.26 4.0295e-14
4167.0 4.0181e-14
4168.74 4.048e-14
4170.48 3.987e-14
4172.22 3.972e-14
4173.95 3.9582e-14
4175.69 3.9308e-14
4177.43 3.9455e-14
4179.17 3.9199e-14
4180.91 3.9355e-14
4182.65 3.9639e-14
4184.39 3.9479e-14
4186.13 3.9583e-14
4187.87 3.9312e-14
4189.6 3.9398e-14
4191.34 3.9726e-14
4193.08 3.9601e-14
4194.82 3.9805e-14
4196.56 3.9852e-14
4198.3 4.0315e-14
4200.04 4.0415e-14
4201.78 4.0359e-14
4203.51 4.0983e-14
4205.25 4.0858e-14
4206.99 4.0945e-14
4208.73 4.1067e-14
4210.47 4.1628e-14
4212.21 4.206e-14
4213.95 4.199e-14
4215.69 4.1689e-14
4217.43 4.1407e-14
4219.16 4.1845e-14
4220.9 4.1843e-14
4222.64 4.2189e-14
4224.38 4.1894e-14
4226.12 4.1907e-14
4227.86 4.1515e-14
4229.6 4.1604e-14
4231.34 4.1318e-14
4233.08 4.1118e-14
4234.81 4.1471e-14
4236.55 4.12e-14
4238.29 4.0726e-14
4240.03 4.1194e-14
4241.77 4.1131e-14
4243.51 4.1103e-14
4245.25 4.0553e-14
4246.99 3.9926e-14
4248.72 4.0112e-14
4250.46 4.0145e-14
4252.2 3.995e-14
4253.94 4.0409e-14
4255.68 4.0163e-14
4257.42 4.0445e-14
4259.16 4.0721e-14
4260.9 4.0465e-14
4262.64 4.0574e-14
4264.37 4.1121e-14
4266.11 4.1649e-14
4267.85 4.189e-14
4269.59 4.2524e-14
4271.33 4.2716e-14
4273.07 4.2598e-14
4274.81 4.2902e-14
4276.55 4.3438e-14
4278.29 4.3416e-14
4280.02 4.3819e-14
4281.76 4.4093e-14
4283.5 4.4674e-14
4285.24 4.4607e-14
4286.98 4.4973e-14
4288.72 4.5201e-14
4290.46 4.5529e-14
4292.2 4.5526e-14
4293.93 4.5859e-14
4295.67 4.6244e-14
4297.41 4.5811e-14
4299.15 4.5645e-14
4300.89 4.6109e-14
4302.63 4.593e-14
4304.37 4.6312e-14
4306.11 4.6166e-14
4307.85 4.7086e-14
4309.58 4.672e-14
4311.32 4.609e-14
4313.06 4.6395e-14
4314.8 4.5871e-14
4316.54 4.6292e-14
4318.28 4.648e-14
4320.02 4.5839e-14
4321.76 4.642e-14
4323.5 4.6128e-14
4325.23 4.6293e-14
4326.97 4.6637e-14
4328.71 4.6476e-14
4330.45 4.6764e-14
4332.19 4.7096e-14
4333.93 4.7116e-14
4335.67 4.7609e-14
4337.41 4.8101e-14
4339.14 4.7818e-14
4340.88 4.8087e-14
4342.62 4.8502e-14
4344.36 4.8635e-14
4346.1 4.7992e-14
4347.84 4.793e-14
4349.58 4.7537e-14
4351.32 4.7603e-14
4353.06 4.7815e-14
4354.79 4.8187e-14
4356.53 4.7325e-14
4358.27 4.756e-14
4360.01 4.7648e-14
4361.75 4.8143e-14
4363.49 4.7518e-14
4365.23 4.7208e-14
4366.97 4.6907e-14
4368.71 4.6903e-14
4370.44 4.6779e-14
4372.18 4.5628e-14
4373.92 4.5686e-14
4375.66 4.4969e-14
4377.4 4.4448e-14
4379.14 4.4548e-14
4380.88 4.3288e-14
4382.62 4.2464e-14
4384.35 4.1532e-14
4386.09 4.1345e-14
4387.83 4.0445e-14
4389.57 3.9446e-14
4391.31 3.9362e-14
4393.05 3.8387e-14
4394.79 3.7695e-14
4396.53 3.7645e-14
4398.27 3.6597e-14
4400.0 3.6191e-14
4401.74 3.5962e-14
4403.48 3.5441e-14
4405.22 3.5109e-14
4406.96 3.4924e-14
4408.7 3.463e-14
4410.44 3.4317e-14
4412.18 3.3871e-14
4413.92 3.344e-14
4415.65 3.3567e-14
4417.39 3.3443e-14
4419.13 3.3536e-14
4420.87 3.388e-14
4422.61 3.383e-14
4424.35 3.3854e-14
4426.09 3.43e-14
4427.83 3.4661e-14
4429.56 3.4694e-14
4431.3 3.4853e-14
4433.04 3.544e-14
4434.78 3.5896e-14
4436.52 3.622e-14
4438.26 3.6183e-14
4440.0 3.7283e-14
4441.74 3.7965e-14
4443.48 3.7965e-14
4445.21 3.7399e-14
4446.95 3.7906e-14
4448.69 3.8532e-14
4450.43 3.8948e-14
4452.17 3.9205e-14
4453.91 3.9649e-14
4455.65 4.0115e-14
4457.39 4.0191e-14
4459.13 4.032e-14
4460.86 4.0504e-14
4462.6 4.1247e-14
4464.34 4.1257e-14
4466.08 4.1367e-14
4467.82 4.1963e-14
4469.56 4.2125e-14
4471.3 4.1602e-14
4473.04 4.1806e-14
4474.77 4.2008e-14
4476.51 4.2062e-14
4478.25 4.2038e-14
4479.99 4.2051e-14
4481.73 4.2016e-14
4483.47 4.216e-14
4485.21 4.2332e-14
4486.95 4.2499e-14
4488.69 4.259e-14
4490.42 4.2921e-14
4492.16 4.3335e-14
4493.9 4.418e-14
4495.64 4.4507e-14
4497.38 4.4924e-14
4499.12 4.4986e-14
4500.86 4.5387e-14
4502.6 4.5238e-14
4504.34 4.5714e-14
4506.07 4.5455e-14
4507.81 4.5773e-14
4509.55 4.6325e-14
4511.29 4.6241e-14
4513.03 4.6001e-14
4514.77 4.6248e-14
4516.51 4.6289e-14
4518.25 4.6505e-14
4519.98 4.656e-14
4521.72 4.6441e-14
4523.46 4.6951e-14
4525.2 4.7238e-14
4526.94 4.7091e-14
4528.68 4.7271e-14
4530.42 4.7177e-14
4532.16 4.7491e-14
4533.9 4.7185e-14
4535.63 4.7507e-14
4537.37 4.8127e-14
4539.11 4.838e-14
4540.85 4.814e-14
4542.59 4.8256e-14
4544.33 4.8651e-14
4546.07 4.8945e-14
4547.81 4.9124e-14
4549.55 4.9032e-14
4551.28 4.9367e-14
4553.02 4.9928e-14
4554.76 4.9736e-14
4556.5 5.0012e-14
4558.24 5.0058e-14
4559.98 5.0713e-14
4561.72 5.0811e-14
4563.46 5.0843e-14
4565.19 5.117e-14
4566.93 5.1526e-14
4568.67 5.1316e-14
4570.41 5.1645e-14
4572.15 5.1757e-14
4573.89 5.2268e-14
4575.63 5.2117e-14
4577.37 5.2969e-14
4579.11 5.2808e-14
4580.84 5.2958e-14
4582.58 5.3668e-14
4584.32 5.3241e-14
4586.06 5.3295e-14
4587.8 5.4385e-14
4589.54 5.4659e-14
4591.28 5.4211e-14
4593.02 5.4767e-14
4594.76 5.5002e-14
4596.49 5.4727e-14
4598.23 5.521e-14
4599.97 5.4748e-14
4601.71 5.5059e-14
4603.45 5.5529e-14
4605.19 5.5249e-14
4606.93 5.4805e-14
4608.67 5.5475e-14
4610.4 5.4712e-14
4612.14 5.4181e-14
4613.88 5.437e-14
4615.62 5.4113e-14
4617.36 5.424e-14
4619.1 5.3884e-14
4620.84 5.3778e-14
4622.58 5.277e-14
4624.32 5.2442e-14
4626.05 5.3396e-14
4627.79 5.2552e-14
4629.53 5.1782e-14
4631.27 5.1598e-14
4633.01 5.1047e-14
4634.75 5.1148e-14
4636.49 5.1168e-14
4638.23 5.0935e-14
4639.97 5.0597e-14
4641.7 4.9994e-14
4643.44 5.0206e-14
4645.18 4.9453e-14
4646.92 4.9175e-14
4648.66 4.9169e-14
4650.4 4.9214e-14
4652.14 4.9082e-14
4653.88 4.8809e-14
4655.61 4.8417e-14
4657.35 4.8155e-14
4659.09 4.7514e-14
4660.83 4.701e-14
4662.57 4.6911e-14
4664.31 4.6774e-14
4666.05 4.6622e-14
4667.79 4.6206e-14
4669.53 4.6137e-14
4671.26 4.5735e-14
4673.0 4.5294e-14
4674.74 4.4891e-14
4676.48 4.4832e-14
4678.22 4.3851e-14
4679.96 4.3884e-14
4681.7 4.296e-14
4683.44 4.1957e-14
4685.18 4.1896e-14
4686.91 4.157e-14
4688.65 4.0431e-14
4690.39 4.0051e-14
4692.13 4.0087e-14
4693.87 3.945e-14
4695.61 3.8908e-14
4697.35 3.8589e-14
4699.09 3.8045e-14
4700.82 3.7568e-14
4702.56 3.6991e-14
4704.3 3.6666e-14
4706.04 3.6438e-14
4707.78 3.606e-14
4709.52 3.5232e-14
4711.26 3.4691e-14
4713.0 3.475e-14
4714.74 3.5161e-14
4716.47 3.5104e-14
4718.21 3.4551e-14
4719.95 3.4364e-14
4721.69 3.4255e-14
4723.43 3.4718e-14
4725.17 3.4285e-14
4726.91 3.4061e-14
4728.65 3.3946e-14
4730.39 3.3877e-14
4732.12 3.3804e-14
4733.86 3.4247e-14
4735.6 3.4554e-14
4737.34 3.4626e-14
4739.08 3.4503e-14
4740.82 3.4924e-14
4742.56 3.5067e-14
4744.3 3.5238e-14
4746.03 3.5357e-14
4747.77 3.5841e-14
4749.51 3.6217e-14
4751.25 3.5959e-14
4752.99 3.6757e-14
4754.73 3.7254e-14
4756.47 3.8264e-14
4758.21 3.9215e-14
4759.95 3.9429e-14
4761.68 3.9564e-14
4763.42 3.9552e-14
4765.16 3.9903e-14
4766.9 3.9729e-14
4768.64 3.9739e-14
4770.38 4.0218e-14
4772.12 4.0703e-14
4773.86 4.0926e-14
4775.6 4.1331e-14
4777.33 4.1619e-14
4779.07 4.1713e-14
4780.81 4.2092e-14
4782.55 4.2441e-14
4784.29 4.27e-14
4786.03 4.2798e-14
4787.77 4.3175e-14
4789.51 4.363e-14
4791.25 4.3842e-14
4792.98 4.4143e-14
4794.72 4.4648e-14
4796.46 4.5183e-14
4798.2 4.5586e-14
4799.94 4.5683e-14
4801.68 4.5929e-14
4803.42 4.6161e-14
4805.16 4.625e-14
4806.89 4.65e-14
4808.63 4.6791e-14
4810.37 4.7389e-14
4812.11 4.7528e-14
4813.85 4.786e-14
4815.59 4.8289e-14
4817.33 4.8569e-14
4819.07 4.8764e-14
4820.81 4.8927e-14
4822.54 4.914e-14
4824.28 4.9606e-14
4826.02 4.9861e-14
4827.76 5.0031e-14
4829.5 5.0299e-14
4831.24 5.0647e-14
4832.98 5.0661e-14
4834.72 5.0497e-14
4836.46 5.0483e-14
4838.19 5.0701e-14
4839.93 5.0592e-14
4841.67 5.0488e-14
4843.41 5.0836e-14
4845.15 5.0672e-14
4846.89 5.0255e-14
4848.63 5.0231e-14
4850.37 4.9991e-14
4852.1 4.9509e-14
4853.84 4.927e-14
4855.58 4.913e-14
4857.32 4.8723e-14
4859.06 4.805e-14
4860.8 4.808e-14
4862.54 4.7461e-14
4864.28 4.6781e-14
4866.02 4.6519e-14
4867.75 4.6004e-14
4869.49 4.5795e-14
4871.23 4.554e-14
4872.97 4.5128e-14
4874.71 4.4733e-14
4876.45 4.4545e-14
4878.19 4.4411e-14
4879.93 4.4193e-14
4881.67 4.4105e-14
4883.4 4.3768e-14
4885.14 4.3622e-14
4886.88 4.3295e-14
4888.62 4.3318e-14
4890.36 4.3601e-14
4892.1 4.3533e-14
4893.84 4.3411e-14
4895.58 4.3226e-14
4897.31 4.3299e-14
4899.05 4.3357e-14
4900.79 4.3653e-14
4902.53 4.3841e-14
4904.27 4.3664e-14
4906.01 4.3998e-14
4907.75 4.3924e-14
4909.49 4.3804e-14
4911.23 4.3757e-14
4912.96 4.3902e-14
4914.7 4.3661e-14
4916.44 4.3823e-14
4918.18 4.4218e-14
4919.92 4.4161e-14
4921.66 4.418e-14
4923.4 4.4183e-14
4925.14 4.4126e-14
4926.88 4.3941e-14
4928.61 4.4228e-14
4930.35 4.4309e-14
4932.09 4.4072e-14
4933.83 4.4323e-14
4935.57 4.4503e-14
4937.31 4.4541e-14
4939.05 4.421e-14
4940.79 4.4144e-14
4942.52 4.4196e-14
4944.26 4.442e-14
4946.0 4.4489e-14
4947.74 4.4609e-14
4949.48 4.4762e-14
4951.22 4.4666e-14
4952.96 4.469e-14
4954.7 4.4537e-14
4956.44 4.4624e-14
4958.17 4.4631e-14
4959.91 4.4678e-14
4961.65 4.4509e-14
4963.39 4.4343e-14
4965.13 4.4487e-14
4966.87 4.4422e-14
4968.61 4.4375e-14
4970.35 4.4097e-14
4972.09 4.404e-14
4973.82 4.4212e-14
4975.56 4.3915e-14
4977.3 4.3563e-14
4979.04 4.3473e-14
4980.78 4.3142e-14
4982.52 4.2892e-14
4984.26 4.2466e-14
4986.0 4.228e-14
4987.73 4.2141e-14
4989.47 4.1731e-14
4991.21 4.1377e-14
4992.95 4.0785e-14
4994.69 4.0354e-14
4996.43 3.9906e-14
4998.17 3.971e-14
4999.91 3.9553e-14
5001.65 3.882e-14
5003.38 3.8269e-14
5005.12 3.7835e-14
5006.86 3.7331e-14
5008.6 3.6822e-14
5010.34 3.6489e-14
5012.08 3.6225e-14
5013.82 3.6246e-14
5015.56 3.5857e-14
5017.3 3.5703e-14
5019.03 3.5621e-14
5020.77 3.5049e-14
5022.51 3.4846e-14
5024.25 3.4543e-14
5025.99 3.4225e-14
5027.73 3.4193e-14
5029.47 3.3925e-14
5031.21 3.3826e-14
5032.94 3.3854e-14
5034.68 3.3742e-14
5036.42 3.3677e-14
5038.16 3.3314e-14
5039.9 3.3247e-14
5041.64 3.3274e-14
5043.38 3.3126e-14
5045.12 3.3242e-14
5046.86 3.3513e-14
5048.59 3.3565e-14
5050.33 3.3508e-14
5052.07 3.3643e-14
5053.81 3.3702e-14
5055.55 3.3541e-14
5057.29 3.359e-14
5059.03 3.3513e-14
5060.77 3.3579e-14
5062.51 3.3596e-14
5064.24 3.3819e-14
5065.98 3.4281e-14
5067.72 3.4194e-14
5069.46 3.4136e-14
5071.2 3.4341e-14
5072.94 3.4344e-14
5074.68 3.4458e-14
5076.42 3.4811e-14
5078.15 3.4974e-14
5079.89 3.4866e-14
5081.63 3.5071e-14
5083.37 3.5311e-14
5085.11 3.5538e-14
5086.85 3.578e-14
5088.59 3.5592e-14
5090.33 3.5711e-14
5092.07 3.6192e-14
5093.8 3.5974e-14
5095.54 3.6139e-14
5097.28 3.6348e-14
5099.02 3.6422e-14
5100.76 3.6692e-14
5102.5 3.6814e-14
5104.24 3.6775e-14
5105.98 3.7015e-14
5107.72 3.7223e-14
5109.45 3.6948e-14
5111.19 3.706e-14
5112.93 3.7046e-14
5114.67 3.7054e-14
5116.41 3.7314e-14
5118.15 3.7471e-14
5119.89 3.7295e-14
5121.63 3.7297e-14
5123.36 3.7389e-14
5125.1 3.7357e-14
5126.84 3.7506e-14
5128.58 3.7504e-14
5130.32 3.7623e-14
5132.06 3.7592e-14
5133.8 3.7713e-14
5135.54 3.7811e-14
5137.28 3.7825e-14
5139.01 3.7661e-14
5140.75 3.7626e-14
5142.49 3.7335e-14
5144.23 3.7244e-14
5145.97 3.7273e-14
5147.71 3.7309e-14
5149.45 3.7157e-14
5151.19 3.7168e-14
5152.93 3.7393e-14
5154.66 3.7737e-14
5156.4 3.7353e-14
5158.14 3.7317e-14
5159.88 3.7313e-14
5161.62 3.7143e-14
5163.36 3.7324e-14
5165.1 3.7315e-14
5166.84 3.732e-14
5168.57 3.7555e-14
5170.31 3.787e-14
5172.05 3.7808e-14
5173.79 3.8048e-14
5175.53 3.8054e-14
5177.27 3.8239e-14
5179.01 3.8179e-14
5180.75 3.8407e-14
5182.49 3.8508e-14
5184.22 3.8598e-14
5185.96 3.8647e-14
5187.7 3.8572e-14
5189.44 3.889e-14
5191.18 3.9234e-14
5192.92 3.9018e-14
5194.66 3.893e-14
5196.4 3.9168e-14
5198.14 3.9627e-14
5199.87 3.9618e-14
5201.61 3.9613e-14
5203.35 3.9741e-14
5205.09 3.9798e-14
5206.83 4.0106e-14
5208.57 4.0311e-14
5210.31 4.0245e-14
5212.05 4.0089e-14
5213.78 4.0136e-14
5215.52 4.0409e-14
5217.26 4.0387e-14
5219.0 4.0284e-14
5220.74 4.0705e-14
5222.48 4.0722e-14
5224.22 4.0868e-14
5225.96 4.1203e-14
5227.7 4.1259e-14
5229.43 4.0814e-14
5231.17 4.0859e-14
5232.91 4.1088e-14
5234.65 4.1443e-14
5236.39 4.1579e-14
5238.13 4.1557e-14
5239.87 4.1357e-14
5241.61 4.149e-14
5243.35 4.1421e-14
5245.08 4.1461e-14
5246.82 4.1421e-14
5248.56 4.1321e-14
5250.3 4.1454e-14
5252.04 4.148e-14
5253.78 4.1509e-14
5255.52 4.1631e-14
5257.26 4.1934e-14
5258.99 4.1691e-14
5260.73 4.1792e-14
5262.47 4.203e-14
5264.21 4.1863e-14
5265.95 4.2086e-14
5267.69 4.2216e-14
5269.43 4.223e-14
5271.17 4.2026e-14
5272.91 4.2097e-14
5274.64 4.2158e-14
5276.38 4.2335e-14
5278.12 4.2229e-14
5279.86 4.2385e-14
5281.6 4.2373e-14
5283.34 4.2196e-14
5285.08 4.219e-14
5286.82 4.22e-14
5288.56 4.2185e-14
5290.29 4.219e-14
5292.03 4.2056e-14
5293.77 4.2266e-14
5295.51 4.1948e-14
5297.25 4.1644e-14
5298.99 4.1926e-14
5300.73 4.1758e-14
5302.47 4.1609e-14
5304.2 4.1445e-14
5305.94 4.1651e-14
5307.68 4.1597e-14
5309.42 4.1372e-14
5311.16 4.1163e-14
5312.9 4.1121e-14
5314.64 4.1261e-14
5316.38 4.0851e-14
5318.12 4.0614e-14
5319.85 4.073e-14
5321.59 4.0824e-14
5323.33 4.0826e-14
5325.07 4.0654e-14
5326.81 4.0747e-14
5328.55 4.0296e-14
5330.29 4.0171e-14
5332.03 4.0259e-14
5333.77 4.0261e-14
5335.5 4.0131e-14
5337.24 3.984e-14
5338.98 3.9626e-14
5340.72 3.9459e-14
5342.46 3.9522e-14
5344.2 3.9635e-14
5345.94 3.9612e-14
5347.68 3.9187e-14
5349.41 3.8924e-14
5351.15 3.8903e-14
5352.89 3.9211e-14
5354.63 3.904e-14
5356.37 3.8621e-14
5358.11 3.8357e-14
5359.85 3.8645e-14
5361.59 3.88e-14
5363.33 3.8843e-14
5365.06 3.8601e-14
5366.8 3.8163e-14
5368.54 3.8079e-14
5370.28 3.8044e-14
5372.02 3.8129e-14
5373.76 3.8104e-14
5375.5 3.8014e-14
5377.24 3.8407e-14
5378.98 3.8079e-14
5380.71 3.7723e-14
5382.45 3.7537e-14
5384.19 3.767e-14
5385.93 3.7646e-14
5387.67 3.7425e-14
5389.41 3.7581e-14
5391.15 3.7457e-14
5392.89 3.7334e-14
5394.62 3.7458e-14
5396.36 3.7526e-14
5398.1 3.7335e-14
5399.84 3.7385e-14
5401.58 3.7333e-14
5403.32 3.7278e-14
5405.06 3.7229e-14
5406.8 3.7004e-14
5408.54 3.7076e-14
5410.27 3.695e-14
5412.01 3.69e-14
5413.75 3.6957e-14
5415.49 3.6915e-14
5417.23 3.7041e-14
5418.97 3.704e-14
5420.71 3.7071e-14
5422.45 3.7037e-14
5424.19 3.7087e-14
5425.92 3.7118e-14
5427.66 3.7163e-14
5429.4 3.707e-14
5431.14 3.7113e-14
5432.88 3.7207e-14
5434.62 3.705e-14
5436.36 3.7036e-14
5438.1 3.7227e-14
5439.83 3.6862e-14
5441.57 3.6876e-14
5443.31 3.7103e-14
5445.05 3.7186e-14
5446.79 3.7205e-14
5448.53 3.6894e-14
5450.27 3.725e-14
5452.01 3.7476e-14
5453.75 3.7214e-14
5455.48 3.702e-14
5457.22 3.7008e-14
5458.96 3.6786e-14
5460.7 3.6934e-14
5462.44 3.6883e-14
5464.18 3.6724e-14
5465.92 3.6796e-14
5467.66 3.6886e-14
5469.4 3.6697e-14
5471.13 3.6594e-14
5472.87 3.6783e-14
5474.61 3.6845e-14
5476.35 3.6762e-14
5478.09 3.6647e-14
5479.83 3.7028e-14
5481.57 3.6814e-14
5483.31 3.698e-14
5485.04 3.6992e-14
5486.78 3.6661e-14
5488.52 3.6504e-14
5490.26 3.6362e-14
5492.0 3.6418e-14
5493.74 3.6464e-14
5495.48 3.6461e-14
5497.22 3.6121e-14
5498.96 3.6045e-14
5500.69 3.643e-14
5502.43 3.6255e-14
5504.17 3.5938e-14
5505.91 3.5712e-14
5507.65 3.5909e-14
5509.39 3.5691e-14
5511.13 3.546e-14
5512.87 3.5837e-14
5514.61 3.5815e-14
5516.34 3.5603e-14
5518.08 3.5511e-14
5519.82 3.5425e-14
5521.56 3.5371e-14
5523.3 3.5363e-14
5525.04 3.5246e-14
5526.78 3.5083e-14
5528.52 3.4853e-14
5530.25 3.4749e-14
5531.99 3.4786e-14
5533.73 3.4853e-14
5535.47 3.4638e-14
5537.21 3.4226e-14
5538.95 3.4228e-14
5540.69 3.436e-14
5542.43 3.419e-14
5544.17 3.3994e-14
5545.9 3.4133e-14
5547.64 3.4257e-14
5549.38 3.427e-14
5551.12 3.4037e-14
5552.86 3.3861e-14
5554.6 3.3926e-14
5556.34 3.3877e-14
5558.08 3.4032e-14
5559.82 3.4077e-14
5561.55 3.3942e-14
5563.29 3.3844e-14
5565.03 3.3924e-14
5566.77 3.397e-14
5568.51 3.3741e-14
5570.25 3.4141e-14
5571.99 3.4239e-14
5573.73 3.3954e-14
5575.46 3.3998e-14
5577.2 3.3971e-14
5578.94 3.4174e-14
5580.68 3.4124e-14
5582.42 3.397e-14
5584.16 3.4125e-14
5585.9 3.4105e-14
5587.64 3.3731e-14
5589.38 3.3904e-14
5591.11 3.4284e-14
5592.85 3.4036e-14
5594.59 3.3898e-14
5596.33 3.4021e-14
5598.07 3.4099e-14
5599.81 3.4249e-14
5601.55 3.3957e-14
5603.29 3.3794e-14
5605.03 3.3871e-14
5606.76 3.385e-14
5608.5 3.4003e-14
5610.24 3.3892e-14
5611.98 3.382e-14
5613.72 3.3885e-14
5615.46 3.3414e-14
5617.2 3.3577e-14
5618.94 3.3772e-14
5620.67 3.3388e-14
5622.41 3.3418e-14
5624.15 3.346e-14
5625.89 3.3348e-14
5627.63 3.337e-14
5629.37 3.3372e-14
5631.11 3.3323e-14
5632.85 3.317e-14
5634.59 3.3252e-14
5636.32 3.2993e-14
5638.06 3.3481e-14
5639.8 3.3035e-14
5641.54 3.2662e-14
5643.28 3.2711e-14
5645.02 3.2402e-14
5646.76 3.2397e-14
5648.5 3.27e-14
5650.24 3.2659e-14
5651.97 3.218e-14
5653.71 3.2089e-14
5655.45 3.2197e-14
5657.19 3.2024e-14
5658.93 3.2064e-14
5660.67 3.2014e-14
5662.41 3.193e-14
5664.15 3.1674e-14
5665.89 3.1655e-14
5667.62 3.1707e-14
5669.36 3.1464e-14
5671.1 3.101e-14
5672.84 3.1005e-14
5674.58 3.1141e-14
5676.32 3.0991e-14
5678.06 3.1178e-14
5679.8 3.1194e-14
5681.53 3.0742e-14
5683.27 3.0366e-14
5685.01 3.04e-14
5686.75 3.0291e-14
5688.49 3.0376e-14
5690.23 3.0241e-14
5691.97 3.0194e-14
5693.71 3.0126e-14
5695.45 3.0187e-14
5697.18 3.0066e-14
5698.92 2.9862e-14
5700.66 2.9958e-14
5702.4 2.9786e-14
5704.14 2.9771e-14
5705.88 2.9778e-14
5707.62 2.9898e-14
5709.36 2.9998e-14
5711.1 2.9763e-14
5712.83 2.9755e-14
5714.57 2.9976e-14
5716.31 3.0092e-14
5718.05 2.9686e-14
5719.79 2.98e-14
5721.53 3.0084e-14
5723.27 2.9872e-14
5725.01 2.9869e-14
5726.74 2.9883e-14
5728.48 2.9658e-14
5730.22 2.9785e-14
5731.96 2.9631e-14
5733.7 2.9662e-14
5735.44 2.953e-14
5737.18 2.9848e-14
5738.92 2.9764e-14
5740.66 2.9386e-14
5742.39 2.9328e-14
5744.13 2.9424e-14
5745.87 2.9495e-14
5747.61 2.9349e-14
5749.35 2.8919e-14
5751.09 2.9109e-14
5752.83 2.9357e-14
5754.57 2.9001e-14
5756.31 2.8942e-14
5758.04 2.9162e-14
5759.78 2.9089e-14
5761.52 2.9105e-14
5763.26 2.9314e-14
5765.0 2.9214e-14
5766.74 2.9297e-14
5768.48 2.942e-14
5770.22 2.9118e-14
5771.95 2.9237e-14
5773.69 2.9468e-14
5775.43 2.9198e-14
5777.17 2.9238e-14
5778.91 2.9599e-14
5780.65 2.9845e-14
5782.39 2.9644e-14
5784.13 2.9579e-14
5785.87 2.997e-14
5787.6 3.0047e-14
5789.34 2.999e-14
5791.08 3.0061e-14
5792.82 3.0142e-14
5794.56 3.0066e-14
5796.3 3.0136e-14
5798.04 3.0449e-14
5799.78 3.0309e-14
5801.52 3.0252e-14
5803.25 3.0514e-14
5804.99 3.0214e-14
5806.73 3.0378e-14
5808.47 3.0406e-14
5810.21 3.0482e-14
5811.95 3.0711e-14
5813.69 3.0611e-14
5815.43 3.0778e-14
5817.16 3.0678e-14
5818.9 3.0822e-14
5820.64 3.0596e-14
5822.38 3.0478e-14
5824.12 3.0798e-14
5825.86 3.0439e-14
5827.6 3.0481e-14
5829.34 3.0347e-14
5831.08 3.0746e-14
5832.81 3.0296e-14
5834.55 3.0248e-14
5836.29 3.056e-14
5838.03 3.0614e-14
5839.77 3.0297e-14
5841.51 3.0403e-14
5843.25 3.0386e-14
5844.99 3.03e-14
5846.73 3.0051e-14
5848.46 2.9883e-14
5850.2 2.9762e-14
5851.94 3.0146e-14
5853.68 3.0374e-14
5855.42 3.035e-14
5857.16 2.9865e-14
5858.9 3.0578e-14
5860.64 3.0907e-14
5862.37 3.0802e-14
5864.11 3.0668e-14
5865.85 3.0808e-14
5867.59 3.0997e-14
5869.33 3.0871e-14
5871.07 3.0762e-14
5872.81 3.074e-14
5874.55 3.0959e-14
5876.29 3.1368e-14
5878.02 3.1349e-14
5879.76 3.1207e-14
5881.5 3.083e-14
5883.24 3.0514e-14
5884.98 3.0848e-14
5886.72 3.0735e-14
5888.46 3.0747e-14
5890.2 3.0259e-14
5891.94 3.0061e-14
5893.67 3.0247e-14
5895.41 3.0382e-14
5897.15 3.0423e-14
5898.89 3.0581e-14
5900.63 3.0734e-14
5902.37 3.0791e-14
5904.11 3.0774e-14
5905.85 3.0738e-14
5907.58 3.0797e-14
5909.32 3.0974e-14
5911.06 3.1137e-14
5912.8 3.1205e-14
5914.54 3.1193e-14
5916.28 3.112e-14
5918.02 3.1025e-14
5919.76 3.094e-14
5921.5 3.0866e-14
5923.23 3.0812e-14
5924.97 3.0817e-14
5926.71 3.088e-14
5928.45 3.0907e-14
5930.19 3.0852e-14
5931.93 3.08e-14
5933.67 3.0807e-14
5935.41 3.0839e-14
5937.15 3.0857e-14
5938.88 3.0824e-14
5940.62 3.0718e-14
5942.36 3.0566e-14
5944.1 3.0404e-14
5945.84 3.0272e-14
5947.58 3.0196e-14
5949.32 3.0129e-14
5951.06 3.0044e-14
5952.79 3.0033e-14
5954.53 3.0154e-14
5956.27 3.0252e-14
5958.01 3.0202e-14
5959.75 3.0102e-14
5961.49 3.0054e-14
5963.23 3.0056e-14
5964.97 3.0091e-14
5966.71 3.0095e-14
5968.44 3.0017e-14
5970.18 2.9914e-14
5971.92 2.9851e-14
5973.66 2.9833e-14
5975.4 2.9848e-14
5977.14 2.9828e-14
5978.88 2.9709e-14
5980.62 2.9558e-14
5982.36 2.9455e-14
5984.09 2.9428e-14
5985.83 2.9481e-14
5987.57 2.9538e-14
5989.31 2.9511e-14
5991.05 2.9445e-14
5992.79 2.9412e-14
5994.53 2.9426e-14
5996.27 2.9483e-14
5998.0 2.9521e-14
5999.74 2.9464e-14
6001.48 2.9378e-14
6003.22 2.9365e-14
6004.96 2.9406e-14
6006.7 2.9442e-14
6008.44 2.9455e-14
6010.18 2.9443e-14
6011.92 2.9415e-14
6013.65 2.9384e-14
6015.39 2.9368e-14
6017.13 2.9384e-14
6018.87 2.9423e-14
6020.61 2.9464e-14
6022.35 2.9494e-14
6024.09 2.9502e-14
6025.83 2.9488e-14
6027.57 2.9454e-14
6029.3 2.9437e-14
6031.04 2.9498e-14
6032.78 2.9592e-14
6034.52 2.9607e-14
6036.26 2.9556e-14
6038.0 2.9541e-14
6039.74 2.9557e-14
6041.48 2.9522e-14
6043.21 2.9454e-14
6044.95 2.9437e-14
6046.69 2.9494e-14
6048.43 2.9607e-14
6050.17 2.9699e-14
6051.91 2.9629e-14
6053.65 2.9429e-14
6055.39 2.9305e-14
6057.13 2.9317e-14
6058.86 2.9374e-14
6060.6 2.9427e-14
6062.34 2.9465e-14
6064.08 2.9466e-14
6065.82 2.9396e-14
6067.56 2.9283e-14
6069.3 2.9237e-14
6071.04 2.9286e-14
6072.78 2.9344e-14
6074.51 2.9363e-14
6076.25 2.9349e-14
6077.99 2.9316e-14
6079.73 2.9303e-14
6081.47 2.9317e-14
6083.21 2.9304e-14
6084.95 2.9245e-14
6086.69 2.9188e-14
6088.42 2.9157e-14
6090.16 2.9132e-14
6091.9 2.91e-14
6093.64 2.9047e-14
6095.38 2.8975e-14
6097.12 2.8919e-14
6098.86 2.8897e-14
6100.6 2.8863e-14
6102.34 2.8802e-14
6104.07 2.8778e-14
6105.81 2.8822e-14
6107.55 2.884e-14
6109.29 2.8772e-14
6111.03 2.8681e-14
6112.77 2.8616e-14
6114.51 2.8561e-14
6116.25 2.8509e-14
6117.99 2.8484e-14
6119.72 2.8505e-14
6121.46 2.8579e-14
6123.2 2.8692e-14
6124.94 2.876e-14
6126.68 2.8716e-14
6128.42 2.8615e-14
6130.16 2.8519e-14
6131.9 2.8448e-14
6133.63 2.8413e-14
6135.37 2.8378e-14
6137.11 2.8304e-14
6138.85 2.8211e-14
6140.59 2.812e-14
6142.33 2.8036e-14
6144.07 2.7961e-14
6145.81 2.7909e-14
6147.55 2.7887e-14
6149.28 2.7855e-14
6151.02 2.777e-14
6152.76 2.7621e-14
6154.5 2.7411e-14
6156.24 2.719e-14
6157.98 2.7015e-14
6159.72 2.6866e-14
6161.46 2.6706e-14
6163.2 2.6521e-14
6164.93 2.6306e-14
6166.67 2.6073e-14
6168.41 2.5842e-14
6170.15 2.5619e-14
6171.89 2.541e-14
6173.63 2.5208e-14
6175.37 2.5003e-14
6177.11 2.4823e-14
6178.84 2.4709e-14
6180.58 2.4607e-14
6182.32 2.4423e-14
6184.06 2.4187e-14
6185.8 2.3982e-14
6187.54 2.3809e-14
6189.28 2.3635e-14
6191.02 2.3453e-14
6192.76 2.3262e-14
6194.49 2.3087e-14
6196.23 2.2966e-14
6197.97 2.2882e-14
6199.71 2.2792e-14
6201.45 2.2672e-14
6203.19 2.2507e-14
6204.93 2.2327e-14
6206.67 2.2191e-14
6208.41 2.2121e-14
6210.14 2.2116e-14
6211.88 2.2146e-14
6213.62 2.2148e-14
6215.36 2.2129e-14
6217.1 2.2156e-14
6218.84 2.2212e-14
6220.58 2.2208e-14
6222.32 2.2136e-14
6224.05 2.2069e-14
6225.79 2.2041e-14
6227.53 2.206e-14
6229.27 2.2109e-14
6231.01 2.2138e-14
6232.75 2.2153e-14
6234.49 2.2237e-14
6236.23 2.2391e-14
6237.97 2.2519e-14
6239.7 2.2603e-14
6241.44 2.2741e-14
6243.18 2.2954e-14
6244.92 2.3154e-14
6246.66 2.3295e-14
6248.4 2.3377e-14
6250.14 2.3434e-14
6251.88 2.3568e-14
6253.62 2.3794e-14
6255.35 2.3943e-14
6257.09 2.3953e-14
6258.83 2.3976e-14
6260.57 2.4087e-14
6262.31 2.4202e-14
6264.05 2.4274e-14
6265.79 2.4326e-14
6267.53 2.4385e-14
6269.26 2.4504e-14
6271.0 2.4682e-14
6272.74 2.4747e-14
6274.48 2.4621e-14
6276.22 2.4512e-14
6277.96 2.4557e-14
6279.7 2.463e-14
6281.44 2.4634e-14
6283.18 2.4601e-14
6284.91 2.4566e-14
6286.65 2.4565e-14
6288.39 2.4625e-14
6290.13 2.4721e-14
6291.87 2.4825e-14
6293.61 2.4924e-14
6295.35 2.501e-14
6297.09 2.5097e-14
6298.83 2.5197e-14
6300.56 2.5265e-14
6302.3 2.527e-14
6304.04 2.5296e-14
6305.78 2.5417e-14
6307.52 2.556e-14
6309.26 2.5641e-14
6311.0 2.5651e-14
6312.74 2.5596e-14
6314.47 2.5511e-14
6316.21 2.5437e-14
6317.95 2.5337e-14
6319.69 2.5172e-14
6321.43 2.5002e-14
6323.17 2.4894e-14
6324.91 2.4812e-14
6326.65 2.47e-14
6328.39 2.4578e-14
6330.12 2.4477e-14
6331.86 2.4391e-14
6333.6 2.4302e-14
6335.34 2.4203e-14
6337.08 2.4089e-14
6338.82 2.3947e-14
6340.56 2.3759e-14
6342.3 2.3568e-14
6344.04 2.3434e-14
6345.77 2.3324e-14
6347.51 2.3172e-14
6349.25 2.3e-14
6350.99 2.2863e-14
6352.73 2.2772e-14
6354.47 2.2725e-14
6356.21 2.2706e-14
6357.95 2.2689e-14
6359.68 2.2672e-14
6361.42 2.2661e-14
6363.16 2.2664e-14
6364.9 2.2688e-14
6366.64 2.2737e-14
6368.38 2.2819e-14
6370.12 2.2899e-14
6371.86 2.2915e-14
6373.6 2.2888e-14
6375.33 2.2895e-14
6377.07 2.2938e-14
6378.81 2.297e-14
6380.55 2.2994e-14
6382.29 2.304e-14
6384.03 2.3129e-14
6385.77 2.3275e-14
6387.51 2.3458e-14
6389.25 2.3623e-14
6390.98 2.3768e-14
6392.72 2.3942e-14
6394.46 2.4153e-14
6396.2 2.438e-14
6397.94 2.4585e-14
6399.68 2.4702e-14
6401.42 2.4763e-14
6403.16 2.4915e-14
6404.89 2.5189e-14
6406.63 2.5466e-14
6408.37 2.5685e-14
6410.11 2.5843e-14
6411.85 2.5974e-14
6413.59 2.6177e-14
6415.33 2.6474e-14
6417.07 2.6758e-14
6418.81 2.6985e-14
6420.54 2.7211e-14
6422.28 2.7494e-14
6424.02 2.7914e-14
6425.76 2.8472e-14
6427.5 2.9007e-14
6429.24 2.9435e-14
6430.98 2.9842e-14
6432.72 3.0274e-14
6434.46 3.0687e-14
6436.19 3.1046e-14
6437.93 3.1329e-14
6439.67 3.153e-14
6441.41 3.1695e-14
6443.15 3.1872e-14
6444.89 3.2128e-14
6446.63 3.2483e-14
6448.37 3.2832e-14
6450.1 3.3101e-14
6451.84 3.3365e-14
6453.58 3.3686e-14
6455.32 3.4049e-14
6457.06 3.4437e-14
6458.8 3.4847e-14
6460.54 3.5262e-14
6462.28 3.5617e-14
6464.02 3.5868e-14
6465.75 3.6084e-14
6467.49 3.6326e-14
6469.23 3.6514e-14
6470.97 3.6585e-14
6472.71 3.6618e-14
6474.45 3.6693e-14
6476.19 3.6823e-14
6477.93 3.7e-14
6479.67 3.7113e-14
6481.4 3.707e-14
6483.14 3.702e-14
6484.88 3.713e-14
6486.62 3.7375e-14
6488.36 3.769e-14
6490.1 3.7984e-14
6491.84 3.8168e-14
6493.58 3.8309e-14
6495.31 3.8505e-14
6497.05 3.8725e-14
6498.79 3.8916e-14
6500.53 3.9092e-14
6502.27 3.9277e-14
6504.01 3.9445e-14
6505.75 3.956e-14
6507.49 3.9585e-14
6509.23 3.949e-14
6510.96 3.9317e-14
6512.7 3.9136e-14
6514.44 3.8978e-14
6516.18 3.8863e-14
6517.92 3.8768e-14
6519.66 3.8654e-14
6521.4 3.8547e-14
6523.14 3.8504e-14
6524.88 3.8511e-14
6526.61 3.8523e-14
6528.35 3.8548e-14
6530.09 3.8613e-14
6531.83 3.8694e-14
6533.57 3.8738e-14
6535.31 3.8755e-14
6537.05 3.8789e-14
6538.79 3.8822e-14
6540.53 3.8799e-14
6542.26 3.8719e-14
6544.0 3.8626e-14
6545.74 3.8509e-14
6547.48 3.833e-14
6549.22 3.811e-14
6550.96 3.7911e-14
6552.7 3.7756e-14
6554.44 3.7639e-14
6556.17 3.7544e-14
6557.91 3.7438e-14
6559.65 3.7333e-14
6561.39 3.7273e-14
6563.13 3.7284e-14
6564.87 3.7371e-14
6566.61 3.7498e-14
6568.35 3.7583e-14
6570.09 3.7575e-14
6571.82 3.7458e-14
6573.56 3.728e-14
6575.3 3.7173e-14
6577.04 3.7165e-14
6578.78 3.7143e-14
6580.52 3.7041e-14
6582.26 3.6852e-14
6584.0 3.6607e-14
6585.74 3.6403e-14
6587.47 3.6274e-14
6589.21 3.613e-14
6590.95 3.5942e-14
6592.69 3.5794e-14
6594.43 3.5719e-14
6596.17 3.565e-14
6597.91 3.5561e-14
6599.65 3.5508e-14
6601.38 3.5509e-14
6603.12 3.5506e-14
6604.86 3.5458e-14
6606.6 3.536e-14
6608.34 3.5224e-14
6610.08 3.5115e-14
6611.82 3.5062e-14
6613.56 3.4997e-14
6615.3 3.4863e-14
6617.03 3.4659e-14
6618.77 3.439e-14
6620.51 3.4074e-14
6622.25 3.3735e-14
6623.99 3.3407e-14
6625.73 3.3127e-14
6627.47 3.2937e-14
6629.21 3.2849e-14
6630.95 3.2772e-14
6632.68 3.2629e-14
6634.42 3.2477e-14
6636.16 3.237e-14
6637.9 3.2286e-14
6639.64 3.2201e-14
6641.38 3.2123e-14
6643.12 3.2058e-14
6644.86 3.197e-14
6646.59 3.1826e-14
6648.33 3.1674e-14
6650.07 3.1559e-14
6651.81 3.1394e-14
6653.55 3.1098e-14
6655.29 3.0802e-14
6657.03 3.0648e-14
6658.77 3.0559e-14
6660.51 3.0425e-14
6662.24 3.0247e-14
6663.98 3.005e-14
6665.72 2.9881e-14
6667.46 2.9786e-14
6669.2 2.9793e-14
6670.94 2.9911e-14
6672.68 3.0031e-14
6674.42 3.0019e-14
6676.16 2.9939e-14
6677.89 2.9915e-14
6679.63 2.9939e-14
6681.37 2.9962e-14
6683.11 2.9941e-14
6684.85 2.9837e-14
6686.59 2.966e-14
6688.33 2.9444e-14
6690.07 2.921e-14
6691.8 2.8973e-14
6693.54 2.876e-14
6695.28 2.8594e-14
6697.02 2.8487e-14
6698.76 2.8443e-14
6700.5 2.8411e-14
6702.24 2.8316e-14
6703.98 2.8197e-14
6705.72 2.8158e-14
6707.45 2.8212e-14
6709.19 2.8322e-14
6710.93 2.8433e-14
6712.67 2.8478e-14
6714.41 2.8455e-14
6716.15 2.8414e-14
6717.89 2.837e-14
6719.63 2.8316e-14
6721.37 2.8246e-14
6723.1 2.8149e-14
6724.84 2.805e-14
6726.58 2.8015e-14
6728.32 2.8009e-14
6730.06 2.7905e-14
6731.8 2.7695e-14
6733.54 2.7484e-14
6735.28 2.7328e-14
6737.01 2.7237e-14
6738.75 2.7194e-14
6740.49 2.7154e-14
6742.23 2.709e-14
6743.97 2.6999e-14
6745.71 2.6902e-14
6747.45 2.6854e-14
6749.19 2.6871e-14
6750.93 2.6908e-14
6752.66 2.6934e-14
6754.4 2.6933e-14
6756.14 2.69e-14
6757.88 2.6857e-14
6759.62 2.6811e-14
6761.36 2.6738e-14
6763.1 2.6628e-14
6764.84 2.6492e-14
6766.58 2.6329e-14
6768.31 2.6114e-14
6770.05 2.5851e-14
6771.79 2.5603e-14
6773.53 2.5418e-14
6775.27 2.5291e-14
6777.01 2.5214e-14
6778.75 2.5178e-14
6780.49 2.5164e-14
6782.22 2.5139e-14
6783.96 2.5094e-14
6785.7 2.5089e-14
6787.44 2.5154e-14
6789.18 2.5193e-14
6790.92 2.5145e-14
6792.66 2.5094e-14
6794.4 2.51e-14
6796.14 2.5122e-14
6797.87 2.5112e-14
6799.61 2.5005e-14
6801.35 2.4771e-14
6803.09 2.4546e-14
6804.83 2.4445e-14
6806.57 2.4366e-14
6808.31 2.4211e-14
6810.05 2.4e-14
6811.79 2.3768e-14
6813.52 2.3586e-14
6815.26 2.3507e-14
6817.0 2.3463e-14
6818.74 2.3381e-14
6820.48 2.3301e-14
6822.22 2.3272e-14
6823.96 2.3273e-14
6825.7 2.3269e-14
6827.43 2.3246e-14
6829.17 2.3194e-14
6830.91 2.3161e-14
6832.65 2.3199e-14
6834.39 2.3291e-14
6836.13 2.3402e-14
6837.87 2.3452e-14
6839.61 2.3361e-14
6841.35 2.3196e-14
6843.08 2.306e-14
6844.82 2.2964e-14
6846.56 2.2893e-14
6848.3 2.2821e-14
6850.04 2.2717e-14
6851.78 2.2602e-14
6853.52 2.2513e-14
6855.26 2.2456e-14
6857.0 2.2425e-14
6858.73 2.2422e-14
6860.47 2.2449e-14
6862.21 2.2469e-14
6863.95 2.2431e-14
6865.69 2.2286e-14
6867.43 2.199e-14
6869.17 2.1561e-14
6870.91 2.1051e-14
6872.64 2.0538e-14
6874.38 2.011e-14
6876.12 1.9846e-14
6877.86 1.9808e-14
6879.6 1.9984e-14
6881.34 2.0305e-14
6883.08 2.0706e-14
6884.82 2.1141e-14
6886.56 2.1468e-14
6888.29 2.1483e-14
6890.03 2.1225e-14
6891.77 2.0935e-14
6893.51 2.0704e-14
6895.25 2.0502e-14
6896.99 2.034e-14
6898.73 2.026e-14
6900.47 2.0258e-14
6902.21 2.0284e-14
6903.94 2.0322e-14
6905.68 2.0386e-14
6907.42 2.0477e-14
6909.16 2.0583e-14
6910.9 2.0703e-14
6912.64 2.0846e-14
6914.38 2.1001e-14
6916.12 2.1135e-14
6917.85 2.1226e-14
6919.59 2.1267e-14
6921.33 2.1257e-14
6923.07 2.1209e-14
6924.81 2.1124e-14
6926.55 2.097e-14
6928.29 2.0757e-14
6930.03 2.0558e-14
6931.77 2.0408e-14
6933.5 2.0267e-14
6935.24 2.0122e-14
6936.98 2.003e-14
6938.72 2.0007e-14
6940.46 1.9991e-14
6942.2 1.9944e-14
6943.94 1.9886e-14
6945.68 1.9851e-14
6947.42 1.9912e-14
6949.15 2.0098e-14
6950.89 2.0333e-14
6952.63 2.0548e-14
6954.37 2.0732e-14
6956.11 2.088e-14
6957.85 2.1015e-14
6959.59 2.1152e-14
6961.33 2.1271e-14
6963.06 2.1355e-14
6964.8 2.1427e-14
6966.54 2.1501e-14
6968.28 2.154e-14
6970.02 2.152e-14
6971.76 2.1481e-14
6973.5 2.1453e-14
6975.24 2.138e-14
6976.98 2.1218e-14
6978.71 2.1037e-14
6980.45 2.0906e-14
6982.19 2.0812e-14
6983.93 2.0734e-14
6985.67 2.0674e-14
6987.41 2.0634e-14
6989.15 2.063e-14
6990.89 2.0673e-14
6992.63 2.074e-14
6994.36 2.08e-14
6996.1 2.0867e-14
6997.84 2.0958e-14
6999.58 2.1028e-14
7001.32 2.1031e-14
7003.06 2.1011e-14
7004.8 2.1026e-14
7006.54 2.1038e-14
7008.27 2.0996e-14
7010.01 2.0912e-14
7011.75 2.0813e-14
7013.49 2.0702e-14
7015.23 2.0573e-14
7016.97 2.0427e-14
7018.71 2.0266e-14
7020.45 2.0131e-14
7022.19 2.0074e-14
7023.92 2.0063e-14
7025.66 2.0032e-14
7027.4 2.0001e-14
7029.14 2.0022e-14
7030.88 2.0104e-14
7032.62 2.0235e-14
7034.36 2.0417e-14
7036.1 2.0656e-14
7037.84 2.0891e-14
7039.57 2.1035e-14
7041.31 2.1082e-14
7043.05 2.1065e-14
7044.79 2.1048e-14
7046.53 2.1119e-14
7048.27 2.1211e-14
7050.01 2.1163e-14
7051.75 2.0981e-14
7053.48 2.0787e-14
7055.22 2.0619e-14
7056.96 2.0462e-14
7058.7 2.032e-14
7060.44 2.021e-14
7062.18 2.013e-14
7063.92 2.0062e-14
7065.66 2.0023e-14
7067.4 2.006e-14
7069.13 2.016e-14
7070.87 2.0245e-14
7072.61 2.0296e-14
7074.35 2.0356e-14
7076.09 2.0434e-14
7077.83 2.0503e-14
7079.57 2.056e-14
7081.31 2.0624e-14
7083.05 2.0707e-14
7084.78 2.0816e-14
7086.52 2.0938e-14
7088.26 2.103e-14
7090.0 2.1068e-14
7091.74 2.1062e-14
7093.48 2.1003e-14
7095.22 2.0847e-14
7096.96 2.0607e-14
7098.69 2.0388e-14
7100.43 2.0249e-14
7102.17 2.0163e-14
7103.91 2.0098e-14
7105.65 2.0005e-14
7107.39 1.9874e-14
7109.13 1.9783e-14
7110.87 1.978e-14
7112.61 1.986e-14
7114.34 1.9995e-14
7116.08 2.0103e-14
7117.82 2.0142e-14
7119.56 2.0208e-14
7121.3 2.0352e-14
7123.04 2.0501e-14
7124.78 2.0597e-14
7126.52 2.064e-14
7128.26 2.064e-14
7129.99 2.0632e-14
7131.73 2.0641e-14
7133.47 2.0644e-14
7135.21 2.0613e-14
7136.95 2.0492e-14
7138.69 2.0253e-14
7140.43 1.9994e-14
7142.17 1.98e-14
7143.9 1.9655e-14
7145.64 1.9533e-14
7147.38 1.9412e-14
7149.12 1.9279e-14
7150.86 1.9189e-14
7152.6 1.9192e-14
7154.34 1.9245e-14
7156.08 1.9294e-14
7157.82 1.9333e-14
7159.55 1.9357e-14
7161.29 1.9363e-14
7163.03 1.9349e-14
7164.77 1.9321e-14
7166.51 1.9284e-14
7168.25 1.9202e-14
7169.99 1.9036e-14
7171.73 1.8807e-14
7173.47 1.8551e-14
7175.2 1.8322e-14
7176.94 1.8168e-14
7178.68 1.8069e-14
7180.42 1.7982e-14
7182.16 1.7894e-14
7183.9 1.7797e-14
7185.64 1.769e-14
7187.38 1.7579e-14
7189.11 1.742e-14
7190.85 1.7162e-14
7192.59 1.6909e-14
7194.33 1.6816e-14
7196.07 1.6859e-14
7197.81 1.6947e-14
7199.55 1.7034e-14
7201.29 1.709e-14
7203.03 1.716e-14
7204.76 1.733e-14
7206.5 1.7582e-14
7208.24 1.7844e-14
7209.98 1.8122e-14
7211.72 1.8452e-14
7213.46 1.884e-14
7215.2 1.9272e-14
7216.94 1.9686e-14
7218.68 1.999e-14
7220.41 2.014e-14
7222.15 2.0121e-14
7223.89 1.9989e-14
7225.63 1.9851e-14
7227.37 1.9729e-14
7229.11 1.9578e-14
7230.85 1.9367e-14
7232.59 1.9079e-14
7234.32 1.8712e-14
7236.06 1.8282e-14
7237.8 1.7843e-14
7239.54 1.7482e-14
7241.28 1.7241e-14
7243.02 1.7112e-14
7244.76 1.7075e-14
7246.5 1.7094e-14
7248.24 1.7142e-14
7249.97 1.7203e-14
7251.71 1.7277e-14
7253.45 1.7388e-14
7255.19 1.7524e-14
7256.93 1.7624e-14
7258.67 1.7688e-14
7260.41 1.7804e-14
7262.15 1.8006e-14
7263.89 1.8244e-14
7265.62 1.8452e-14
7267.36 1.853e-14
7269.1 1.8457e-14
7270.84 1.8371e-14
7272.58 1.8341e-14
7274.32 1.8287e-14
7276.06 1.8162e-14
7277.8 1.7974e-14
7279.53 1.7748e-14
7281.27 1.7533e-14
7283.01 1.738e-14
7284.75 1.7353e-14
7286.49 1.7458e-14
7288.23 1.7569e-14
7289.97 1.7582e-14
7291.71 1.7468e-14
7293.45 1.7239e-14
7295.18 1.7013e-14
7296.92 1.6891e-14
7298.66 1.6888e-14
7300.4 1.6991e-14
7302.14 1.7129e-14
7303.88 1.7239e-14
7305.62 1.7326e-14
7307.36 1.7402e-14
7309.1 1.7459e-14
7310.83 1.7505e-14
7312.57 1.7587e-14
7314.31 1.7745e-14
7316.05 1.7939e-14
7317.79 1.8128e-14
7319.53 1.8286e-14
7321.27 1.8398e-14
7323.01 1.8493e-14
7324.74 1.86e-14
7326.48 1.8681e-14
7328.22 1.869e-14
7329.96 1.8635e-14
7331.7 1.853e-14
7333.44 1.8394e-14
7335.18 1.8246e-14
7336.92 1.8109e-14
7338.66 1.8001e-14
7340.39 1.7951e-14
7342.13 1.7979e-14
7343.87 1.8001e-14
7345.61 1.7919e-14
7347.35 1.7809e-14
7349.09 1.7789e-14
7350.83 1.7834e-14
7352.57 1.7887e-14
7354.31 1.7955e-14
7356.04 1.8058e-14
7357.78 1.8181e-14
7359.52 1.83e-14
7361.26 1.8407e-14
7363.0 1.8501e-14
7364.74 1.8578e-14
7366.48 1.8632e-14
7368.22 1.8677e-14
7369.95 1.873e-14
7371.69 1.8795e-14
7373.43 1.8867e-14
7375.17 1.8914e-14
7376.91 1.8888e-14
7378.65 1.8804e-14
7380.39 1.8712e-14
7382.13 1.8596e-14
7383.87 1.841e-14
7385.6 1.818e-14
7387.34 1.7973e-14
7389.08 1.7821e-14
7390.82 1.7737e-14
7392.56 1.7712e-14
7394.3 1.7715e-14
7396.04 1.7731e-14
7397.78 1.776e-14
7399.52 1.7797e-14
7401.25 1.7835e-14
7402.99 1.7889e-14
7404.73 1.7992e-14
7406.47 1.8143e-14
7408.21 1.8304e-14
7409.95 1.8456e-14
7411.69 1.8591e-14
7413.43 1.8715e-14
7415.17 1.885e-14
7416.9 1.899e-14
7418.64 1.9098e-14
7420.38 1.9159e-14
7422.12 1.9185e-14
7423.86 1.9181e-14
7425.6 1.9141e-14
7427.34 1.9063e-14
7429.08 1.8941e-14
7430.81 1.8784e-14
7432.55 1.8622e-14
7434.29 1.848e-14
7436.03 1.8376e-14
7437.77 1.8295e-14
7439.51 1.8161e-14
7441.25 1.7952e-14
7442.99 1.7757e-14
7444.73 1.7637e-14
7446.46 1.7596e-14
7448.2 1.7625e-14
7449.94 1.7692e-14
7451.68 1.7771e-14
7453.42 1.7851e-14
7455.16 1.793e-14
7456.9 1.8027e-14
7458.64 1.8153e-14
7460.38 1.8317e-14
7462.11 1.8508e-14
7463.85 1.8666e-14
7465.59 1.8751e-14
7467.33 1.8802e-14
7469.07 1.885e-14
7470.81 1.8864e-14
7472.55 1.8823e-14
7474.29 1.8742e-14
7476.02 1.8634e-14
7477.76 1.8499e-14
7479.5 1.8344e-14
7481.24 1.8214e-14
7482.98 1.8138e-14
7484.72 1.804e-14
7486.46 1.7852e-14
7488.2 1.7618e-14
7489.94 1.7391e-14
7491.67 1.718e-14
7493.41 1.6991e-14
7495.15 1.6853e-14
7496.89 1.6786e-14
7498.63 1.6742e-14
7500.37 1.6675e-14
7502.11 1.6634e-14
7503.85 1.6675e-14
7505.59 1.6765e-14
7507.32 1.6856e-14
7509.06 1.6937e-14
7510.8 1.7007e-14
7512.54 1.7062e-14
7514.28 1.7102e-14
7516.02 1.7127e-14
7517.76 1.7139e-14
7519.5 1.7157e-14
7521.23 1.7203e-14
7522.97 1.7253e-14
7524.71 1.7274e-14
7526.45 1.7249e-14
7528.19 1.7169e-14
7529.93 1.7038e-14
7531.67 1.687e-14
7533.41 1.6666e-14
7535.15 1.6418e-14
7536.88 1.6184e-14
7538.62 1.6048e-14
7540.36 1.5944e-14
7542.1 1.574e-14
7543.84 1.548e-14
7545.58 1.5295e-14
7547.32 1.5184e-14
7549.06 1.5087e-14
7550.8 1.5007e-14
7552.53 1.4981e-14
7554.27 1.4999e-14
7556.01 1.5026e-14
7557.75 1.5058e-14
7559.49 1.5104e-14
7561.23 1.5169e-14
7562.97 1.5255e-14
7564.71 1.5366e-14
7566.44 1.5517e-14
7568.18 1.5669e-14
7569.92 1.5733e-14
7571.66 1.5726e-14
7573.4 1.5753e-14
7575.14 1.5829e-14
7576.88 1.5895e-14
7578.62 1.5938e-14
7580.36 1.599e-14
7582.09 1.6074e-14
7583.83 1.6201e-14
7585.57 1.6393e-14
7587.31 1.6686e-14
7589.05 1.7041e-14
7590.79 1.7338e-14
7592.53 1.7441e-14
7594.27 1.7204e-14
7596.01 1.6559e-14
7597.74 1.557e-14
7599.48 1.4278e-14
7601.22 1.2652e-14
7602.96 1.0857e-14
7604.7 9.3482e-15
7606.44 8.411e-15
7608.18 8.0366e-15
7609.92 8.1727e-15
7611.65 8.7235e-15
7613.39 9.5488e-15
7615.13 1.0472e-14
7616.87 1.1377e-14
7618.61 1.2306e-14
7620.35 1.3244e-14
7622.09 1.404e-14
7623.83 1.4552e-14
7625.57 1.4638e-14
7627.3 1.4258e-14
7629.04 1.3613e-14
7630.78 1.2917e-14
7632.52 1.2363e-14
7634.26 1.2075e-14
7636.0 1.1984e-14
7637.74 1.2005e-14
7639.48 1.2107e-14
7641.22 1.2258e-14
7642.95 1.2449e-14
7644.69 1.2664e-14
7646.43 1.2817e-14
7648.17 1.2854e-14
7649.91 1.2882e-14
7651.65 1.2998e-14
7653.39 1.3174e-14
7655.13 1.337e-14
7656.86 1.3588e-14
7658.6 1.3821e-14
7660.34 1.4047e-14
7662.08 1.4244e-14
7663.82 1.4422e-14
7665.56 1.4596e-14
7667.3 1.4745e-14
7669.04 1.4854e-14
7670.78 1.5004e-14
7672.51 1.5273e-14
7674.25 1.5602e-14
7675.99 1.5912e-14
7677.73 1.6208e-14
7679.47 1.6506e-14
7681.21 1.6787e-14
7682.95 1.7026e-14
7684.69 1.7216e-14
7686.43 1.7353e-14
7688.16 1.746e-14
7689.9 1.7562e-14
7691.64 1.7658e-14
7693.38 1.7737e-14
7695.12 1.7801e-14
7696.86 1.7854e-14
7698.6 1.7857e-14
7700.34 1.776e-14
7702.07 1.7595e-14
7703.81 1.7426e-14
7705.55 1.727e-14
7707.29 1.7118e-14
7709.03 1.6997e-14
7710.77 1.6941e-14
7712.51 1.6913e-14
7714.25 1.6846e-14
7715.99 1.6734e-14
7717.72 1.6606e-14
7719.46 1.6502e-14
7721.2 1.6474e-14
7722.94 1.6517e-14
7724.68 1.6591e-14
7726.42 1.6679e-14
7728.16 1.6782e-14
7729.9 1.6889e-14
7731.64 1.6983e-14
7733.37 1.7102e-14
7735.11 1.7335e-14
7736.85 1.7634e-14
7738.59 1.7841e-14
7740.33 1.7955e-14
7742.07 1.8099e-14
7743.81 1.83e-14
7745.55 1.8511e-14
7747.28 1.8676e-14
7749.02 1.8722e-14
7750.76 1.8675e-14
7752.5 1.8662e-14
7754.24 1.8726e-14
7755.98 1.8808e-14
7757.72 1.8862e-14
7759.46 1.8857e-14
7761.2 1.8775e-14
7762.93 1.8616e-14
7764.67 1.841e-14
7766.41 1.8231e-14
7768.15 1.8109e-14
7769.89 1.8012e-14
7771.63 1.7913e-14
7773.37 1.7792e-14
7775.11 1.7642e-14
7776.85 1.7486e-14
7778.58 1.7348e-14
7780.32 1.7249e-14
7782.06 1.7195e-14
7783.8 1.7145e-14
7785.54 1.7084e-14
7787.28 1.7059e-14
7789.02 1.7096e-14
7790.76 1.718e-14
7792.49 1.7293e-14
7794.23 1.742e-14
7795.97 1.7551e-14
7797.71 1.7701e-14
7799.45 1.7869e-14
7801.19 1.7995e-14
7802.93 1.8054e-14
7804.67 1.8123e-14
7806.41 1.826e-14
7808.14 1.8425e-14
7809.88 1.8581e-14
7811.62 1.8715e-14
7813.36 1.8816e-14
7815.1 1.8899e-14
7816.84 1.8969e-14
7818.58 1.8988e-14
7820.32 1.8925e-14
7822.06 1.881e-14
7823.79 1.8675e-14
7825.53 1.8508e-14
7827.27 1.8306e-14
7829.01 1.813e-14
7830.75 1.8032e-14
7832.49 1.797e-14
7834.23 1.789e-14
7835.97 1.7736e-14
7837.7 1.7467e-14
7839.44 1.7195e-14
7841.18 1.7036e-14
7842.92 1.6939e-14
7844.66 1.6824e-14
7846.4 1.668e-14
7848.14 1.6511e-14
7849.88 1.635e-14
7851.62 1.624e-14
7853.35 1.6196e-14
7855.09 1.6226e-14
7856.83 1.6332e-14
7858.57 1.6509e-14
7860.31 1.668e-14
7862.05 1.6752e-14
7863.79 1.6793e-14
7865.53 1.6919e-14
7867.27 1.7087e-14
7869.0 1.7204e-14
7870.74 1.7284e-14
7872.48 1.7377e-14
7874.22 1.7496e-14
7875.96 1.7642e-14
7877.7 1.7786e-14
7879.44 1.789e-14
7881.18 1.7942e-14
7882.91 1.7949e-14
7884.65 1.7934e-14
7886.39 1.7934e-14
7888.13 1.7938e-14
7889.87 1.7906e-14
7891.61 1.7826e-14
7893.35 1.7704e-14
7895.09 1.7502e-14
7896.83 1.7148e-14
7898.56 1.6742e-14
7900.3 1.6505e-14
7902.04 1.6422e-14
7903.78 1.6312e-14
7905.52 1.6135e-14
7907.26 1.5956e-14
7909.0 1.5802e-14
7910.74 1.5676e-14
7912.48 1.5568e-14
7914.21 1.5441e-14
7915.95 1.5299e-14
7917.69 1.5175e-14
7919.43 1.5094e-14
7921.17 1.5066e-14
7922.91 1.5105e-14
7924.65 1.5232e-14
7926.39 1.5413e-14
7928.12 1.5548e-14
7929.86 1.5622e-14
7931.6 1.5732e-14
7933.34 1.591e-14
7935.08 1.6099e-14
7936.82 1.6278e-14
7938.56 1.6482e-14
7940.3 1.6703e-14
7942.04 1.6862e-14
7943.77 1.6945e-14
7945.51 1.7046e-14
7947.25 1.7197e-14
7948.99 1.73e-14
7950.73 1.7309e-14
7952.47 1.7279e-14
7954.21 1.7248e-14
7955.95 1.7219e-14
7957.69 1.7187e-14
7959.42 1.7123e-14
7961.16 1.7009e-14
7962.9 1.6848e-14
7964.64 1.6659e-14
7966.38 1.6492e-14
7968.12 1.6372e-14
7969.86 1.6255e-14
7971.6 1.6108e-14
7973.33 1.5947e-14
7975.07 1.5788e-14
7976.81 1.5653e-14
7978.55 1.5552e-14
7980.29 1.547e-14
7982.03 1.5385e-14
7983.77 1.5279e-14
7985.51 1.5142e-14
7987.25 1.4999e-14
7988.98 1.4877e-14
7990.72 1.477e-14
7992.46 1.4673e-14
7994.2 1.4605e-14
7995.94 1.4581e-14
7997.68 1.4607e-14
7999.42 1.4683e-14
8001.16 1.4789e-14
8002.9 1.4902e-14
8004.63 1.5003e-14
8006.37 1.5082e-14
8008.11 1.5183e-14
8009.85 1.5349e-14
8011.59 1.5539e-14
8013.33 1.57e-14
8015.07 1.5833e-14
8016.81 1.5954e-14
8018.54 1.6066e-14
8020.28 1.6177e-14
8022.02 1.6307e-14
8023.76 1.6477e-14
8025.5 1.6608e-14
8027.24 1.6604e-14
8028.98 1.6528e-14
8030.72 1.6486e-14
8032.46 1.645e-14
8034.19 1.6354e-14
8035.93 1.6232e-14
8037.67 1.6143e-14
8039.41 1.608e-14
8041.15 1.6014e-14
8042.89 1.5917e-14
8044.63 1.5759e-14
8046.37 1.5577e-14
8048.11 1.5438e-14
8049.84 1.5308e-14
8051.58 1.51e-14
8053.32 1.4869e-14
8055.06 1.4734e-14
8056.8 1.468e-14
8058.54 1.4623e-14
8060.28 1.4536e-14
8062.02 1.4419e-14
8063.75 1.4289e-14
8065.49 1.4178e-14
8067.23 1.4093e-14
8068.97 1.4026e-14
8070.71 1.3987e-14
8072.45 1.3998e-14
8074.19 1.406e-14
8075.93 1.4156e-14
8077.67 1.4251e-14
8079.4 1.4286e-14
8081.14 1.4285e-14
8082.88 1.435e-14
8084.62 1.4485e-14
8086.36 1.4609e-14
8088.1 1.4697e-14
8089.84 1.4778e-14
8091.58 1.4868e-14
8093.32 1.4973e-14
8095.05 1.5092e-14
8096.79 1.5217e-14
8098.53 1.534e-14
8100.27 1.5467e-14
8102.01 1.558e-14
8103.75 1.5633e-14
8105.49 1.5628e-14
8107.23 1.5636e-14
8108.96 1.5676e-14
8110.7 1.5674e-14
8112.44 1.5602e-14
8114.18 1.5504e-14
8115.92 1.5401e-14
8117.66 1.5269e-14
8119.4 1.5094e-14
8121.14 1.4872e-14
8122.88 1.4617e-14
8124.61 1.4388e-14
8126.35 1.4209e-14
8128.09 1.4011e-14
8129.83 1.3759e-14
8131.57 1.3504e-14
8133.31 1.3279e-14
8135.05 1.3044e-14
8136.79 1.2792e-14
8138.53 1.2594e-14
8140.26 1.2493e-14
8142.0 1.2436e-14
8143.74 1.2374e-14
8145.48 1.2294e-14
8147.22 1.2191e-14
8148.96 1.2089e-14
8150.7 1.2013e-14
8152.44 1.1959e-14
8154.17 1.193e-14
8155.91 1.1962e-14
8157.65 1.2077e-14
8159.39 1.2226e-14
8161.13 1.2359e-14
8162.87 1.2457e-14
8164.61 1.2514e-14
8166.35 1.2552e-14
8168.09 1.2602e-14
8169.82 1.2694e-14
8171.56 1.2853e-14
8173.3 1.3079e-14
8175.04 1.3356e-14
8176.78 1.3606e-14
8178.52 1.375e-14
8180.26 1.3766e-14
8182.0 1.3659e-14
8183.74 1.3509e-14
8185.47 1.3406e-14
8187.21 1.3412e-14
8188.95 1.3561e-14
8190.69 1.3722e-14
8192.43 1.3739e-14
8194.17 1.3609e-14
8195.91 1.338e-14
8197.65 1.3123e-14
8199.38 1.2922e-14
8201.12 1.2756e-14
8202.86 1.2572e-14
8204.6 1.2387e-14
8206.34 1.2233e-14
8208.08 1.2118e-14
8209.82 1.204e-14
8211.56 1.1948e-14
8213.3 1.1777e-14
8215.03 1.1522e-14
8216.77 1.1206e-14
8218.51 1.0867e-14
8220.25 1.0551e-14
8221.99 1.0257e-14
8223.73 9.9572e-15
8225.47 9.6535e-15
8227.21 9.3617e-15
8228.95 9.0936e-15
8230.68 8.8621e-15
8232.42 8.6918e-15
8234.16 8.6078e-15
8235.9 8.665e-15
8237.64 8.9339e-15
8239.38 9.3676e-15
8241.12 9.8375e-15
8242.86 1.0258e-14
8244.59 1.0576e-14
8246.33 1.0794e-14
8248.07 1.0966e-14
8249.81 1.1125e-14
8251.55 1.1288e-14
8253.29 1.1438e-14
8255.03 1.1527e-14
8256.77 1.1526e-14
8258.51 1.1427e-14
8260.24 1.1251e-14
8261.98 1.1047e-14
8263.72 1.0864e-14
8265.46 1.0751e-14
8267.2 1.0711e-14
8268.94 1.069e-14
8270.68 1.0642e-14
8272.42 1.0541e-14
8274.16 1.0365e-14
8275.89 1.0096e-14
8277.63 9.7619e-15
8279.37 9.4543e-15
8281.11 9.2233e-15
8282.85 9.0375e-15
8284.59 8.8956e-15
8286.33 8.8581e-15
8288.07 8.9246e-15
8289.81 8.9837e-15
8291.54 8.975e-15
8293.28 8.9471e-15
8295.02 8.9311e-15
8296.76 8.9135e-15
8298.5 8.8925e-15
8300.24 8.8867e-15
8301.98 8.9071e-15
8303.72 8.9493e-15
8305.45 9.0044e-15
8307.19 9.0495e-15
8308.93 9.0775e-15
8310.67 9.1292e-15
8312.41 9.235e-15
8314.15 9.3898e-15
8315.89 9.577e-15
8317.63 9.7464e-15
8319.37 9.8647e-15
8321.1 9.9724e-15
8322.84 1.0107e-14
8324.58 1.0264e-14
8326.32 1.0434e-14
8328.06 1.0622e-14
8329.8 1.082e-14
8331.54 1.0985e-14
8333.28 1.108e-14
8335.02 1.1142e-14
8336.75 1.1209e-14
8338.49 1.1247e-14
8340.23 1.1221e-14
8341.97 1.113e-14
8343.71 1.0988e-14
8345.45 1.0886e-14
8347.19 1.0908e-14
8348.93 1.0964e-14
8350.66 1.0946e-14
8352.4 1.0863e-14
8354.14 1.075e-14
8355.88 1.0652e-14
8357.62 1.0613e-14
8359.36 1.061e-14
8361.1 1.0601e-14
8362.84 1.0557e-14
8364.58 1.0454e-14
8366.31 1.0318e-14
8368.05 1.019e-14
8369.79 1.0095e-14
8371.53 1.0051e-14
8373.27 1.0024e-14
8375.01 9.9642e-15
8376.75 9.9065e-15
8378.49 9.9153e-15
8380.23 9.9881e-15
8381.96 1.0097e-14
8383.7 1.0227e-14
8385.44 1.0366e-14
8387.18 1.0514e-14
8388.92 1.0682e-14
8390.66 1.0863e-14
8392.4 1.1049e-14
8394.14 1.1238e-14
8395.87 1.1434e-14
8397.61 1.1653e-14
8399.35 1.192e-14
8401.09 1.2186e-14
8402.83 1.2356e-14
8404.57 1.2446e-14
8406.31 1.2543e-14
8408.05 1.2665e-14
8409.79 1.279e-14
8411.52 1.2886e-14
8413.26 1.2912e-14
8415.0 1.2869e-14
8416.74 1.2789e-14
8418.48 1.27e-14
8420.22 1.2632e-14
8421.96 1.256e-14
8423.7 1.2403e-14
8425.44 1.218e-14
8427.17 1.2012e-14
8428.91 1.193e-14
8430.65 1.188e-14
8432.39 1.1827e-14
8434.13 1.1756e-14
8435.87 1.1667e-14
8437.61 1.1582e-14
8439.35 1.1505e-14
8441.08 1.1405e-14
8442.82 1.1296e-14
8444.56 1.1241e-14
8446.3 1.1271e-14
8448.04 1.1366e-14
8449.78 1.1492e-14
8451.52 1.1588e-14
8453.26 1.1633e-14
8455.0 1.1676e-14
8456.73 1.1755e-14
8458.47 1.1886e-14
8460.21 1.2076e-14
8461.95 1.2321e-14
8463.69 1.2608e-14
8465.43 1.2909e-14
8467.17 1.3194e-14
8468.91 1.3424e-14
8470.65 1.3584e-14
8472.38 1.3727e-14
8474.12 1.389e-14
8475.86 1.4049e-14
8477.6 1.4183e-14
8479.34 1.4303e-14
8481.08 1.4409e-14
8482.82 1.4475e-14
8484.56 1.4488e-14
8486.29 1.4498e-14
8488.03 1.4532e-14
8489.77 1.4511e-14
8491.51 1.4385e-14
8493.25 1.4252e-14
8494.99 1.4192e-14
8496.73 1.4174e-14
8498.47 1.4151e-14
8500.21 1.4052e-14
8501.94 1.383e-14
8503.68 1.3576e-14
8505.42 1.3387e-14
8507.16 1.3251e-14
8508.9 1.3145e-14
8510.64 1.3056e-14
8512.38 1.2967e-14
8514.12 1.2885e-14
8515.86 1.2818e-14
8517.59 1.2732e-14
8519.33 1.2602e-14
8521.07 1.2497e-14
8522.81 1.2494e-14
8524.55 1.2547e-14
8526.29 1.2591e-14
8528.03 1.2649e-14
8529.77 1.2761e-14
8531.5 1.2903e-14
8533.24 1.3043e-14
8534.98 1.3181e-14
8536.72 1.3323e-14
8538.46 1.3508e-14
8540.2 1.3775e-14
8541.94 1.4072e-14
8543.68 1.4319e-14
8545.42 1.4519e-14
8547.15 1.4707e-14
8548.89 1.4886e-14
8550.63 1.5053e-14
8552.37 1.5202e-14
8554.11 1.5319e-14
8555.85 1.5406e-14
8557.59 1.547e-14
8559.33 1.5516e-14
8561.07 1.5542e-14
8562.8 1.5546e-14
8564.54 1.5525e-14
8566.28 1.5451e-14
8568.02 1.5283e-14
8569.76 1.5081e-14
8571.5 1.497e-14
8573.24 1.4935e-14
8574.98 1.4877e-14
8576.71 1.4752e-14
8578.45 1.4547e-14
8580.19 1.4304e-14
8581.93 1.4115e-14
8583.67 1.3976e-14
8585.41 1.3798e-14
8587.15 1.3595e-14
8588.89 1.3469e-14
8590.63 1.3406e-14
8592.36 1.3292e-14
8594.1 1.3124e-14
8595.84 1.3017e-14
8597.58 1.2985e-14
8599.32 1.2941e-14
8601.06 1.2862e-14
8602.8 1.2798e-14
8604.54 1.2767e-14
8606.28 1.276e-14
8608.01 1.2771e-14
8609.75 1.2798e-14
8611.49 1.284e-14
8613.23 1.2891e-14
8614.97 1.2967e-14
8616.71 1.3109e-14
8618.45 1.3317e-14
8620.19 1.3513e-14
8621.92 1.3669e-14
8623.66 1.3843e-14
8625.4 1.4062e-14
8627.14 1.4295e-14
8628.88 1.4528e-14
8630.62 1.478e-14
8632.36 1.5042e-14
8634.1 1.5241e-14
8635.84 1.5343e-14
8637.57 1.5402e-14
8639.31 1.5455e-14
8641.05 1.5477e-14
8642.79 1.5465e-14
8644.53 1.5465e-14
8646.27 1.5503e-14
8648.01 1.5542e-14
8649.75 1.5547e-14
8651.49 1.5503e-14
8653.22 1.5402e-14
8654.96 1.5263e-14
8656.7 1.5101e-14
8658.44 1.4891e-14
8660.18 1.463e-14
8661.92 1.4407e-14
8663.66 1.4284e-14
8665.4 1.419e-14
8667.13 1.4052e-14
8668.87 1.3861e-14
8670.61 1.3627e-14
8672.35 1.3413e-14
8674.09 1.3274e-14
8675.83 1.3172e-14
8677.57 1.3063e-14
8679.31 1.2941e-14
8681.05 1.2809e-14
8682.78 1.2714e-14
8684.52 1.2699e-14
8686.26 1.2727e-14
8688.0 1.2749e-14
8689.74 1.2751e-14
8691.48 1.2733e-14
8693.22 1.2753e-14
8694.96 1.2878e-14
8696.7 1.3047e-14
8698.43 1.3179e-14
8700.17 1.3288e-14
8701.91 1.3413e-14
8703.65 1.357e-14
8705.39 1.3768e-14
8707.13 1.3985e-14
8708.87 1.4189e-14
8710.61 1.4391e-14
8712.34 1.4617e-14
8714.08 1.4835e-14
8715.82 1.4998e-14
8717.56 1.5112e-14
8719.3 1.5196e-14
8721.04 1.5279e-14
8722.78 1.5392e-14
8724.52 1.5473e-14
8726.26 1.5429e-14
8727.99 1.5278e-14
8729.73 1.509e-14
8731.47 1.4924e-14
8733.21 1.4834e-14
8734.95 1.4795e-14
8736.69 1.4742e-14
8738.43 1.4626e-14
8740.17 1.441e-14
8741.91 1.4144e-14
8743.64 1.3937e-14
8745.38 1.3796e-14
8747.12 1.3655e-14
8748.86 1.351e-14
8750.6 1.3391e-14
8752.34 1.3302e-14
8754.08 1.3234e-14
8755.82 1.3149e-14
8757.55 1.2983e-14
8759.29 1.2745e-14
8761.03 1.2508e-14
8762.77 1.2314e-14
8764.51 1.2181e-14
8766.25 1.2101e-14
8767.99 1.2036e-14
8769.73 1.1978e-14
8771.47 1.195e-14
8773.2 1.1963e-14
8774.94 1.2013e-14
8776.68 1.2078e-14
8778.42 1.2107e-14
8780.16 1.2106e-14
8781.9 1.2176e-14
8783.64 1.2339e-14
8785.38 1.2501e-14
8787.12 1.2624e-14
8788.85 1.2761e-14
8790.59 1.2928e-14
8792.33 1.3089e-14
8794.07 1.3225e-14
8795.81 1.3339e-14
8797.55 1.3435e-14
8799.29 1.3509e-14
8801.03 1.3556e-14
8802.76 1.3562e-14
8804.5 1.3522e-14
8806.24 1.3444e-14
8807.98 1.3339e-14
8809.72 1.3228e-14
8811.46 1.312e-14
8813.2 1.3001e-14
8814.94 1.2859e-14
8816.68 1.2681e-14
8818.41 1.2473e-14
8820.15 1.2301e-14
8821.89 1.2207e-14
8823.63 1.2138e-14
8825.37 1.2051e-14
8827.11 1.1981e-14
8828.85 1.1952e-14
8830.59 1.1933e-14
8832.33 1.1898e-14
8834.06 1.1847e-14
8835.8 1.1788e-14
8837.54 1.1729e-14
8839.28 1.1676e-14
8841.02 1.1597e-14
8842.76 1.1465e-14
8844.5 1.13e-14
8846.24 1.1131e-14
8847.97 1.1013e-14
8849.71 1.0987e-14
8851.45 1.098e-14
8853.19 1.0916e-14
8854.93 1.0861e-14
8856.67 1.0894e-14
8858.41 1.0953e-14
8860.15 1.0969e-14
8861.89 1.1007e-14
8863.62 1.1146e-14
8865.36 1.1337e-14
8867.1 1.1508e-14
8868.84 1.1649e-14
8870.58 1.1768e-14
8872.32 1.189e-14
8874.06 1.2044e-14
8875.8 1.2229e-14
8877.54 1.2437e-14
8879.27 1.264e-14
8881.01 1.2805e-14
8882.75 1.2952e-14
8884.49 1.3117e-14
8886.23 1.3289e-14
8887.97 1.3444e-14
8889.71 1.3585e-14
8891.45 1.373e-14
8893.18 1.3825e-14
8894.92 1.3788e-14
8896.66 1.3676e-14
8898.4 1.3614e-14
8900.14 1.3568e-14
8901.88 1.3427e-14
8903.62 1.3228e-14
8905.36 1.3085e-14
8907.1 1.2974e-14
8908.83 1.2787e-14
8910.57 1.2582e-14
8912.31 1.2512e-14
8914.05 1.2545e-14
8915.79 1.2531e-14
8917.53 1.2422e-14
8919.27 1.2248e-14
8921.01 1.201e-14
8922.75 1.1692e-14
8924.48 1.136e-14
8926.22 1.1153e-14
8927.96 1.106e-14
8929.7 1.0946e-14
8931.44 1.0755e-14
8933.18 1.0499e-14
8934.92 1.0233e-14
8936.66 1.0061e-14
8938.39 1.0005e-14
8940.13 9.988e-15
8941.87 9.9793e-15
8943.61 1.0002e-14
8945.35 1.0059e-14
8947.09 1.0131e-14
8948.83 1.0206e-14
8950.57 1.0271e-14
8952.31 1.0318e-14
8954.04 1.0336e-14
8955.78 1.0344e-14
8957.52 1.0397e-14
8959.26 1.0525e-14
8961.0 1.0721e-14
8962.74 1.0941e-14
8964.48 1.108e-14
8966.22 1.1089e-14
8967.96 1.102e-14
8969.69 1.094e-14
8971.43 1.0936e-14
8973.17 1.1045e-14
8974.91 1.1184e-14
8976.65 1.1282e-14
8978.39 1.1301e-14
8980.13 1.1232e-14
8981.87 1.1134e-14
8983.6 1.1053e-14
8985.34 1.0983e-14
8987.08 1.0898e-14
8988.82 1.0728e-14
8990.56 1.0423e-14
8992.3 9.9865e-15
8994.04 9.4765e-15
8995.78 9.1114e-15
8997.52 9.0494e-15
8999.25 9.2056e-15
9000.99 9.4529e-15
9002.73 9.6208e-15
9004.47 9.5755e-15
9006.21 9.3735e-15
9007.95 9.1025e-15
9009.69 8.8271e-15
9011.43 8.6102e-15
9013.17 8.491e-15
9014.9 8.4847e-15
9016.64 8.54e-15
9018.38 8.5956e-15
9020.12 8.615e-15
9021.86 8.5764e-15
9023.6 8.5149e-15
9025.34 8.4763e-15
9027.08 8.4656e-15
9028.81 8.4817e-15
9030.55 8.5408e-15
9032.29 8.6568e-15
9034.03 8.8135e-15
9035.77 8.9877e-15
9037.51 9.1811e-15
9039.25 9.3988e-15
9040.99 9.6084e-15
9042.73 9.7716e-15
9044.46 9.9024e-15
9046.2 1.003e-14
9047.94 1.0136e-14
9049.68 1.0189e-14
9051.42 1.0225e-14
9053.16 1.0299e-14
9054.9 1.042e-14
9056.64 1.0584e-14
9058.38 1.073e-14
9060.11 1.0772e-14
9061.85 1.0752e-14
9063.59 1.0761e-14
9065.33 1.0766e-14
9067.07 1.0676e-14
9068.81 1.0519e-14
9070.55 1.0381e-14
9072.29 1.027e-14
9074.02 1.016e-14
9075.76 1.0032e-14
9077.5 9.8622e-15
9079.24 9.6967e-15
9080.98 9.6242e-15
9082.72 9.6108e-15
9084.46 9.5421e-15
9086.2 9.4132e-15
9087.94 9.2914e-15
9089.67 9.208e-15
9091.41 9.1751e-15
9093.15 9.1551e-15
9094.89 9.0618e-15
9096.63 8.9132e-15
9098.37 8.825e-15
9100.11 8.8029e-15
9101.85 8.7462e-15
9103.59 8.6581e-15
9105.32 8.6485e-15
9107.06 8.7106e-15
9108.8 8.7124e-15
9110.54 8.6389e-15
9112.28 8.6032e-15
9114.02 8.6663e-15
9115.76 8.8328e-15
9117.5 9.0644e-15
9119.23 9.2622e-15
9120.97 9.3685e-15
9122.71 9.3833e-15
9124.45 9.3483e-15
9126.19 9.3719e-15
9127.93 9.493e-15
9129.67 9.6345e-15
9131.41 9.7269e-15
9133.15 9.7057e-15
9134.88 9.5837e-15
9136.62 9.5293e-15
9138.36 9.6379e-15
9140.1 9.8453e-15
9141.84 1.0096e-14
9143.58 1.0363e-14
9145.32 1.062e-14
9147.06 1.0862e-14
9148.8 1.1067e-14
9150.53 1.1168e-14
9152.27 1.1123e-14
9154.01 1.0947e-14
9155.75 1.0678e-14
9157.49 1.038e-14
9159.23 1.0122e-14
9160.97 9.9749e-15
9162.71 9.975e-15
9164.45 1.0056e-14
9166.18 1.0148e-14
9167.92 1.0235e-14
9169.66 1.0289e-14
9171.4 1.0208e-14
9173.14 9.9342e-15
9174.88 9.5905e-15
9176.62 9.3057e-15
9178.36 9.1121e-15
9180.09 9.0236e-15
9181.83 9.0217e-15
9183.57 9.0775e-15
9185.31 9.2017e-15
9187.05 9.3946e-15
9188.79 9.5644e-15
9190.53 9.6273e-15
9192.27 9.6331e-15
9194.01 9.6514e-15
9195.74 9.6924e-15
9197.48 9.7566e-15
9199.22 9.8417e-15
9200.96 9.9413e-15
9202.7 1.0037e-14
9204.44 1.0112e-14
9206.18 1.0188e-14
9207.92 1.0295e-14
9209.66 1.039e-14
9211.39 1.0418e-14
9213.13 1.0433e-14
9214.87 1.0518e-14
9216.61 1.0626e-14
9218.35 1.0681e-14
9220.09 1.0729e-14
9221.83 1.0852e-14
9223.57 1.1033e-14
9225.3 1.1222e-14
9227.04 1.1383e-14
9228.78 1.1486e-14
9230.52 1.1524e-14
9232.26 1.1503e-14
9234.0 1.1474e-14
9235.74 1.1511e-14
9237.48 1.1551e-14
9239.22 1.1465e-14
9240.95 1.1289e-14
9242.69 1.1142e-14
9244.43 1.1056e-14
9246.17 1.1019e-14
9247.91 1.0992e-14
9249.65 1.0905e-14
9251.39 1.0803e-14
9253.13 1.0808e-14
9254.87 1.0897e-14
9256.6 1.0959e-14
9258.34 1.0929e-14
9260.08 1.0766e-14
9261.82 1.0526e-14
9263.56 1.0341e-14
9265.3 1.0228e-14
9267.04 1.01e-14
9268.78 9.9295e-15
9270.51 9.7449e-15
9272.25 9.5617e-15
9273.99 9.3922e-15
9275.73 9.2259e-15
9277.47 9.0268e-15
9279.21 8.7817e-15
9280.95 8.4997e-15
9282.69 8.2192e-15
9284.43 8.0147e-15
9286.16 7.9109e-15
9287.9 7.8671e-15
9289.64 7.8432e-15
9291.38 7.7993e-15
9293.12 7.7274e-15
9294.86 7.6687e-15
9296.6 7.6605e-15
9298.34 7.7381e-15
9300.08 7.8894e-15
9301.81 8.01e-15
9303.55 8.0628e-15
9305.29 8.1516e-15
9307.03 8.3138e-15
9308.77 8.4358e-15
9310.51 8.4843e-15
9312.25 8.6229e-15
9313.99 8.8926e-15
9315.72 9.025e-15
9317.46 8.892e-15
9319.2 8.7589e-15
9320.94 8.7655e-15
9322.68 8.6462e-15
9324.42 8.2704e-15
9326.16 7.9436e-15
9327.9 7.8699e-15
9329.64 7.8745e-15
9331.37 7.8195e-15
9333.11 7.7832e-15
9334.85 7.8055e-15
9336.59 7.7638e-15
9338.33 7.5669e-15
9340.07 7.2445e-15
9341.81 6.8604e-15
9343.55 6.5717e-15
9345.29 6.5e-15
9347.02 6.5351e-15
9348.76 6.5641e-15
9350.5 6.6475e-15
9352.24 6.8363e-15
9353.98 7.0726e-15
9355.72 7.2818e-15
9357.46 7.3453e-15
9359.2 7.1726e-15
9360.93 6.8584e-15
9362.67 6.5295e-15
9364.41 6.2634e-15
9366.15 6.1139e-15
9367.89 6.0367e-15
9369.63 5.9629e-15
9371.37 5.8327e-15
9373.11 5.6033e-15
9374.85 5.3396e-15
9376.58 5.1332e-15
9378.32 5.0582e-15
9380.06 5.1746e-15
9381.8 5.3856e-15
9383.54 5.5531e-15
9385.28 5.7843e-15
9387.02 6.2436e-15
9388.76 6.8182e-15
9390.5 7.3129e-15
9392.23 7.7102e-15
9393.97 8.052e-15
9395.71 8.3262e-15
9397.45 8.5105e-15
9399.19 8.596e-15
9400.93 8.5812e-15
9402.67 8.4892e-15
9404.41 8.3553e-15
9406.14 8.2209e-15
9407.88 8.1282e-15
9409.62 8.0861e-15
9411.36 8.0837e-15
9413.1 8.1128e-15
9414.84 8.1641e-15
9416.58 8.2482e-15
9418.32 8.3841e-15
9420.06 8.5756e-15
9421.79 8.8126e-15
9423.53 9.0483e-15
9425.27 9.2239e-15
9427.01 9.2328e-15
9428.75 8.9315e-15
9430.49 8.4293e-15
9432.23 8.032e-15
9433.97 7.8578e-15
9435.71 7.864e-15
9437.44 7.9694e-15
9439.18 8.0552e-15
9440.92 8.0154e-15
9442.66 7.7682e-15
9444.4 7.3524e-15
9446.14 6.9252e-15
9447.88 6.6314e-15
9449.62 6.5975e-15
9451.35 6.8023e-15
9453.09 7.0519e-15
9454.83 7.1747e-15
9456.57 7.0252e-15
9458.31 6.6366e-15
9460.05 6.3039e-15
9461.79 6.1747e-15
9463.53 6.1586e-15
9465.27 6.2034e-15
9467.0 6.3142e-15
9468.74 6.4708e-15
9470.48 6.6304e-15
9472.22 6.7678e-15
9473.96 6.8863e-15
9475.7 6.9937e-15
9477.44 7.1114e-15
9479.18 7.2318e-15
9480.92 7.2722e-15
9482.65 7.2089e-15
9484.39 7.154e-15
9486.13 7.1886e-15
9487.87 7.3049e-15
9489.61 7.4886e-15
9491.35 7.7357e-15
9493.09 8.0026e-15
9494.83 8.157e-15
9496.56 8.1032e-15
9498.3 7.84e-15
9500.04 7.4291e-15
9501.78 7.076e-15
9503.52 6.9619e-15
9505.26 7.1454e-15
9507.0 7.6188e-15
9508.74 8.2145e-15
9510.48 8.7621e-15
9512.21 9.2267e-15
9513.95 9.5746e-15
9515.69 9.7173e-15
9517.43 9.5878e-15
9519.17 9.1288e-15
9520.91 8.3494e-15
9522.65 7.4931e-15
9524.39 6.8175e-15
9526.13 6.478e-15
9527.86 6.5546e-15
9529.6 6.8419e-15
9531.34 7.0965e-15
9533.08 7.3112e-15
9534.82 7.5165e-15
9536.56 7.6583e-15
9538.3 7.6902e-15
9540.04 7.686e-15
9541.77 7.7347e-15
9543.51 7.7699e-15
9545.25 7.7007e-15
9546.99 7.5875e-15
9548.73 7.5202e-15
9550.47 7.4644e-15
9552.21 7.3581e-15
9553.95 7.2355e-15
9555.69 7.1551e-15
9557.42 7.0912e-15
9559.16 6.9954e-15
9560.9 6.914e-15
9562.64 6.9197e-15
9564.38 6.9869e-15
9566.12 7.0583e-15
9567.86 7.0924e-15
9569.6 7.0537e-15
9571.34 7.0204e-15
9573.07 7.1189e-15
9574.81 7.3237e-15
9576.55 7.5341e-15
9578.29 7.7268e-15
9580.03 7.9161e-15
9581.77 8.0581e-15
9583.51 8.0862e-15
9585.25 8.0089e-15
9586.98 7.8746e-15
9588.72 7.7474e-15
9590.46 7.7072e-15
9592.2 7.7092e-15
9593.94 7.6232e-15
9595.68 7.463e-15
9597.42 7.338e-15
9599.16 7.3425e-15
9600.9 7.5647e-15
9602.63 7.946e-15
9604.37 8.2978e-15
9606.11 8.5424e-15
9607.85 8.7106e-15
9609.59 8.795e-15
9611.33 8.7493e-15
9613.07 8.6467e-15
9614.81 8.6817e-15
9616.55 8.8692e-15
9618.28 9.0287e-15
9620.02 9.0462e-15
9621.76 8.8786e-15
9623.5 8.564e-15
9625.24 8.2567e-15
9626.98 8.0372e-15
9628.72 7.8687e-15
9630.46 7.7517e-15
9632.19 7.7423e-15
9633.93 7.8362e-15
9635.67 7.9486e-15
9637.41 8.012e-15
9639.15 7.997e-15
9640.89 7.8812e-15
9642.63 7.6444e-15
9644.37 7.3282e-15
9646.11 7.0823e-15
9647.84 7.0012e-15
9649.58 7.0703e-15
9651.32 7.2276e-15
9653.06 7.3025e-15
9654.8 7.2189e-15
9656.54 7.1598e-15
9658.28 7.2389e-15
9660.02 7.3562e-15
9661.76 7.4384e-15
9663.49 7.5059e-15
9665.23 7.5695e-15
9666.97 7.5936e-15
9668.71 7.5801e-15
9670.45 7.654e-15
9672.19 7.8995e-15
9673.93 8.2415e-15
9675.67 8.596e-15
9677.4 8.9084e-15
9679.14 9.1363e-15
9680.88 9.2895e-15
9682.62 9.3859e-15
9684.36 9.4124e-15
9686.1 9.3702e-15
9687.84 9.3271e-15
9689.58 9.343e-15
9691.32 9.4091e-15
9693.05 9.5007e-15
9694.79 9.5604e-15
9696.53 9.5393e-15
9698.27 9.4933e-15
9700.01 9.4858e-15
9701.75 9.4941e-15
9703.49 9.485e-15
9705.23 9.4466e-15
9706.97 9.3719e-15
9708.7 9.3036e-15
9710.44 9.2857e-15
9712.18 9.2425e-15
9713.92 9.0845e-15
9715.66 8.8504e-15
9717.4 8.6114e-15
9719.14 8.4181e-15
9720.88 8.3083e-15
9722.61 8.2896e-15
9724.35 8.3523e-15
9726.09 8.3682e-15
9727.83 8.1865e-15
9729.57 7.893e-15
9731.31 7.6516e-15
9733.05 7.528e-15
9734.79 7.5483e-15
9736.53 7.6301e-15
9738.26 7.6483e-15
9740.0 7.5695e-15
9741.74 7.3995e-15
9743.48 7.2522e-15
9745.22 7.2946e-15
9746.96 7.4476e-15
9748.7 7.5064e-15
9750.44 7.4711e-15
9752.18 7.4501e-15
9753.91 7.4531e-15
9755.65 7.439e-15
9757.39 7.4288e-15
9759.13 7.4781e-15
9760.87 7.575e-15
9762.61 7.662e-15
9764.35 7.7471e-15
9766.09 7.8855e-15
9767.82 8.0627e-15
9769.56 8.211e-15
9771.3 8.3274e-15
9773.04 8.4598e-15
9774.78 8.6144e-15
9776.52 8.7636e-15
9778.26 8.8855e-15
9780.0 8.9631e-15
9781.74 8.9839e-15
9783.47 8.9403e-15
9785.21 8.857e-15
9786.95 8.7931e-15
9788.69 8.7782e-15
9790.43 8.8087e-15
9792.17 8.8609e-15
9793.91 8.8853e-15
9795.65 8.8603e-15
9797.39 8.8063e-15
9799.12 8.7411e-15
9800.86 8.6795e-15
9802.6 8.63e-15
9804.34 8.5888e-15
9806.08 8.5523e-15
9807.82 8.5183e-15
9809.56 8.489e-15
9811.3 8.4771e-15
9813.03 8.4846e-15
9814.77 8.4902e-15
9816.51 8.4857e-15
9818.25 8.4997e-15
9819.99 8.5285e-15
9821.73 8.4881e-15
9823.47 8.346e-15
9825.21 8.1952e-15
9826.95 8.1033e-15
9828.68 8.0594e-15
9830.42 8.0528e-15
9832.16 8.088e-15
9833.9 8.1529e-15
9835.64 8.1892e-15
9837.38 8.1674e-15
9839.12 8.1524e-15
9840.86 8.2016e-15
9842.6 8.3413e-15
9844.33 8.5596e-15
9846.07 8.6919e-15
9847.81 8.6249e-15
9849.55 8.5127e-15
9851.29 8.5021e-15
9853.03 8.5678e-15
9854.77 8.6778e-15
9856.51 8.8788e-15
9858.24 9.1904e-15
9859.98 9.4671e-15
9861.72 9.583e-15
9863.46 9.6553e-15
9865.2 9.8119e-15
9866.94 1.0009e-14
9868.68 1.0183e-14
9870.42 1.0317e-14
9872.16 1.0401e-14
9873.89 1.0439e-14
9875.63 1.0445e-14
9877.37 1.0463e-14
9879.11 1.0538e-14
9880.85 1.0633e-14
9882.59 1.0694e-14
9884.33 1.0729e-14
9886.07 1.0757e-14
9887.81 1.0725e-14
9889.54 1.0573e-14
9891.28 1.0405e-14
9893.02 1.0352e-14
9894.76 1.0422e-14
9896.5 1.058e-14
9898.24 1.0672e-14
9899.98 1.0516e-14
9901.72 1.0251e-14
9903.45 1.0133e-14
9905.19 1.0111e-14
9906.93 1.0016e-14
9908.67 9.8837e-15
9910.41 9.8338e-15
9912.15 9.807e-15
9913.89 9.6711e-15
9915.63 9.4791e-15
9917.37 9.3648e-15
9919.1 9.3477e-15
9920.84 9.3963e-15
9922.58 9.4042e-15
9924.32 9.2161e-15
9926.06 8.9079e-15
9927.8 8.7051e-15
9929.54 8.6191e-15
9931.28 8.5185e-15
9933.02 8.4171e-15
9934.75 8.426e-15
9936.49 8.5248e-15
9938.23 8.6026e-15
9939.97 8.6462e-15
9941.71 8.7041e-15
9943.45 8.8569e-15
9945.19 9.2357e-15
9946.93 9.7067e-15
9948.66 9.8734e-15
9950.4 9.717e-15
9952.14 9.6031e-15
9953.88 9.6756e-15
9955.62 9.844e-15
9957.36 1.006e-14
9959.1 1.0312e-14
9960.84 1.0545e-14
9962.58 1.0667e-14
9964.31 1.0666e-14
9966.05 1.0639e-14
9967.79 1.0645e-14
9969.53 1.0669e-14
9971.27 1.0737e-14
9973.01 1.0945e-14
9974.75 1.1266e-14
9976.49 1.1471e-14
9978.23 1.1457e-14
9979.96 1.1349e-14
9981.7 1.1241e-14
9983.44 1.1157e-14
9985.18 1.1117e-14
9986.92 1.1119e-14
9988.66 1.1151e-14
9990.4 1.1188e-14
9992.14 1.1201e-14
9993.87 1.1131e-14
9995.61 1.0966e-14
9997.35 1.0807e-14
9999.09 1.0727e-14
10000.83 1.0729e-14
10002.57 1.0787e-14
10004.31 1.0798e-14
10006.05 1.0688e-14
10007.79 1.0474e-14
10009.52 1.0199e-14
10011.26 9.96e-15
10013.0 9.8313e-15
10014.74 9.7755e-15
10016.48 9.7501e-15
10018.22 9.7635e-15
10019.96 9.8081e-15
10021.7 9.8079e-15
10023.44 9.7001e-15
10025.17 9.4844e-15
10026.91 9.188e-15
10028.65 8.9121e-15
10030.39 8.7508e-15
10032.13 8.6986e-15
10033.87 8.7258e-15
10035.61 8.7818e-15
10037.35 8.8153e-15
10039.08 8.8263e-15
10040.82 8.8271e-15
10042.56 8.8119e-15
10044.3 8.779e-15
10046.04 8.7928e-15
10047.78 8.9168e-15
10049.52 9.0554e-15
10051.26 9.0918e-15
10053.0 9.1216e-15
10054.73 9.2757e-15
10056.47 9.4597e-15
10058.21 9.5352e-15
10059.95 9.5433e-15
10061.69 9.5708e-15
10063.43 9.6191e-15
10065.17 9.6667e-15
10066.91 9.7314e-15
10068.65 9.8363e-15
10070.38 9.9552e-15
10072.12 1.0047e-14
10073.86 1.0079e-14
10075.6 1.002e-14
10077.34 9.9217e-15
10079.08 9.8741e-15
10080.82 9.8104e-15
10082.56 9.5928e-15
10084.3 9.3254e-15
10086.03 9.225e-15
10087.77 9.2526e-15
10089.51 9.2432e-15
10091.25 9.1546e-15
10092.99 8.9993e-15
10094.73 8.8735e-15
10096.47 8.9341e-15
10098.21 9.101e-15
10099.94 9.1433e-15
10101.68 9.0111e-15
10103.42 8.7688e-15
10105.16 8.5375e-15
10106.9 8.4949e-15
10108.64 8.5856e-15
10110.38 8.5658e-15
10112.12 8.3517e-15
10113.86 7.9868e-15
10115.59 7.6002e-15
10117.33 7.4133e-15
10119.07 7.4602e-15
10120.81 7.5732e-15
10122.55 7.6807e-15
10124.29 7.8212e-15
10126.03 7.9397e-15
10127.77 7.8874e-15
10129.51 7.6461e-15
10131.24 7.3346e-15
10132.98 7.1039e-15
10134.72 7.1681e-15
10136.46 7.4921e-15
10138.2 7.6665e-15
10139.94 7.5407e-15
10141.68 7.3737e-15
10143.42 7.3004e-15
10145.15 7.2577e-15
10146.89 7.2261e-15
10148.63 7.2321e-15
10150.37 7.3063e-15
10152.11 7.5193e-15
10153.85 7.8503e-15
10155.59 8.0815e-15
10157.33 8.1175e-15
10159.07 8.1482e-15
10160.8 8.279e-15
10162.54 8.3967e-15
10164.28 8.433e-15
10166.02 8.4324e-15
10167.76 8.4331e-15
10169.5 8.4667e-15
10171.24 8.5418e-15
10172.98 8.5689e-15
10174.72 8.5179e-15
10176.45 8.5979e-15
10178.19 8.9181e-15
10179.93 9.1985e-15
10181.67 9.2233e-15
10183.41 9.0984e-15
10185.15 8.946e-15
10186.89 8.8734e-15
10188.63 8.9412e-15
10190.36 8.9322e-15
10192.1 8.6868e-15
10193.84 8.5131e-15
10195.58 8.6707e-15
10197.32 8.9161e-15
10199.06 8.9919e-15
10200.8 8.9122e-15
10202.54 8.7299e-15
10204.28 8.4977e-15
10206.01 8.278e-15
10207.75 8.1437e-15
10209.49 8.1463e-15
10211.23 8.1647e-15
10212.97 8.0684e-15
10214.71 7.9965e-15
10216.45 8.1094e-15
10218.19 8.3025e-15
10219.93 8.4237e-15
10221.66 8.3931e-15
10223.4 8.1633e-15
10225.14 7.8138e-15
10226.88 7.464e-15
10228.62 7.1924e-15
10230.36 7.0547e-15
10232.1 7.046e-15
10233.84 7.1322e-15
10235.57 7.2198e-15
10237.31 7.2028e-15
10239.05 7.1174e-15
10240.79 7.0501e-15
10242.53 7.0498e-15
10244.27 7.1494e-15
10246.01 7.2854e-15
10247.75 7.358e-15
10249.49 7.3368e-15
10251.22 7.2193e-15
10252.96 7.1263e-15
10254.7 7.2448e-15
10256.44 7.4573e-15
10258.18 7.4825e-15
10259.92 7.3967e-15
10261.66 7.4717e-15
10263.4 7.6672e-15
10265.14 7.7717e-15
10266.87 7.7497e-15
10268.61 7.6596e-15
10270.35 7.6155e-15
10272.09 7.7868e-15
10273.83 8.0985e-15
10275.57 8.2835e-15
10277.31 8.3423e-15
10279.05 8.4744e-15
10280.78 8.7408e-15
10282.52 9.1191e-15
10284.26 9.4148e-15
10286.0 9.2453e-15
10287.74 8.7029e-15
10289.48 8.3647e-15
10291.22 8.3593e-15
10292.96 8.3414e-15
10294.7 8.1948e-15
10296.43 8.0335e-15
10298.17 7.9442e-15
10299.91 8.0094e-15
10301.65 8.23e-15
10303.39 8.4953e-15
10305.13 8.7004e-15
10306.87 8.7511e-15
10308.61 8.6282e-15
10310.35 8.4226e-15
10312.08 8.2266e-15
10313.82 8.1358e-15
10315.56 8.1516e-15
10317.3 8.0983e-15
10319.04 7.904e-15
10320.78 7.7008e-15
10322.52 7.5755e-15
10324.26 7.5231e-15
10325.99 7.5343e-15
10327.73 7.5929e-15
10329.47 7.6581e-15
10331.21 7.6413e-15
10332.95 7.5003e-15
10334.69 7.3069e-15
10336.43 7.1263e-15
10338.17 6.9849e-15
10339.91 6.8987e-15
10341.64 6.8558e-15
10343.38 6.8397e-15
10345.12 6.8087e-15
10346.86 6.7698e-15
10348.6 6.9555e-15
10350.34 7.4701e-15
10352.08 7.901e-15
10353.82 7.9214e-15
10355.56 7.6804e-15
10357.29 7.3635e-15
10359.03 7.1275e-15
10360.77 7.0785e-15
10362.51 7.0426e-15
10364.25 6.8521e-15
10365.99 6.5649e-15
10367.73 6.2661e-15
10369.47 6.0197e-15
10371.2 5.8858e-15
10372.94 5.9221e-15
10374.68 6.1487e-15
10376.42 6.4427e-15
10378.16 6.665e-15
10379.9 6.6765e-15
10381.64 6.3919e-15
10383.38 6.1117e-15
10385.12 6.168e-15
10386.85 6.487e-15
10388.59 6.899e-15
10390.33 7.2015e-15
10392.07 7.2032e-15
10393.81 7.0558e-15
10395.55 6.9998e-15
10397.29 6.9506e-15
10399.03 6.7506e-15
10400.77 6.6287e-15
10402.5 6.8901e-15
10404.24 7.3017e-15
10405.98 7.479e-15
10407.72 7.4264e-15
10409.46 7.2771e-15
10411.2 7.1761e-15
10412.94 7.2801e-15
10414.68 7.4599e-15
10416.41 7.465e-15
10418.15 7.3533e-15
10419.89 7.3111e-15
10421.63 7.3166e-15
10423.37 7.2693e-15
10425.11 7.0997e-15
10426.85 6.738e-15
10428.59 6.382e-15
10430.33 6.3808e-15
10432.06 6.6109e-15
10433.8 6.6669e-15
10435.54 6.504e-15
10437.28 6.3112e-15
10439.02 6.0916e-15
10440.76 5.7141e-15
10442.5 5.3791e-15
10444.24 5.5367e-15
10445.98 6.0098e-15
10447.71 6.127e-15
10449.45 5.8258e-15
10451.19 5.5411e-15
10452.93 5.4553e-15
10454.67 5.5614e-15
10456.41 5.7571e-15
10458.15 5.8001e-15
10459.89 5.7191e-15
10461.62 5.846e-15
10463.36 6.1889e-15
10465.1 6.4252e-15
10466.84 6.3305e-15
10468.58 5.7262e-15
10470.32 4.8897e-15
10472.06 4.7558e-15
10473.8 5.4313e-15
10475.54 5.8335e-15
10477.27 5.5483e-15
10479.01 5.156e-15
10480.75 4.9681e-15
10482.49 4.8942e-15
10484.23 4.9372e-15
10485.97 5.2393e-15
10487.71 5.7222e-15
10489.45 5.9098e-15
10491.19 5.6261e-15
10492.92 5.3116e-15
10494.66 5.2162e-15
10496.4 5.1401e-15
10498.14 4.9941e-15
10499.88 4.9517e-15
10501.62 5.0748e-15
10503.36 5.1614e-15
10505.1 5.0973e-15
10506.83 5.0229e-15
10508.57 5.0291e-15
10510.31 5.0267e-15
10512.05 4.9708e-15
10513.79 4.9752e-15
10515.53 5.1044e-15
10517.27 5.2089e-15
10519.01 5.2098e-15
10520.75 5.3867e-15
10522.48 5.8943e-15
10524.22 6.2868e-15
10525.96 6.2198e-15
10527.7 5.9845e-15
10529.44 5.8636e-15
10531.18 5.7861e-15
10532.92 5.6797e-15
10534.66 5.6155e-15
10536.4 5.6463e-15
10538.13 5.7299e-15
10539.87 5.8092e-15
10541.61 5.7555e-15
10543.35 5.4798e-15
10545.09 5.2727e-15
10546.83 5.415e-15
10548.57 5.6479e-15
10550.31 5.6601e-15
10552.04 5.4782e-15
10553.78 5.2007e-15
10555.52 4.9528e-15
10557.26 4.8612e-15
10559.0 4.9749e-15
10560.74 5.2929e-15
10562.48 5.677e-15
10564.22 5.9574e-15
10565.96 5.9973e-15
10567.69 5.7084e-15
10569.43 5.2361e-15
10571.17 4.785e-15
10572.91 4.6771e-15
10574.65 5.2361e-15
10576.39 5.8604e-15
10578.13 5.6668e-15
10579.87 4.9867e-15
10581.61 4.5827e-15
10583.34 4.566e-15
10585.08 4.8047e-15
10586.82 5.0847e-15
10588.56 5.1391e-15
10590.3 4.9848e-15
10592.04 4.769e-15
10593.78 4.6898e-15
10595.52 4.987e-15
10597.25 5.3909e-15
10598.99 5.3622e-15
10600.73 4.964e-15
10602.47 4.5676e-15
10604.21 4.529e-15
10605.95 5.2508e-15
10607.69 6.1923e-15
10609.43 6.1369e-15
10611.17 5.274e-15
10612.9 4.8287e-15
10614.64 4.9583e-15
10616.38 5.0085e-15
10618.12 4.9783e-15
10619.86 5.3523e-15
10621.6 6.1121e-15
10623.34 6.8477e-15
10625.08 7.2927e-15
10626.82 7.2935e-15
10628.55 6.9363e-15
10630.29 6.5753e-15
10632.03 6.3894e-15
10633.77 6.3429e-15
10635.51 6.4307e-15
10637.25 6.6781e-15
10638.99 7.0196e-15
10640.73 7.2793e-15
10642.46 7.424e-15
10644.2 7.6405e-15
10645.94 7.9125e-15
10647.68 7.9149e-15
10649.42 7.565e-15
10651.16 7.1368e-15
10652.9 6.845e-15
10654.64 6.8207e-15
10656.38 7.0519e-15
10658.11 7.2672e-15
10659.85 7.2642e-15
10661.59 6.9631e-15
10663.33 6.4628e-15
10665.07 6.2595e-15
10666.81 6.5727e-15
10668.55 6.9801e-15
10670.29 7.1406e-15
10672.03 6.913e-15
10673.76 6.3428e-15
10675.5 6.0058e-15
10677.24 6.2282e-15
10678.98 6.4851e-15
10680.72 6.449e-15
10682.46 6.5408e-15
10684.2 7.0391e-15
10685.94 7.7617e-15
10687.67 8.4458e-15
10689.41 8.5554e-15
10691.15 7.7933e-15
10692.89 6.7509e-15
10694.63 6.0461e-15
10696.37 6.117e-15
10698.11 7.1419e-15
10699.85 8.2245e-15
10701.59 8.5647e-15
10703.32 8.5201e-15
10705.06 8.545e-15
10706.8 8.9481e-15
10708.54 9.8985e-15
10710.28 1.0672e-14
10712.02 1.0579e-14
10713.76 9.9596e-15
10715.5 9.3103e-15
10717.24 9.0827e-15
10718.97 9.6273e-15
10720.71 1.023e-14
10722.45 1.0103e-14
10724.19 9.9946e-15
10725.93 1.0808e-14
10727.67 1.2323e-14
10729.41 1.4057e-14
10731.15 1.4907e-14
10732.88 1.3787e-14
10734.62 1.2008e-14
10736.36 1.1425e-14
10738.1 1.1675e-14
10739.84 1.1806e-14
10741.58 1.1665e-14
10743.32 1.1287e-14
10745.06 1.1149e-14
10746.8 1.1909e-14
10748.53 1.2853e-14
10750.27 1.2741e-14
10752.01 1.2656e-14
10753.75 1.455e-14
10755.49 1.6886e-14
10757.23 1.6732e-14
10758.97 1.4829e-14
10760.71 1.3544e-14
10762.45 1.3105e-14
10764.18 1.2827e-14
10765.92 1.225e-14
10767.66 1.0879e-14
10769.4 9.6655e-15
10771.14 1.0438e-14
10772.88 1.2586e-14
10774.62 1.4e-14
10776.36 1.4334e-14
10778.09 1.4382e-14
10779.83 1.4418e-14
10781.57 1.4425e-14
10783.31 1.461e-14
10785.05 1.5282e-14
10786.79 1.6345e-14
10788.53 1.7433e-14
10790.27 1.805e-14
10792.01 1.7556e-14
10793.74 1.6252e-14
10795.48 1.5365e-14
10797.22 1.5255e-14
10798.96 1.5346e-14
10800.7 1.5542e-14
10802.44 1.6289e-14
10804.18 1.7244e-14
10805.92 1.7184e-14
10807.66 1.5837e-14
10809.39 1.4041e-14
10811.13 1.2615e-14
10812.87 1.244e-14
10814.61 1.3474e-14
10816.35 1.4205e-14
10818.09 1.4139e-14
10819.83 1.4488e-14
10821.57 1.5678e-14
10823.3 1.681e-14
10825.04 1.7581e-14
10826.78 1.8787e-14
10828.52 2.0534e-14
10830.26 2.16e-14
10832.0 2.1418e-14
10833.74 2.0766e-14
10835.48 2.0169e-14
10837.22 1.959e-14
10838.95 1.8925e-14
10840.69 1.7578e-14
10842.43 1.5731e-14
10844.17 1.5968e-14
10845.91 1.9338e-14
10847.65 2.236e-14
10849.39 2.266e-14
10851.13 2.2041e-14
10852.87 2.1758e-14
10854.6 2.0232e-14
10856.34 1.6859e-14
10858.08 1.4697e-14
10859.82 1.5921e-14
10861.56 1.9063e-14
10863.3 2.2245e-14
10865.04 2.2872e-14
10866.78 1.9404e-14
10868.51 1.5633e-14
10870.25 1.4928e-14
10871.99 1.5042e-14
10873.73 1.375e-14
10875.47 1.2438e-14
10877.21 1.2494e-14
10878.95 1.3534e-14
10880.69 1.4961e-14
10882.43 1.5641e-14
10884.16 1.4688e-14
10885.9 1.4508e-14
10887.64 1.7462e-14
10889.38 2.0529e-14
10891.12 2.0263e-14
10892.86 1.849e-14
10894.6 1.7792e-14
10896.34 1.7905e-14
10898.08 1.8028e-14
10899.81 1.7218e-14
10901.55 1.4623e-14
10903.29 1.1164e-14
10905.03 8.226e-15
10906.77 6.7008e-15
10908.51 7.1914e-15
10910.25 8.9306e-15
10911.99 1.0694e-14
10913.73 1.1725e-14
10915.46 1.1528e-14
10917.2 1.0791e-14
10918.94 1.058e-14
10920.68 1.1668e-14
10922.42 1.4695e-14
10924.16 1.7384e-14
10925.9 1.636e-14
10927.64 1.2705e-14
10929.37 9.4623e-15
10931.11 8.2918e-15
10932.85 1.0181e-14
10934.59 1.3777e-14
10936.33 1.6446e-14
10938.07 1.7075e-14
10939.81 1.5374e-14
10941.55 1.298e-14
10943.29 1.286e-14
10945.02 1.4472e-14
10946.76 1.4928e-14
10948.5 1.3922e-14
10950.24 1.2852e-14
10951.98 1.2307e-14
10953.72 1.2359e-14
10955.46 1.2955e-14
10957.2 1.396e-14
10958.94 1.4559e-14
10960.67 1.3293e-14
10962.41 1.0723e-14
10964.15 9.3323e-15
10965.89 9.7164e-15
10967.63 1.0606e-14
10969.37 1.1362e-14
10971.11 1.1851e-14
10972.85 1.2357e-14
10974.58 1.387e-14
10976.32 1.6066e-14
10978.06 1.6949e-14
10979.8 1.5813e-14
10981.54 1.3602e-14
10983.28 1.1138e-14
10985.02 9.1961e-15
10986.76 7.8724e-15
10988.5 5.8957e-15
10990.23 3.3707e-15
10991.97 2.9875e-15
10993.71 5.1313e-15
10995.45 5.9438e-15
10997.19 3.9984e-15
10998.93 2.687e-15
